%OpenBCI Raw EEG Data
%
%Sample Rate = 250.0 Hz
%First Column = SampleIndex
%Other Columns = EEG data in microvolts followed by Accel Data (in G) interleaved with Aux Data
0, 58359.35, 51997.29, 37190.20, 26976.12, 17182.12, 44408.20, 30905.96, 0.00, 0.04, 0.40, 0.29
1, 58311.43, 51977.91, 37163.28, 26996.73, 17188.04, 44270.04, 30957.23, 0.00, 0.00, 0.00, 0.00
2, 58336.91, 51988.28, 37242.65, 27011.61, 17191.69, 44556.50, 30954.97, 0.00, 0.00, 0.00, 0.00
3, 58391.76, 52014.27, 37272.76, 26992.59, 17176.11, 44730.76, 30926.45, 0.00, 0.00, 0.00, 0.00
4, 58375.09, 52012.26, 37213.33, 26981.73, 17177.00, 44466.27, 30912.15, 0.00, 0.00, 0.00, 0.00
5, 58330.23, 51992.01, 37173.39, 27004.57, 17189.47, 44279.56, 30956.67, 0.00, 0.00, 0.00, 0.00
6, 58329.22, 51992.95, 37224.19, 27026.86, 17199.58, 44485.67, 30961.46, 0.00, 0.00, 0.00, 0.00
7, 58386.73, 52013.43, 37273.86, 27025.45, 17188.94, 44745.82, 30927.79, 0.00, 0.08, 0.81, 0.57
8, 58377.97, 52009.63, 37208.79, 27026.01, 17173.89, 44540.68, 30922.05, 0.00, 0.00, 0.00, 0.00
9, 58328.98, 51991.77, 37167.06, 26982.69, 17182.63, 44298.16, 30956.58, 0.00, 0.00, 0.00, 0.00
10, 58321.91, 51988.70, 37215.45, 27017.80, 17202.77, 44428.41, 30975.96, 0.00, 0.00, 0.00, 0.00
11, 58374.82, 52003.14, 37287.94, 26982.29, 17192.25, 44748.21, 30938.23, 0.00, 0.00, 0.00, 0.00
12, 58375.96, 52000.97, 37223.23, 26970.44, 17175.66, 44574.09, 30897.02, 0.00, 0.00, 0.00, 0.00
13, 58327.41, 51981.17, 37180.98, 26984.81, 17180.85, 44303.82, 30917.13, 0.00, 0.00, 0.00, 0.00
14, 58307.23, 51981.57, 37195.11, 26999.52, 17193.03, 44351.38, 30964.68, 0.00, 0.00, 0.00, 0.00
15, 58360.98, 52004.75, 37267.44, 27013.96, 17189.29, 44718.53, 30952.94, 0.00, 0.00, 0.00, 0.00
16, 58391.43, 52020.00, 37221.18, 26986.51, 17179.39, 44639.47, 30931.77, 0.00, 0.08, 0.81, 0.58
17, 58350.52, 51999.81, 37165.00, 26974.78, 17187.11, 44346.51, 30946.30, 0.00, 0.00, 0.00, 0.00
18, 58312.97, 51985.15, 37165.43, 26989.26, 17190.90, 44293.64, 30945.86, 0.00, 0.00, 0.00, 0.00
19, 58361.27, 52003.37, 37251.80, 27004.62, 17185.43, 44662.65, 30912.42, 0.00, 0.00, 0.00, 0.00
20, 58390.87, 52013.16, 37244.22, 26980.92, 17174.61, 44679.79, 30880.97, 0.00, 0.00, 0.00, 0.00
21, 58353.23, 51993.15, 37191.69, 26975.36, 17176.80, 44383.61, 30915.57, 0.00, 0.00, 0.00, 0.00
22, 58304.70, 51963.98, 37176.29, 26981.75, 17187.40, 44294.09, 30976.92, 0.00, 0.00, 0.00, 0.00
23, 58341.20, 51984.97, 37247.46, 26995.65, 17184.76, 44619.22, 30942.14, 0.00, 0.00, 0.00, 0.00
24, 58396.46, 52018.86, 37261.70, 26999.97, 17181.85, 44726.62, 30909.91, 0.00, 0.00, 0.00, 0.00
25, 58371.76, 52006.74, 37191.45, 26971.00, 17182.21, 44447.98, 30942.70, 0.00, 0.00, 0.00, 0.00
26, 58321.24, 51984.99, 37165.50, 26981.57, 17185.03, 44286.96, 30966.75, 0.00, 0.08, 0.80, 0.58
27, 58332.95, 51990.20, 37235.41, 26991.74, 17186.21, 44561.80, 30941.14, 0.00, 0.00, 0.00, 0.00
28, 58387.76, 52007.84, 37261.92, 26976.23, 17170.81, 44757.60, 30892.81, 0.00, 0.00, 0.00, 0.00
29, 58375.29, 52002.09, 37203.09, 26964.94, 17172.38, 44505.70, 30917.58, 0.00, 0.00, 0.00, 0.00
30, 58325.71, 51990.00, 37168.91, 26975.38, 17193.01, 44298.45, 30966.08, 0.00, 0.00, 0.00, 0.00
31, 58319.59, 51993.35, 37209.71, 26986.69, 17187.53, 44474.85, 30932.82, 0.00, 0.00, 0.00, 0.00
32, 58379.94, 52014.16, 37276.61, 26978.02, 17176.29, 44743.12, 30902.31, 0.00, 0.00, 0.00, 0.00
33, 58374.33, 52009.49, 37227.75, 26976.61, 17173.38, 44552.64, 30918.81, 0.00, 0.00, 0.00, 0.00
34, 58323.43, 51981.13, 37173.86, 26966.17, 17179.80, 44318.16, 30965.73, 0.00, 0.00, 0.00, 0.00
35, 58308.57, 51972.57, 37194.66, 26986.22, 17198.26, 44419.44, 30975.43, 0.00, 0.00, 0.00, 0.00
36, 58367.87, 52002.67, 37273.99, 26990.45, 17193.54, 44744.66, 30925.52, 0.00, 0.08, 0.79, 0.58
37, 58375.16, 52009.02, 37239.97, 26927.95, 17182.99, 44595.06, 30914.67, 0.00, 0.00, 0.00, 0.00
38, 58326.16, 51979.45, 37180.58, 26928.51, 17187.62, 44311.48, 30945.70, 0.00, 0.00, 0.00, 0.00
39, 58302.80, 51972.99, 37196.79, 26954.39, 17190.82, 44333.45, 30955.42, 0.00, 0.00, 0.00, 0.00
40, 58359.60, 52001.67, 37282.73, 27010.27, 17191.60, 44710.98, 30934.10, 0.00, 0.00, 0.00, 0.00
41, 58379.58, 52011.21, 37239.10, 26948.27, 17167.55, 44640.10, 30885.71, 0.00, 0.00, 0.00, 0.00
42, 58333.49, 51984.37, 37171.04, 26918.61, 17164.24, 44337.54, 30891.92, 0.00, 0.00, 0.00, 0.00
43, 58303.32, 51973.19, 37177.25, 26945.81, 17181.14, 44284.41, 30952.74, 0.00, 0.00, 0.00, 0.00
44, 58350.41, 51998.38, 37266.28, 26975.83, 17190.14, 44649.15, 30943.08, 0.00, 0.00, 0.00, 0.00
45, 58386.89, 52021.76, 37249.58, 26951.71, 17180.64, 44686.39, 30925.25, 0.00, 0.00, 0.00, 0.00
46, 58348.20, 52012.39, 37182.55, 26946.39, 17187.84, 44397.76, 30935.55, 0.00, 0.08, 0.80, 0.58
47, 58304.93, 51998.65, 37173.92, 26948.98, 17185.81, 44271.05, 30924.04, 0.00, 0.00, 0.00, 0.00
48, 58335.12, 52014.21, 37243.39, 26968.70, 17179.33, 44581.76, 30897.78, 0.00, 0.00, 0.00, 0.00
49, 58395.18, 52041.99, 37259.98, 26963.69, 17183.19, 44735.20, 30925.09, 0.00, 0.00, 0.00, 0.00
50, 58377.79, 52033.81, 37210.24, 26961.37, 17202.64, 44472.44, 30981.62, 0.00, 0.00, 0.00, 0.00
51, 58329.47, 52015.57, 37174.93, 26964.47, 17196.47, 44281.22, 30984.12, 0.00, 0.00, 0.00, 0.00
52, 58345.41, 52026.12, 37238.96, 26979.56, 17196.76, 44515.18, 30922.83, 0.00, 0.00, 0.00, 0.00
53, 58413.31, 52060.27, 37287.94, 26986.18, 17187.80, 44731.94, 30891.03, 0.00, 0.00, 0.00, 0.00
54, 58414.74, 52068.36, 37223.45, 26973.06, 17197.59, 44508.85, 30924.73, 0.00, 0.00, 0.00, 0.00
55, 58357.81, 52043.66, 37186.17, 26978.85, 17193.25, 44292.39, 30938.86, 0.00, 0.00, 0.00, 0.00
56, 58353.16, 52035.73, 37225.80, 26969.44, 17192.31, 44461.48, 30948.54, 0.00, 0.08, 0.81, 0.58
57, 58411.30, 52050.95, 37273.99, 26962.08, 17176.29, 44745.48, 30901.11, 0.00, 0.00, 0.00, 0.00
58, 58411.68, 52052.61, 37219.48, 26949.07, 17174.39, 44557.62, 30912.15, 0.00, 0.00, 0.00, 0.00
59, 58353.90, 52027.37, 37156.82, 26957.74, 17182.14, 44299.19, 30937.58, 0.00, 0.00, 0.00, 0.00
60, 58328.75, 52012.93, 37190.89, 26971.60, 17188.60, 44380.86, 30929.52, 0.00, 0.00, 0.00, 0.00
61, 58387.36, 52039.15, 37265.90, 26954.86, 17176.38, 44727.83, 30914.70, 0.00, 0.00, 0.00, 0.00
62, 58405.08, 52051.94, 37229.00, 26935.33, 17175.77, 44603.48, 30918.43, 0.00, 0.00, 0.00, 0.00
63, 58358.04, 52025.27, 37179.11, 26944.92, 17189.18, 44321.92, 30934.34, 0.00, 0.00, 0.00, 0.00
64, 58331.26, 52010.99, 37190.48, 26978.64, 17195.91, 44330.95, 30962.13, 0.00, 0.00, 0.00, 0.00
65, 58387.52, 52041.88, 37271.06, 26965.34, 17185.90, 44707.24, 30937.34, 0.00, 0.08, 0.81, 0.58
66, 58409.78, 52050.37, 37240.48, 26925.54, 17158.96, 44664.46, 30894.89, 0.00, 0.00, 0.00, 0.00
67, 58370.62, 52032.36, 37196.43, 26925.13, 17181.96, 44367.16, 30942.81, 0.00, 0.00, 0.00, 0.00
68, 58324.77, 52009.02, 37189.97, 26952.00, 17185.00, 44296.48, 30944.18, 0.00, 0.00, 0.00, 0.00
69, 58371.09, 52036.98, 37249.38, 26976.88, 17183.04, 44647.45, 30935.84, 0.00, 0.00, 0.00, 0.00
70, 58414.70, 52053.28, 37254.01, 26931.28, 17168.13, 44706.19, 30912.28, 0.00, 0.00, 0.00, 0.00
71, 58387.89, 52042.57, 37212.14, 26931.71, 17178.79, 44417.18, 30928.13, 0.00, 0.00, 0.00, 0.00
72, 58338.59, 52015.91, 37178.66, 26936.11, 17182.19, 44262.22, 30938.01, 0.00, 0.00, 0.00, 0.00
73, 58360.43, 52018.43, 37249.56, 26958.42, 17188.36, 44546.54, 30929.14, 0.00, 0.00, 0.00, 0.00
74, 58411.43, 52040.63, 37266.53, 26948.63, 17161.80, 44738.02, 30909.69, 0.00, 0.00, 0.00, 0.00
75, 58392.28, 52036.78, 37210.54, 26922.07, 17174.90, 44469.29, 30923.44, 0.00, 0.08, 0.81, 0.58
76, 58342.03, 52015.28, 37190.93, 26949.90, 17188.63, 44269.06, 30971.00, 0.00, 0.00, 0.00, 0.00
77, 58350.52, 52020.98, 37267.51, 26951.82, 17191.66, 44496.76, 30963.27, 0.00, 0.00, 0.00, 0.00
78, 58409.04, 52050.24, 37268.58, 26921.02, 17177.07, 44742.29, 30925.36, 0.00, 0.00, 0.00, 0.00
79, 58401.84, 52047.60, 37193.26, 26923.05, 17179.10, 44530.69, 30941.70, 0.00, 0.00, 0.00, 0.00
80, 58347.62, 52022.57, 37165.38, 26943.17, 17179.91, 44303.52, 30944.07, 0.00, 0.00, 0.00, 0.00
81, 58337.07, 52015.79, 37214.07, 26961.66, 17191.26, 44437.32, 30933.05, 0.00, 0.00, 0.00, 0.00
82, 58394.13, 52029.36, 37280.34, 26943.55, 17176.44, 44751.86, 30900.35, 0.00, 0.00, 0.00, 0.00
83, 58390.11, 52023.10, 37221.93, 26899.09, 17157.73, 44563.23, 30882.13, 0.00, 0.00, 0.00, 0.00
84, 58340.27, 52005.20, 37172.29, 26902.85, 17165.24, 44293.20, 30926.16, 0.00, 0.00, 0.00, 0.00
85, 58328.69, 52006.74, 37213.33, 26952.43, 17187.71, 44361.53, 30950.33, 0.00, 0.08, 0.80, 0.57
86, 58391.16, 52035.24, 37298.71, 26967.54, 17185.65, 44729.26, 30916.96, 0.00, 0.00, 0.00, 0.00
87, 58405.82, 52045.95, 37238.09, 26897.31, 17160.60, 44606.75, 30879.60, 0.00, 0.00, 0.00, 0.00
88, 58358.52, 52028.80, 37201.32, 26905.96, 17176.04, 44330.70, 30930.81, 0.00, 0.00, 0.00, 0.00
89, 58319.39, 52012.06, 37196.03, 26918.56, 17182.72, 44314.75, 30949.72, 0.00, 0.00, 0.00, 0.00
90, 58375.47, 52036.49, 37265.27, 26935.28, 17184.56, 44674.12, 30897.40, 0.00, 0.00, 0.00, 0.00
91, 58406.43, 52047.51, 37245.36, 26914.32, 17172.55, 44643.16, 30866.10, 0.00, 0.00, 0.00, 0.00
92, 58375.85, 52038.19, 37196.57, 26916.17, 17194.77, 44348.50, 30929.63, 0.00, 0.00, 0.00, 0.00
93, 58335.66, 52019.39, 37186.35, 26934.48, 17196.22, 44260.39, 30939.82, 0.00, 0.00, 0.00, 0.00
94, 58377.37, 52036.94, 37266.53, 26960.14, 17194.39, 44595.93, 30924.44, 0.00, 0.00, 0.00, 0.00
95, 58422.23, 52052.20, 37256.64, 26947.42, 17183.93, 44673.83, 30913.11, 0.00, 0.08, 0.81, 0.58
96, 58381.50, 52039.53, 37197.79, 26960.43, 17187.91, 44387.46, 30920.44, 0.00, 0.00, 0.00, 0.00
97, 58329.36, 52011.70, 37187.24, 26967.74, 17200.11, 44236.63, 30928.09, 0.00, 0.00, 0.00, 0.00
98, 58349.45, 52014.61, 37263.96, 26958.97, 17206.69, 44528.18, 30926.72, 0.00, 0.00, 0.00, 0.00
99, 58404.79, 52033.18, 37266.57, 26938.93, 17179.84, 44706.35, 30896.30, 0.00, 0.00, 0.00, 0.00
100, 58381.70, 52023.39, 37195.31, 26933.76, 17177.67, 44435.02, 30903.88, 0.00, 0.00, 0.00, 0.00
101, 58330.88, 52007.66, 37165.79, 26928.53, 17176.55, 44236.98, 30931.42, 0.00, 0.00, 0.00, 0.00
102, 58331.75, 52012.60, 37224.23, 26944.58, 17181.83, 44447.58, 30922.16, 0.00, 0.00, 0.00, 0.00
103, 58395.07, 52034.70, 37263.15, 26937.38, 17177.20, 44705.88, 30903.37, 0.00, 0.00, 0.00, 0.00
104, 58395.36, 52033.88, 37214.07, 26923.17, 17178.48, 44482.88, 30894.40, 0.00, 0.09, 0.80, 0.58
105, 58350.16, 52014.25, 37183.76, 26961.88, 17183.82, 44263.14, 30911.21, 0.00, 0.00, 0.00, 0.00
106, 58346.01, 52019.95, 37210.91, 26964.18, 17186.75, 44398.16, 30933.00, 0.00, 0.00, 0.00, 0.00
107, 58402.74, 52042.97, 37266.68, 26971.85, 17172.60, 44722.06, 30890.80, 0.00, 0.00, 0.00, 0.00
108, 58402.94, 52035.93, 37218.58, 26941.88, 17169.58, 44571.99, 30892.52, 0.00, 0.00, 0.00, 0.00
109, 58353.29, 52023.15, 37180.29, 26932.02, 17179.01, 44294.59, 30926.41, 0.00, 0.00, 0.00, 0.00
110, 58323.41, 52026.05, 37198.73, 26959.35, 17191.20, 44326.61, 30939.87, 0.00, 0.00, 0.00, 0.00
111, 58382.06, 52039.51, 37261.70, 26975.34, 17185.54, 44692.36, 30922.10, 0.00, 0.00, 0.00, 0.00
112, 58413.33, 52041.79, 37229.76, 26944.33, 17182.75, 44625.84, 30913.31, 0.00, 0.00, 0.00, 0.00
113, 58359.20, 52017.16, 37175.38, 26930.28, 17191.58, 44318.90, 30906.20, 0.00, 0.00, 0.00, 0.00
114, 58319.79, 52001.36, 37165.81, 26941.52, 17193.92, 44266.40, 30929.56, 0.00, 0.09, 0.80, 0.58
115, 58368.65, 52024.93, 37262.66, 26963.85, 17196.18, 44625.88, 30915.19, 0.00, 0.00, 0.00, 0.00
116, 58401.26, 52039.35, 37250.84, 26952.65, 17172.49, 44653.04, 30894.65, 0.00, 0.00, 0.00, 0.00
117, 58359.04, 52021.29, 37169.36, 26928.93, 17179.44, 44341.79, 30909.40, 0.00, 0.00, 0.00, 0.00
118, 58322.05, 52009.58, 37162.57, 26943.33, 17193.99, 44244.85, 30940.20, 0.00, 0.00, 0.00, 0.00
119, 58361.21, 52027.44, 37256.18, 26967.63, 17196.72, 44598.66, 30926.61, 0.00, 0.00, 0.00, 0.00
120, 58407.77, 52044.65, 37258.32, 26939.62, 17186.52, 44693.99, 30878.49, 0.00, 0.00, 0.00, 0.00
121, 58373.66, 52025.09, 37190.64, 26921.18, 17177.40, 44404.51, 30875.42, 0.00, 0.00, 0.00, 0.00
122, 58325.71, 52007.86, 37165.14, 26939.57, 17183.95, 44256.56, 30932.00, 0.00, 0.00, 0.00, 0.00
123, 58343.41, 52015.66, 37236.91, 26965.97, 17197.41, 44546.60, 30938.48, 0.00, 0.00, 0.00, 0.00
124, 58401.73, 52035.86, 37274.08, 26964.09, 17181.12, 44743.32, 30890.60, 0.00, 0.08, 0.79, 0.58
125, 58378.82, 52023.82, 37208.07, 26926.21, 17170.97, 44476.24, 30881.91, 0.00, 0.00, 0.00, 0.00
126, 58325.73, 52001.55, 37182.42, 26927.50, 17176.20, 44251.67, 30892.86, 0.00, 0.00, 0.00, 0.00
127, 58332.66, 52013.29, 37256.02, 26962.04, 17193.95, 44443.38, 30899.79, 0.00, 0.00, 0.00, 0.00
128, 58394.55, 52038.10, 37277.03, 26958.66, 17178.88, 44730.29, 30861.16, 0.00, 0.00, 0.00, 0.00
129, 58384.72, 52024.49, 37197.08, 26926.30, 17164.31, 44536.16, 30881.50, 0.00, 0.00, 0.00, 0.00
130, 58328.24, 51992.77, 37140.98, 26931.57, 17175.35, 44286.40, 30912.71, 0.00, 0.00, 0.00, 0.00
131, 58318.56, 51994.20, 37196.09, 26967.94, 17186.32, 44387.84, 30918.54, 0.00, 0.00, 0.00, 0.00
132, 58384.14, 52028.31, 37286.42, 27001.00, 17180.58, 44735.18, 30900.88, 0.00, 0.00, 0.00, 0.00
133, 58395.59, 52035.42, 37223.99, 26948.80, 17171.12, 44594.72, 30878.46, 0.00, 0.00, 0.00, 0.00
134, 58343.24, 52012.30, 37166.28, 26926.10, 17178.16, 44300.71, 30896.79, 0.00, 0.08, 0.80, 0.58
135, 58309.91, 51999.66, 37183.73, 26935.82, 17176.04, 44303.30, 30883.92, 0.00, 0.00, 0.00, 0.00
136, 58372.00, 52028.06, 37275.42, 26956.61, 17184.38, 44681.74, 30894.38, 0.00, 0.00, 0.00, 0.00
137, 58400.30, 52041.14, 37244.71, 26956.61, 17179.37, 44634.13, 30884.25, 0.00, 0.00, 0.00, 0.00
138, 58357.81, 52023.46, 37172.20, 26931.04, 17182.72, 44327.51, 30877.48, 0.00, 0.00, 0.00, 0.00
139, 58318.74, 52004.37, 37164.71, 26948.13, 17182.17, 44257.75, 30903.61, 0.00, 0.00, 0.00, 0.00
140, 58372.54, 52034.37, 37263.08, 26973.19, 17189.25, 44629.08, 30902.31, 0.00, 0.00, 0.00, 0.00
141, 58411.45, 52054.33, 37247.57, 26939.73, 17159.79, 44664.51, 30859.87, 0.00, 0.00, 0.00, 0.00
142, 58376.25, 52038.73, 37187.51, 26924.37, 17168.71, 44379.23, 30895.45, 0.00, 0.00, 0.00, 0.00
143, 58327.34, 52014.95, 37172.34, 26924.78, 17178.32, 44236.47, 30910.52, 0.00, 0.00, 0.00, 0.00
144, 58358.73, 52035.33, 37256.42, 26955.00, 17180.91, 44542.18, 30871.63, 0.00, 0.08, 0.80, 0.58
145, 58407.05, 52049.81, 37266.04, 26939.46, 17156.66, 44682.79, 30856.49, 0.00, 0.00, 0.00, 0.00
146, 58384.32, 52045.79, 37187.40, 26926.41, 17158.00, 44397.11, 30853.65, 0.00, 0.00, 0.00, 0.00
147, 58340.73, 52035.82, 37166.97, 26934.30, 17171.73, 44191.10, 30862.30, 0.00, 0.00, 0.00, 0.00
148, 58354.95, 52034.61, 37244.22, 26952.87, 17178.88, 44459.94, 30896.61, 0.00, 0.00, 0.00, 0.00
149, 58406.18, 52041.48, 37287.22, 26939.19, 17168.89, 44710.37, 30883.27, 0.00, 0.00, 0.00, 0.00
150, 58389.82, 52030.03, 37202.22, 26934.52, 17164.71, 44464.68, 30860.76, 0.00, 0.00, 0.00, 0.00
151, 58334.92, 52011.37, 37155.48, 26937.40, 17175.39, 44225.92, 30884.59, 0.00, 0.00, 0.00, 0.00
152, 58330.90, 52013.22, 37216.82, 26958.01, 17180.00, 44387.10, 30878.69, 0.00, 0.00, 0.00, 0.00
153, 58387.25, 52033.92, 37258.57, 26955.35, 17166.68, 44688.80, 30856.07, 0.00, 0.08, 0.80, 0.58
154, 58395.34, 52040.43, 37201.30, 26935.39, 17165.16, 44501.50, 30851.80, 0.00, 0.00, 0.00, 0.00
155, 58346.01, 52020.87, 37162.57, 26956.74, 17184.27, 44255.87, 30886.73, 0.00, 0.00, 0.00, 0.00
156, 58330.47, 52016.04, 37196.72, 26930.88, 17189.23, 44334.57, 30902.87, 0.00, 0.00, 0.00, 0.00
157, 58384.88, 52034.39, 37274.53, 26937.61, 17180.36, 44668.60, 30855.64, 0.00, 0.00, 0.00, 0.00
158, 58389.19, 52038.05, 37229.04, 26921.18, 17171.68, 44537.44, 30826.01, 0.00, 0.00, 0.00, 0.00
159, 58339.70, 52012.93, 37164.07, 26909.51, 17169.29, 44256.88, 30841.72, 0.00, 0.00, 0.00, 0.00
160, 58308.86, 51996.62, 37173.50, 26931.10, 17171.01, 44271.81, 30879.27, 0.00, 0.00, 0.00, 0.00
161, 58365.19, 52018.30, 37254.01, 26948.74, 17170.36, 44645.86, 30849.00, 0.00, 0.00, 0.00, 0.00
162, 58395.85, 52035.15, 37226.96, 26928.84, 17162.96, 44605.72, 30837.43, 0.00, 0.00, 0.00, 0.00
163, 58353.21, 52020.22, 37178.06, 26930.74, 17167.46, 44323.93, 30884.92, 0.00, 0.07, 0.81, 0.58
164, 58306.42, 52000.41, 37164.07, 26937.61, 17164.66, 44232.27, 30881.26, 0.00, 0.00, 0.00, 0.00
165, 58349.16, 52015.37, 37250.21, 26949.23, 17169.80, 44575.55, 30833.76, 0.00, 0.00, 0.00, 0.00
166, 58391.88, 52030.90, 37231.46, 26923.59, 17148.10, 44644.12, 30813.62, 0.00, 0.00, 0.00, 0.00
167, 58357.23, 52019.70, 37156.40, 26907.32, 17142.20, 44358.18, 30822.81, 0.00, 0.00, 0.00, 0.00
168, 58313.15, 52008.91, 37139.50, 26922.59, 17147.12, 44224.73, 30836.87, 0.00, 0.00, 0.00, 0.00
169, 58340.33, 52020.40, 37220.73, 26981.37, 17163.93, 44548.34, 30865.48, 0.00, 0.00, 0.00, 0.00
170, 58392.93, 52039.84, 37239.88, 26950.79, 17154.54, 44699.84, 30839.39, 0.00, 0.00, 0.00, 0.00
171, 58368.32, 52028.29, 37178.08, 26906.72, 17158.81, 44436.03, 30842.30, 0.00, 0.00, 0.00, 0.00
172, 58314.94, 52002.70, 37138.88, 26923.21, 17153.22, 44241.25, 30848.27, 0.00, 0.00, 0.00, 0.00
173, 58333.98, 52012.38, 37207.63, 26955.85, 17160.91, 44469.71, 30866.17, 0.00, 0.07, 0.81, 0.58
174, 58393.33, 52039.44, 37246.70, 26935.97, 17143.36, 44709.19, 30812.35, 0.00, 0.00, 0.00, 0.00
175, 58379.60, 52039.73, 37175.46, 26916.66, 17136.14, 44470.52, 30818.36, 0.00, 0.00, 0.00, 0.00
176, 58325.18, 52014.25, 37142.88, 26923.99, 17155.32, 44231.64, 30866.60, 0.00, 0.00, 0.00, 0.00
177, 58321.36, 52012.13, 37193.44, 26976.30, 17172.06, 44389.07, 30875.56, 0.00, 0.00, 0.00, 0.00
178, 58387.29, 52033.59, 37261.65, 26946.01, 17158.94, 44706.53, 30845.83, 0.00, 0.00, 0.00, 0.00
179, 58401.20, 52042.21, 37210.20, 26900.61, 17152.93, 44525.97, 30838.63, 0.00, 0.00, 0.00, 0.00
180, 58355.22, 52029.32, 37166.64, 26919.72, 17156.71, 44276.79, 30851.93, 0.00, 0.00, 0.00, 0.00
181, 58332.80, 52024.33, 37195.29, 26969.23, 17167.57, 44335.53, 30866.28, 0.00, 0.00, 0.00, 0.00
182, 58384.66, 52036.40, 37274.84, 26948.85, 17163.72, 44685.74, 30844.98, 0.00, 0.00, 0.00, 0.00
183, 58398.76, 52034.61, 37215.39, 26914.58, 17146.38, 44582.96, 30814.29, 0.00, 0.09, 0.81, 0.58
184, 58357.47, 52017.04, 37148.69, 26897.62, 17151.03, 44298.36, 30823.63, 0.00, 0.00, 0.00, 0.00
185, 58335.14, 52013.36, 37185.37, 26923.19, 17168.73, 44270.22, 30873.21, 0.00, 0.00, 0.00, 0.00
186, 58395.29, 52049.54, 37270.32, 26955.35, 17169.87, 44651.32, 30859.60, 0.00, 0.00, 0.00, 0.00
187, 58430.32, 52067.18, 37226.27, 26931.08, 17155.77, 44642.31, 30838.52, 0.00, 0.00, 0.00, 0.00
188, 58388.03, 52049.79, 37165.50, 26919.72, 17162.12, 44340.34, 30849.63, 0.00, 0.00, 0.00, 0.00
189, 58342.05, 52026.95, 37162.21, 26912.82, 17159.46, 44225.41, 30844.62, 0.00, 0.00, 0.00, 0.00
190, 58377.08, 52039.11, 37238.36, 26929.13, 17167.23, 44575.03, 30838.25, 0.00, 0.00, 0.00, 0.00
191, 58419.66, 52059.87, 37231.05, 26915.68, 17145.58, 44668.75, 30793.28, 0.00, 0.00, 0.00, 0.00
192, 58391.11, 52045.16, 37175.64, 26919.17, 17146.16, 44393.11, 30826.77, 0.00, 0.00, 0.00, 0.00
193, 58342.52, 52022.79, 37151.04, 26905.64, 17151.12, 44227.91, 30856.09, 0.00, 0.08, 0.80, 0.58
194, 58372.79, 52037.52, 37235.14, 26933.61, 17172.58, 44505.09, 30855.15, 0.00, 0.00, 0.00, 0.00
195, 58423.41, 52057.52, 37255.80, 26915.23, 17157.06, 44696.98, 30829.16, 0.00, 0.00, 0.00, 0.00
196, 58403.95, 52060.39, 37182.89, 26898.67, 17157.82, 44435.89, 30837.65, 0.00, 0.00, 0.00, 0.00
197, 58371.13, 52062.66, 37175.15, 26945.03, 17176.26, 44232.78, 30876.59, 0.00, 0.00, 0.00, 0.00
198, 58374.77, 52065.01, 37225.78, 26940.02, 17182.99, 44424.34, 30843.80, 0.00, 0.00, 0.00, 0.00
199, 58438.54, 52084.91, 37261.56, 26904.41, 17173.25, 44682.72, 30808.88, 0.00, 0.00, 0.00, 0.00
200, 58432.42, 52075.23, 37201.23, 26882.96, 17176.06, 44476.21, 30840.87, 0.00, 0.00, 0.00, 0.00
201, 58377.41, 52051.18, 37161.32, 26896.97, 17182.90, 44259.49, 30872.85, 0.00, 0.00, 0.00, 0.00
202, 58366.30, 52046.57, 37195.80, 26922.18, 17182.05, 44371.34, 30847.87, 0.00, 0.08, 0.80, 0.58
203, 58433.52, 52073.84, 37273.28, 26921.85, 17172.13, 44692.16, 30810.61, 0.00, 0.00, 0.00, 0.00
204, 58438.23, 52072.77, 37222.43, 26895.43, 17165.18, 44529.64, 30805.89, 0.00, 0.00, 0.00, 0.00
205, 58388.10, 52051.67, 37155.75, 26904.28, 17172.35, 44271.05, 30837.14, 0.00, 0.00, 0.00, 0.00
206, 58367.85, 52043.64, 37170.14, 26927.06, 17171.32, 44312.22, 30848.96, 0.00, 0.00, 0.00, 0.00
207, 58437.88, 52078.85, 37269.21, 26944.87, 17179.55, 44683.75, 30850.59, 0.00, 0.00, 0.00, 0.00
208, 58453.45, 52091.01, 37231.12, 26923.19, 17166.70, 44600.02, 30809.73, 0.00, 0.00, 0.00, 0.00
209, 58408.21, 52070.89, 37174.66, 26880.88, 17177.72, 44315.21, 30847.84, 0.00, 0.00, 0.00, 0.00
210, 58376.99, 52056.79, 37161.47, 26897.19, 17178.30, 44272.86, 30866.35, 0.00, 0.00, 0.00, 0.00
211, 58418.05, 52069.10, 37233.02, 26910.76, 17169.40, 44627.22, 30825.45, 0.00, 0.00, 0.00, 0.00
212, 58451.44, 52079.68, 37210.87, 26888.70, 17153.60, 44628.61, 30801.57, 0.00, 0.08, 0.80, 0.58
213, 58407.43, 52062.75, 37151.57, 26892.48, 17156.24, 44337.05, 30814.05, 0.00, 0.00, 0.00, 0.00
214, 58366.28, 52052.05, 37147.91, 26910.92, 17172.60, 44243.00, 30850.32, 0.00, 0.00, 0.00, 0.00
215, 58409.20, 52077.13, 37239.88, 26929.34, 17186.28, 44567.61, 30854.32, 0.00, 0.00, 0.00, 0.00
216, 58455.60, 52091.48, 37249.76, 26890.29, 17160.75, 44669.04, 30795.43, 0.00, 0.00, 0.00, 0.00
217, 58423.01, 52078.00, 37183.63, 26883.43, 17156.04, 44387.34, 30797.53, 0.00, 0.00, 0.00, 0.00
218, 58374.13, 52056.34, 37155.15, 26893.69, 17162.94, 44229.65, 30823.55, 0.00, 0.00, 0.00, 0.00
219, 58386.20, 52055.69, 37214.56, 26907.97, 17169.76, 44490.03, 30823.28, 0.00, 0.00, 0.00, 0.00
220, 58442.28, 52083.77, 37249.83, 26909.31, 17158.52, 44698.97, 30800.95, 0.00, 0.00, 0.00, 0.00
221, 58425.63, 52081.30, 37189.03, 26898.69, 17151.63, 44446.22, 30801.89, 0.00, 0.00, 0.00, 0.00
222, 58371.60, 52060.96, 37151.93, 26885.68, 17159.12, 44219.77, 30814.27, 0.00, 0.08, 0.80, 0.57
223, 58376.56, 52068.43, 37194.80, 26907.95, 17171.12, 44393.20, 30805.53, 0.00, 0.00, 0.00, 0.00
224, 58430.72, 52085.55, 37244.35, 26896.61, 17150.45, 44686.61, 30784.90, 0.00, 0.00, 0.00, 0.00
225, 58424.13, 52079.61, 37196.77, 26873.48, 17149.17, 44507.75, 30803.92, 0.00, 0.00, 0.00, 0.00
226, 58371.71, 52053.46, 37154.41, 26889.95, 17163.08, 44254.17, 30827.66, 0.00, 0.00, 0.00, 0.00
227, 58357.79, 52048.47, 37183.36, 26923.55, 17174.21, 44346.98, 30837.49, 0.00, 0.00, 0.00, 0.00
228, 58425.47, 52080.84, 37266.93, 26905.11, 17168.55, 44687.48, 30811.68, 0.00, 0.00, 0.00, 0.00
229, 58432.58, 52087.90, 37217.69, 26888.68, 17159.19, 44552.66, 30800.68, 0.00, 0.00, 0.00, 0.00
230, 58386.60, 52071.98, 37148.33, 26879.80, 17161.18, 44270.60, 30807.32, 0.00, 0.00, 0.00, 0.00
231, 58356.13, 52057.61, 37156.67, 26894.31, 17158.03, 44276.37, 30795.47, 0.00, 0.00, 0.00, 0.00
232, 58413.67, 52079.12, 37251.06, 26931.86, 17154.36, 44648.34, 30790.58, 0.00, 0.08, 0.80, 0.58
233, 58438.48, 52092.26, 37221.73, 26923.08, 17147.21, 44617.84, 30807.45, 0.00, 0.00, 0.00, 0.00
234, 58393.73, 52080.97, 37164.36, 26858.73, 17156.06, 44314.54, 30808.73, 0.00, 0.00, 0.00, 0.00
235, 58355.22, 52067.98, 37153.76, 26874.02, 17163.77, 44250.37, 30820.53, 0.00, 0.00, 0.00, 0.00
236, 58396.95, 52069.75, 37233.36, 26891.40, 17177.63, 44603.48, 30843.57, 0.00, 0.00, 0.00, 0.00
237, 58434.36, 52080.03, 37245.25, 26879.51, 17155.25, 44648.86, 30811.74, 0.00, 0.00, 0.00, 0.00
238, 58395.18, 52063.85, 37172.65, 26867.15, 17150.98, 44359.20, 30805.42, 0.00, 0.00, 0.00, 0.00
239, 58345.89, 52042.32, 37150.77, 26874.48, 17162.38, 44225.92, 30831.28, 0.00, 0.00, 0.00, 0.00
240, 58384.95, 52066.09, 37234.23, 26901.80, 17171.97, 44536.05, 30833.83, 0.00, 0.00, 0.00, 0.00
241, 58441.63, 52094.02, 37258.46, 26886.67, 17168.51, 44685.11, 30826.25, 0.00, 0.09, 0.80, 0.58
242, 58415.97, 52084.21, 37184.63, 26869.12, 17166.61, 44398.43, 30803.61, 0.00, 0.00, 0.00, 0.00
243, 58372.05, 52072.10, 37164.42, 26886.00, 17164.08, 44216.40, 30812.08, 0.00, 0.00, 0.00, 0.00
244, 58386.11, 52085.17, 37226.74, 26932.15, 17165.71, 44482.59, 30816.62, 0.00, 0.00, 0.00, 0.00
245, 58445.12, 52113.71, 37257.72, 26913.91, 17142.80, 44695.57, 30763.62, 0.00, 0.00, 0.00, 0.00
246, 58430.27, 52100.17, 37189.41, 26878.29, 17135.61, 44448.79, 30779.07, 0.00, 0.00, 0.00, 0.00
247, 58373.68, 52070.36, 37149.52, 26884.97, 17138.29, 44222.54, 30799.90, 0.00, 0.00, 0.00, 0.00
248, 58376.92, 52080.97, 37208.52, 26901.11, 17155.97, 44381.93, 30782.91, 0.00, 0.00, 0.00, 0.00
249, 58438.10, 52103.77, 37264.74, 26895.16, 17147.12, 44700.34, 30781.12, 0.00, 0.00, 0.00, 0.00
250, 58426.54, 52085.31, 37198.29, 26862.24, 17130.71, 44511.73, 30793.46, 0.00, 0.00, 0.00, 0.00
251, 58367.69, 52058.51, 37157.43, 26862.39, 17136.25, 44241.10, 30807.25, 0.00, 0.09, 0.80, 0.58
252, 58344.89, 52052.05, 37214.02, 26877.32, 17153.38, 44310.34, 30812.97, 0.00, 0.00, 0.00, 0.00
253, 58412.53, 52084.39, 37279.87, 26882.29, 17154.52, 44668.21, 30794.69, 0.00, 0.00, 0.00, 0.00
254, 58421.78, 52088.14, 37205.53, 26858.50, 17132.75, 44552.41, 30765.01, 0.00, 0.00, 0.00, 0.00
255, 58367.80, 52057.97, 37154.86, 26858.01, 17141.93, 44262.38, 30797.48, 0.00, 0.00, 0.00, 0.00
0, 58340.44, 52046.10, 37164.11, 26879.07, 17162.07, 44254.29, 30821.85, 0.00, 0.00, 0.00, 0.00
1, 58395.32, 52073.82, 37252.80, 26867.94, 17157.44, 44621.64, 30807.95, 0.00, 0.00, 0.00, 0.00
2, 58420.66, 52083.41, 37220.04, 26859.26, 17135.49, 44596.85, 30779.20, 0.00, 0.00, 0.00, 0.00
3, 58385.08, 52065.39, 37160.04, 26859.04, 17143.18, 44326.44, 30816.55, 0.00, 0.00, 0.00, 0.00
4, 58337.13, 52041.43, 37159.19, 26868.79, 17155.37, 44236.02, 30840.00, 0.00, 0.00, 0.00, 0.00
5, 58374.91, 52057.52, 37251.77, 26894.18, 17157.22, 44579.84, 30813.31, 0.00, 0.09, 0.80, 0.58
6, 58421.24, 52080.50, 37240.06, 26858.44, 17137.28, 44647.77, 30790.22, 0.00, 0.00, 0.00, 0.00
7, 58393.39, 52069.26, 37178.01, 26856.36, 17144.88, 44354.84, 30807.25, 0.00, 0.00, 0.00, 0.00
8, 58337.63, 52042.14, 37162.05, 26851.98, 17142.45, 44200.93, 30809.06, 0.00, 0.00, 0.00, 0.00
9, 58360.98, 52053.84, 37231.12, 26891.96, 17145.11, 44507.60, 30792.75, 0.00, 0.00, 0.00, 0.00
10, 58415.39, 52078.51, 37246.81, 26857.63, 17134.60, 44676.91, 30758.44, 0.00, 0.00, 0.00, 0.00
11, 58392.84, 52060.95, 37167.55, 26838.05, 17145.46, 44406.90, 30809.96, 0.00, 0.00, 0.00, 0.00
12, 58335.44, 52030.14, 37138.00, 26858.93, 17151.03, 44208.48, 30837.11, 0.00, 0.00, 0.00, 0.00
13, 58343.44, 52030.97, 37222.34, 26867.82, 17152.57, 44424.38, 30809.62, 0.00, 0.00, 0.00, 0.00
14, 58395.52, 52051.58, 37251.73, 26847.30, 17133.30, 44673.49, 30761.79, 0.00, 0.00, 0.00, 0.00
15, 58384.03, 52053.68, 37180.98, 26840.96, 17139.16, 44473.22, 30794.89, 0.00, 0.08, 0.80, 0.58
16, 58336.87, 52032.58, 37142.63, 26847.78, 17157.29, 44235.35, 30812.97, 0.00, 0.00, 0.00, 0.00
17, 58318.29, 52017.11, 37178.86, 26867.82, 17163.59, 44369.42, 30827.37, 0.00, 0.00, 0.00, 0.00
18, 58379.07, 52039.96, 37236.75, 26872.23, 17139.94, 44683.68, 30783.89, 0.00, 0.00, 0.00, 0.00
19, 58391.38, 52046.50, 37188.59, 26845.96, 17135.52, 44516.83, 30774.06, 0.00, 0.00, 0.00, 0.00
20, 58331.79, 52024.09, 37140.39, 26831.28, 17143.81, 44234.14, 30809.55, 0.00, 0.00, 0.00, 0.00
21, 58314.65, 52024.82, 37169.18, 26864.05, 17165.49, 44295.10, 30844.11, 0.00, 0.00, 0.00, 0.00
22, 58368.27, 52042.30, 37242.03, 26872.38, 17157.62, 44647.23, 30801.40, 0.00, 0.00, 0.00, 0.00
23, 58384.52, 52049.66, 37189.82, 26838.37, 17143.32, 44543.94, 30770.73, 0.00, 0.00, 0.00, 0.00
24, 58345.49, 52035.38, 37132.53, 26831.95, 17146.36, 44265.55, 30798.98, 0.00, 0.00, 0.00, 0.00
25, 58309.60, 52022.14, 37147.05, 26852.07, 17156.44, 44251.11, 30818.94, 0.00, 0.08, 0.80, 0.58
26, 58352.31, 52029.45, 37253.79, 26863.60, 17163.30, 44615.06, 30792.57, 0.00, 0.00, 0.00, 0.00
27, 58387.70, 52039.38, 37223.36, 26833.56, 17147.90, 44602.23, 30763.02, 0.00, 0.00, 0.00, 0.00
28, 58356.07, 52037.68, 37137.89, 26829.45, 17149.62, 44305.40, 30780.77, 0.00, 0.00, 0.00, 0.00
29, 58313.75, 52029.45, 37128.70, 26843.62, 17154.09, 44204.20, 30787.96, 0.00, 0.00, 0.00, 0.00
30, 58346.72, 52034.50, 37213.71, 26866.84, 17149.26, 44547.27, 30774.44, 0.00, 0.00, 0.00, 0.00
31, 58387.07, 52035.84, 37221.44, 26836.58, 17143.14, 44636.36, 30770.06, 0.00, 0.00, 0.00, 0.00
32, 58356.49, 52023.93, 37172.61, 26826.92, 17152.82, 44342.35, 30781.90, 0.00, 0.00, 0.00, 0.00
33, 58309.33, 52008.39, 37144.08, 26851.91, 17157.29, 44184.10, 30795.23, 0.00, 0.00, 0.00, 0.00
34, 58332.55, 52019.79, 37202.06, 26858.12, 17151.65, 44472.10, 30786.49, 0.00, 0.08, 0.81, 0.57
35, 58394.38, 52049.84, 37219.68, 26860.45, 17136.28, 44672.95, 30771.94, 0.00, 0.00, 0.00, 0.00
36, 58377.75, 52046.46, 37163.15, 26838.52, 17133.64, 44414.46, 30794.53, 0.00, 0.00, 0.00, 0.00
37, 58317.98, 52022.39, 37136.04, 26837.13, 17136.28, 44190.94, 30792.70, 0.00, 0.00, 0.00, 0.00
38, 58326.85, 52027.64, 37184.47, 26863.02, 17138.71, 44404.55, 30790.49, 0.00, 0.00, 0.00, 0.00
39, 58386.75, 52052.43, 37235.79, 26883.16, 17123.87, 44692.40, 30792.90, 0.00, 0.00, 0.00, 0.00
40, 58378.35, 52055.94, 37169.36, 26886.38, 17119.85, 44478.50, 30783.47, 0.00, 0.00, 0.00, 0.00
41, 58323.84, 52031.60, 37120.48, 26813.78, 17125.39, 44215.28, 30778.40, 0.00, 0.00, 0.00, 0.00
42, 58315.97, 52026.28, 37173.72, 26844.49, 17136.99, 44333.30, 30806.29, 0.00, 0.00, 0.00, 0.00
43, 58379.43, 52050.04, 37247.17, 26856.65, 17133.01, 44671.95, 30785.12, 0.00, 0.00, 0.00, 0.00
44, 58389.10, 52062.17, 37188.21, 26826.43, 17121.50, 44512.25, 30749.94, 0.00, 0.08, 0.80, 0.58
45, 58335.12, 52033.16, 37139.81, 26832.31, 17123.78, 44231.33, 30753.47, 0.00, 0.00, 0.00, 0.00
46, 58297.26, 52003.25, 37162.95, 26831.17, 17130.94, 44242.28, 30766.48, 0.00, 0.00, 0.00, 0.00
47, 58357.90, 52028.15, 37239.23, 26835.68, 17127.34, 44614.91, 30740.38, 0.00, 0.00, 0.00, 0.00
48, 58390.13, 52048.56, 37214.94, 26830.85, 17134.06, 44573.02, 30782.82, 0.00, 0.00, 0.00, 0.00
49, 58351.06, 52040.04, 37163.20, 26826.85, 17144.99, 44269.28, 30787.87, 0.00, 0.00, 0.00, 0.00
50, 58318.11, 52032.38, 37145.27, 26842.37, 17140.57, 44226.66, 30787.31, 0.00, 0.00, 0.00, 0.00
51, 58359.31, 52045.86, 37234.14, 26853.68, 17141.44, 44592.04, 30753.18, 0.00, 0.00, 0.00, 0.00
52, 58388.95, 52056.00, 37220.41, 26823.28, 17129.73, 44598.84, 30745.52, 0.00, 0.00, 0.00, 0.00
53, 58355.48, 52042.48, 37156.15, 26826.54, 17141.06, 44298.38, 30782.06, 0.00, 0.00, 0.00, 0.00
54, 58313.31, 52027.39, 37142.27, 26843.64, 17145.44, 44192.79, 30801.13, 0.00, 0.08, 0.80, 0.59
55, 58350.37, 52043.82, 37231.55, 26861.32, 17147.54, 44528.99, 30786.15, 0.00, 0.00, 0.00, 0.00
56, 58399.21, 52059.00, 37238.09, 26860.89, 17128.23, 44645.46, 30746.57, 0.00, 0.00, 0.00, 0.00
57, 58372.83, 52052.59, 37160.85, 26838.45, 17129.88, 44359.43, 30752.87, 0.00, 0.00, 0.00, 0.00
58, 58322.43, 52039.96, 37131.16, 26847.53, 17138.65, 44187.45, 30774.73, 0.00, 0.00, 0.00, 0.00
59, 58339.48, 52037.27, 37207.79, 26848.04, 17148.06, 44456.30, 30775.87, 0.00, 0.00, 0.00, 0.00
60, 58394.82, 52048.49, 37242.48, 26841.36, 17130.76, 44669.54, 30754.86, 0.00, 0.00, 0.00, 0.00
61, 58376.56, 52044.20, 37181.57, 26845.76, 17127.11, 44429.57, 30768.70, 0.00, 0.00, 0.00, 0.00
62, 58324.17, 52022.43, 37151.70, 26825.27, 17125.46, 44197.89, 30766.01, 0.00, 0.00, 0.00, 0.00
63, 58329.91, 52030.59, 37201.68, 26840.13, 17138.78, 44368.90, 30784.10, 0.00, 0.00, 0.00, 0.00
64, 58387.45, 52049.81, 37248.91, 26845.70, 17111.02, 44665.85, 30725.65, 0.00, 0.08, 0.80, 0.59
65, 58378.53, 52046.80, 37183.42, 26817.33, 17116.05, 44467.59, 30761.61, 0.00, 0.00, 0.00, 0.00
66, 58324.48, 52027.21, 37142.52, 26812.59, 17142.92, 44204.13, 30809.49, 0.00, 0.00, 0.00, 0.00
67, 58307.79, 52018.61, 37182.15, 26830.23, 17141.35, 44290.52, 30777.23, 0.00, 0.00, 0.00, 0.00
68, 58372.34, 52041.34, 37254.43, 26839.71, 17131.63, 44635.43, 30745.29, 0.00, 0.00, 0.00, 0.00
69, 58386.44, 52045.72, 37210.60, 26820.82, 17124.41, 44514.48, 30759.15, 0.00, 0.00, 0.00, 0.00
70, 58333.02, 52022.54, 37163.15, 26823.34, 17134.04, 44240.25, 30771.00, 0.00, 0.00, 0.00, 0.00
71, 58310.87, 52016.11, 37184.90, 26838.99, 17139.94, 44257.19, 30791.49, 0.00, 0.00, 0.00, 0.00
72, 58370.59, 52042.77, 37252.15, 26854.37, 17138.80, 44619.29, 30773.68, 0.00, 0.00, 0.00, 0.00
73, 58393.55, 52055.51, 37208.90, 26830.94, 17124.07, 44574.81, 30750.88, 0.00, 0.00, 0.00, 0.00
74, 58348.82, 52042.37, 37150.12, 26832.64, 17133.10, 44296.13, 30782.33, 0.00, 0.08, 0.80, 0.58
75, 58312.84, 52031.82, 37147.19, 26874.57, 17141.11, 44238.14, 30801.17, 0.00, 0.00, 0.00, 0.00
76, 58353.38, 52048.81, 37235.46, 26854.32, 17137.15, 44583.95, 30768.54, 0.00, 0.00, 0.00, 0.00
77, 58388.95, 52052.96, 37220.88, 26812.88, 17116.65, 44598.66, 30712.73, 0.00, 0.00, 0.00, 0.00
78, 58352.22, 52032.67, 37155.17, 26809.84, 17125.19, 44303.97, 30758.26, 0.00, 0.00, 0.00, 0.00
79, 58307.43, 52010.70, 37151.75, 26829.20, 17131.65, 44199.39, 30796.21, 0.00, 0.00, 0.00, 0.00
80, 58339.64, 52020.33, 37225.53, 26850.43, 17129.97, 44502.81, 30760.04, 0.00, 0.00, 0.00, 0.00
81, 58391.54, 52042.28, 37226.18, 26833.80, 17114.75, 44657.75, 30729.58, 0.00, 0.00, 0.00, 0.00
82, 58376.77, 52044.70, 37175.22, 26833.13, 17126.08, 44387.30, 30767.20, 0.00, 0.00, 0.00, 0.00
83, 58328.71, 52026.41, 37150.68, 26847.19, 17141.46, 44199.86, 30802.80, 0.00, 0.08, 0.80, 0.58
84, 58338.32, 52030.01, 37214.34, 26850.12, 17150.49, 44442.02, 30779.69, 0.00, 0.00, 0.00, 0.00
85, 58390.31, 52048.41, 37254.61, 26825.06, 17131.67, 44666.32, 30741.25, 0.00, 0.00, 0.00, 0.00
86, 58374.11, 52039.33, 37179.36, 26801.04, 17126.11, 44422.10, 30742.03, 0.00, 0.00, 0.00, 0.00
87, 58324.21, 52022.61, 37134.58, 26807.36, 17135.32, 44184.50, 30766.04, 0.00, 0.00, 0.00, 0.00
88, 58328.06, 52029.20, 37190.48, 26847.53, 17146.43, 44348.25, 30755.89, 0.00, 0.00, 0.00, 0.00
89, 58389.84, 52056.96, 37263.29, 26875.33, 17137.39, 44663.37, 30735.19, 0.00, 0.00, 0.00, 0.00
90, 58387.11, 52058.17, 37185.01, 26805.80, 17124.01, 44471.66, 30726.32, 0.00, 0.00, 0.00, 0.00
91, 58334.00, 52030.23, 37130.83, 26805.37, 17130.89, 44209.98, 30762.21, 0.00, 0.00, 0.00, 0.00
92, 58313.78, 52018.79, 37165.43, 26838.81, 17139.76, 44286.47, 30767.98, 0.00, 0.00, 0.00, 0.00
93, 58370.21, 52036.83, 37248.13, 26844.20, 17130.67, 44636.86, 30723.88, 0.00, 0.08, 0.81, 0.58
94, 58385.08, 52048.05, 37195.31, 26805.60, 17119.69, 44523.46, 30726.79, 0.00, 0.00, 0.00, 0.00
95, 58342.03, 52044.54, 37133.82, 26812.91, 17119.49, 44251.16, 30754.37, 0.00, 0.00, 0.00, 0.00
96, 58306.45, 52026.32, 37148.44, 26820.39, 17128.50, 44240.74, 30771.58, 0.00, 0.00, 0.00, 0.00
97, 58351.66, 52039.64, 37229.13, 26833.74, 17130.06, 44603.95, 30755.28, 0.00, 0.00, 0.00, 0.00
98, 58380.61, 52045.97, 37202.18, 26810.98, 17109.63, 44570.56, 30723.84, 0.00, 0.00, 0.00, 0.00
99, 58346.25, 52037.00, 37150.30, 26814.13, 17111.78, 44274.36, 30721.85, 0.00, 0.00, 0.00, 0.00
100, 58308.61, 52026.50, 37149.00, 26818.81, 17123.29, 44189.69, 30740.78, 0.00, 0.00, 0.00, 0.00
101, 58345.56, 52041.43, 37232.37, 26854.37, 17127.22, 44540.79, 30752.38, 0.00, 0.00, 0.00, 0.00
102, 58394.02, 52064.79, 37212.61, 26826.25, 17110.04, 44617.43, 30731.14, 0.00, 0.00, 0.00, 0.00
103, 58362.88, 52054.84, 37137.04, 26806.47, 17114.95, 44328.00, 30756.94, 0.00, 0.08, 0.81, 0.57
104, 58320.66, 52040.45, 37137.60, 26821.02, 17135.76, 44179.09, 30776.92, 0.00, 0.00, 0.00, 0.00
105, 58343.06, 52045.72, 37208.97, 26841.38, 17139.34, 44474.98, 30749.54, 0.00, 0.00, 0.00, 0.00
106, 58388.21, 52060.86, 37215.50, 26818.25, 17120.03, 44631.47, 30718.43, 0.00, 0.00, 0.00, 0.00
107, 58362.68, 52049.32, 37161.32, 26812.12, 17112.94, 44374.34, 30726.79, 0.00, 0.00, 0.00, 0.00
108, 58308.73, 52028.00, 37128.32, 26819.59, 17112.67, 44183.03, 30735.84, 0.00, 0.00, 0.00, 0.00
109, 58327.79, 52048.11, 37187.85, 26845.85, 17126.76, 44417.59, 30761.21, 0.00, 0.00, 0.00, 0.00
110, 58395.36, 52075.76, 37230.27, 26823.72, 17119.51, 44665.09, 30728.62, 0.00, 0.00, 0.00, 0.00
111, 58382.11, 52062.66, 37172.11, 26802.27, 17114.37, 44429.66, 30727.93, 0.00, 0.00, 0.00, 0.00
112, 58322.92, 52031.30, 37116.23, 26808.14, 17108.40, 44189.82, 30732.04, 0.00, 0.00, 0.00, 0.00
113, 58309.04, 52028.96, 37161.56, 26837.61, 17116.38, 44324.87, 30731.84, 0.00, 0.08, 0.81, 0.57
114, 58375.98, 52059.00, 37244.11, 26819.28, 17116.99, 44652.01, 30731.59, 0.00, 0.00, 0.00, 0.00
115, 58383.22, 52060.52, 37181.63, 26790.51, 17111.00, 44483.61, 30724.75, 0.00, 0.00, 0.00, 0.00
116, 58331.12, 52035.89, 37122.51, 26810.60, 17118.20, 44218.50, 30746.03, 0.00, 0.00, 0.00, 0.00
117, 58316.14, 52035.71, 37150.41, 26819.97, 17123.63, 44257.59, 30733.56, 0.00, 0.00, 0.00, 0.00
118, 58376.86, 52059.18, 37228.21, 26832.31, 17119.89, 44617.32, 30710.25, 0.00, 0.00, 0.00, 0.00
119, 58395.27, 52068.45, 37195.56, 26796.10, 17099.20, 44518.04, 30693.86, 0.00, 0.00, 0.00, 0.00
120, 58350.59, 52054.62, 37151.77, 26790.71, 17110.10, 44236.71, 30740.02, 0.00, 0.00, 0.00, 0.00
121, 58309.95, 52038.21, 37143.08, 26837.47, 17129.97, 44212.04, 30766.42, 0.00, 0.00, 0.00, 0.00
122, 58356.76, 52051.91, 37219.70, 26823.50, 17124.01, 44577.22, 30737.58, 0.00, 0.08, 0.81, 0.58
123, 58395.32, 52062.53, 37201.88, 26791.49, 17110.95, 44573.78, 30722.29, 0.00, 0.00, 0.00, 0.00
124, 58360.16, 52052.23, 37149.67, 26797.62, 17109.16, 44292.24, 30736.42, 0.00, 0.00, 0.00, 0.00
125, 58318.96, 52041.21, 37140.17, 26810.74, 17115.58, 44191.48, 30729.13, 0.00, 0.00, 0.00, 0.00
126, 58355.44, 52060.25, 37197.46, 26821.60, 17114.82, 44520.00, 30703.12, 0.00, 0.00, 0.00, 0.00
127, 58400.37, 52079.00, 37191.91, 26802.18, 17100.60, 44617.05, 30718.40, 0.00, 0.00, 0.00, 0.00
128, 58363.29, 52059.25, 37143.41, 26794.29, 17098.55, 44335.60, 30723.68, 0.00, 0.00, 0.00, 0.00
129, 58308.86, 52033.88, 37130.89, 26784.41, 17107.11, 44166.33, 30715.77, 0.00, 0.00, 0.00, 0.00
130, 58334.95, 52051.91, 37190.75, 26829.49, 17128.28, 44455.81, 30749.81, 0.00, 0.00, 0.00, 0.00
131, 58390.96, 52073.28, 37208.84, 26806.31, 17103.46, 44636.84, 30711.14, 0.00, 0.00, 0.00, 0.00
132, 58373.57, 52069.37, 37152.75, 26792.57, 17108.31, 44375.45, 30711.83, 0.00, 0.08, 0.81, 0.57
133, 58310.43, 52038.05, 37115.92, 26802.71, 17106.13, 44159.80, 30722.70, 0.00, 0.00, 0.00, 0.00
134, 58309.06, 52035.33, 37170.79, 26800.99, 17106.13, 44348.86, 30708.64, 0.00, 0.00, 0.00, 0.00
135, 58376.96, 52064.45, 37214.94, 26799.34, 17101.97, 44645.73, 30693.88, 0.00, 0.00, 0.00, 0.00
136, 58379.94, 52065.35, 37161.74, 26785.93, 17100.00, 44447.65, 30716.93, 0.00, 0.00, 0.00, 0.00
137, 58328.39, 52038.50, 37125.29, 26795.25, 17108.61, 44202.34, 30752.60, 0.00, 0.00, 0.00, 0.00
138, 58318.18, 52038.73, 37155.59, 26802.45, 17115.47, 44308.00, 30736.73, 0.00, 0.00, 0.00, 0.00
139, 58378.93, 52057.95, 37219.09, 26785.53, 17103.38, 44629.64, 30696.12, 0.00, 0.00, 0.00, 0.00
140, 58384.61, 52058.02, 37172.67, 26757.07, 17097.38, 44465.00, 30696.14, 0.00, 0.00, 0.00, 0.00
141, 58341.52, 52047.49, 37128.91, 26784.61, 17109.16, 44210.16, 30742.21, 0.00, 0.00, 0.00, 0.00
142, 58314.43, 52033.54, 37140.39, 26779.94, 17121.28, 44242.46, 30749.99, 0.00, 0.08, 0.80, 0.57
143, 58366.37, 52046.91, 37221.38, 26790.26, 17113.93, 44600.91, 30714.02, 0.00, 0.00, 0.00, 0.00
144, 58388.81, 52060.92, 37187.73, 26768.69, 17106.06, 44520.76, 30696.21, 0.00, 0.00, 0.00, 0.00
145, 58345.72, 52042.32, 37139.84, 26765.63, 17110.46, 44243.11, 30726.29, 0.00, 0.00, 0.00, 0.00
146, 58304.03, 52020.73, 37133.96, 26777.81, 17108.11, 44185.22, 30708.03, 0.00, 0.00, 0.00, 0.00
147, 58352.71, 52040.63, 37209.66, 26798.51, 17107.26, 44538.26, 30674.88, 0.00, 0.00, 0.00, 0.00
148, 58390.49, 52058.91, 37188.90, 26767.67, 17100.74, 44565.36, 30697.39, 0.00, 0.00, 0.00, 0.00
149, 58354.10, 52043.46, 37130.58, 26763.66, 17112.45, 44276.66, 30725.40, 0.00, 0.00, 0.00, 0.00
150, 58307.00, 52020.55, 37119.79, 26785.46, 17112.65, 44156.70, 30723.61, 0.00, 0.00, 0.00, 0.00
151, 58341.00, 52037.18, 37198.80, 26796.01, 17102.97, 44468.44, 30677.52, 0.00, 0.00, 0.00, 0.00
152, 58393.66, 52061.70, 37208.97, 26767.73, 17091.37, 44598.57, 30674.37, 0.00, 0.08, 0.81, 0.58
153, 58365.79, 52056.23, 37132.30, 26779.94, 17090.10, 44310.63, 30684.85, 0.00, 0.00, 0.00, 0.00
154, 58322.34, 52050.55, 37109.68, 26787.49, 17107.18, 44142.44, 30727.86, 0.00, 0.00, 0.00, 0.00
155, 58336.80, 52048.20, 37170.59, 26780.72, 17112.67, 44401.09, 30725.04, 0.00, 0.00, 0.00, 0.00
156, 58402.56, 52074.04, 37211.99, 26787.47, 17106.64, 44621.14, 30696.66, 0.00, 0.00, 0.00, 0.00
157, 58384.88, 52066.15, 37153.38, 26751.77, 17101.23, 44354.62, 30676.56, 0.00, 0.00, 0.00, 0.00
158, 58331.93, 52035.51, 37114.94, 26751.06, 17103.58, 44145.50, 30705.89, 0.00, 0.00, 0.00, 0.00
159, 58334.34, 52034.99, 37177.39, 26785.88, 17121.17, 44348.16, 30725.02, 0.00, 0.00, 0.00, 0.00
160, 58397.46, 52069.13, 37220.41, 26782.87, 17113.52, 44637.97, 30696.48, 0.00, 0.00, 0.00, 0.00
161, 58389.30, 52068.43, 37159.64, 26750.77, 17102.57, 44429.43, 30691.60, 0.00, 0.00, 0.00, 0.00
162, 58332.29, 52035.73, 37109.80, 26747.88, 17105.52, 44161.75, 30700.75, 0.00, 0.08, 0.81, 0.57
163, 58319.23, 52034.50, 37145.94, 26776.18, 17119.09, 44255.58, 30716.53, 0.00, 0.00, 0.00, 0.00
164, 58381.44, 52061.52, 37212.30, 26775.15, 17116.70, 44597.32, 30677.97, 0.00, 0.00, 0.00, 0.00
165, 58395.70, 52065.30, 37170.39, 26759.82, 17110.64, 44485.09, 30688.68, 0.00, 0.00, 0.00, 0.00
166, 58343.66, 52044.83, 37128.44, 26770.35, 17120.41, 44203.64, 30718.92, 0.00, 0.00, 0.00, 0.00
167, 58312.23, 52036.29, 37139.55, 26785.05, 17120.38, 44204.77, 30707.63, 0.00, 0.00, 0.00, 0.00
168, 58370.48, 52059.09, 37220.93, 26794.60, 17115.36, 44575.61, 30698.27, 0.00, 0.00, 0.00, 0.00
169, 58393.35, 52066.89, 37195.94, 26747.62, 17096.33, 44535.98, 30683.04, 0.00, 0.00, 0.00, 0.00
170, 58347.82, 52048.88, 37115.90, 26747.86, 17096.42, 44238.93, 30703.49, 0.00, 0.00, 0.00, 0.00
171, 58311.83, 52041.12, 37104.32, 26766.37, 17110.24, 44172.79, 30719.23, 0.00, 0.09, 0.81, 0.58
172, 58355.30, 52055.64, 37191.69, 26785.17, 17116.67, 44524.96, 30694.78, 0.00, 0.00, 0.00, 0.00
173, 58392.99, 52064.77, 37183.55, 26766.06, 17100.38, 44559.25, 30655.46, 0.00, 0.00, 0.00, 0.00
174, 58354.03, 52051.24, 37114.80, 26755.33, 17097.59, 44276.68, 30681.48, 0.00, 0.00, 0.00, 0.00
175, 58312.59, 52044.07, 37097.55, 26766.68, 17108.00, 44156.50, 30729.38, 0.00, 0.00, 0.00, 0.00
176, 58343.95, 52051.15, 37176.85, 26785.12, 17111.85, 44472.66, 30717.53, 0.00, 0.00, 0.00, 0.00
177, 58384.79, 52059.09, 37182.48, 26765.07, 17092.56, 44613.05, 30686.60, 0.00, 0.00, 0.00, 0.00
178, 58360.09, 52050.98, 37136.80, 26752.00, 17109.43, 44344.05, 30716.91, 0.00, 0.00, 0.00, 0.00
179, 58299.58, 52019.79, 37109.44, 26743.55, 17107.26, 44145.18, 30708.88, 0.00, 0.00, 0.00, 0.00
180, 58312.97, 52021.96, 37164.65, 26767.35, 17111.06, 44394.88, 30709.20, 0.00, 0.00, 0.00, 0.00
181, 58377.19, 52047.33, 37199.29, 26760.38, 17111.45, 44628.30, 30703.12, 0.00, 0.09, 0.81, 0.58
182, 58362.13, 52041.30, 37146.21, 26748.06, 17113.68, 44382.72, 30702.85, 0.00, 0.00, 0.00, 0.00
183, 58313.57, 52023.77, 37122.02, 26736.46, 17119.87, 44145.68, 30698.96, 0.00, 0.00, 0.00, 0.00
184, 58322.96, 52043.64, 37175.89, 26779.42, 17127.20, 44308.80, 30714.92, 0.00, 0.00, 0.00, 0.00
185, 58384.09, 52059.18, 37214.80, 26781.72, 17105.83, 44606.28, 30680.00, 0.00, 0.00, 0.00, 0.00
186, 58396.66, 52063.47, 37163.42, 26765.86, 17102.12, 44434.17, 30680.12, 0.00, 0.00, 0.00, 0.00
187, 58352.20, 52047.91, 37127.45, 26768.22, 17098.03, 44192.14, 30700.52, 0.00, 0.00, 0.00, 0.00
188, 58336.29, 52044.61, 37155.55, 26793.44, 17106.30, 44266.18, 30720.82, 0.00, 0.00, 0.00, 0.00
189, 58395.79, 52067.36, 37226.09, 26796.86, 17096.98, 44609.92, 30683.02, 0.00, 0.00, 0.00, 0.00
190, 58405.73, 52072.95, 37173.63, 26779.56, 17073.69, 44484.80, 30665.01, 0.00, 0.00, 0.00, 0.00
191, 58356.83, 52060.39, 37093.48, 26791.38, 17082.39, 44193.29, 30687.04, 0.00, 0.07, 0.81, 0.59
192, 58316.73, 52042.70, 37100.41, 26815.43, 17092.22, 44184.17, 30696.57, 0.00, 0.00, 0.00, 0.00
193, 58371.60, 52062.22, 37209.15, 26841.49, 17102.01, 44557.93, 30681.41, 0.00, 0.00, 0.00, 0.00
194, 58399.70, 52074.15, 37173.12, 26787.76, 17086.19, 44547.07, 30668.51, 0.00, 0.00, 0.00, 0.00
195, 58347.95, 52047.15, 37109.62, 26769.88, 17093.47, 44247.58, 30672.00, 0.00, 0.00, 0.00, 0.00
196, 58296.79, 52024.53, 37100.92, 26780.14, 17103.58, 44148.56, 30685.32, 0.00, 0.00, 0.00, 0.00
197, 58338.57, 52040.87, 37179.60, 26800.05, 17107.87, 44506.14, 30703.72, 0.00, 0.00, 0.00, 0.00
198, 58387.05, 52061.70, 37179.15, 26801.13, 17097.88, 44593.76, 30697.53, 0.00, 0.00, 0.00, 0.00
199, 58360.71, 52057.57, 37113.59, 26806.94, 17103.06, 44303.26, 30689.26, 0.00, 0.00, 0.00, 0.00
200, 58311.74, 52039.73, 37097.46, 26787.89, 17107.20, 44145.18, 30706.15, 0.00, 0.00, 0.00, 0.00
201, 58339.17, 52051.45, 37176.80, 26815.97, 17114.93, 44439.91, 30699.70, 0.00, 0.07, 0.80, 0.59
202, 58396.41, 52068.63, 37197.05, 26807.03, 17092.94, 44617.34, 30680.85, 0.00, 0.00, 0.00, 0.00
203, 58372.27, 52058.42, 37134.92, 26769.59, 17092.24, 44346.84, 30686.02, 0.00, 0.00, 0.00, 0.00
204, 58318.92, 52036.87, 37105.59, 26770.30, 17103.20, 44140.58, 30697.55, 0.00, 0.00, 0.00, 0.00
205, 58327.34, 52037.68, 37168.27, 26797.62, 17115.29, 44355.61, 30693.73, 0.00, 0.00, 0.00, 0.00
206, 58391.74, 52062.78, 37217.53, 26795.63, 17106.48, 44620.09, 30679.76, 0.00, 0.00, 0.00, 0.00
207, 58382.22, 52057.23, 37156.11, 26774.04, 17099.67, 44394.88, 30675.38, 0.00, 0.00, 0.00, 0.00
208, 58327.21, 52038.19, 37111.65, 26796.79, 17100.63, 44144.67, 30686.93, 0.00, 0.00, 0.00, 0.00
209, 58325.96, 52045.41, 37158.54, 26812.97, 17124.25, 44273.93, 30697.91, 0.00, 0.00, 0.00, 0.00
210, 58384.03, 52062.13, 37235.55, 26793.26, 17105.07, 44614.21, 30677.23, 0.00, 0.00, 0.00, 0.00
211, 58384.72, 52056.27, 37157.92, 26762.95, 17078.12, 44434.89, 30626.38, 0.00, 0.09, 0.80, 0.58
212, 58333.60, 52037.43, 37095.02, 26760.36, 17087.51, 44151.54, 30672.72, 0.00, 0.00, 0.00, 0.00
213, 58314.43, 52037.63, 37135.70, 26795.31, 17114.46, 44240.20, 30746.23, 0.00, 0.00, 0.00, 0.00
214, 58369.37, 52056.00, 37215.45, 26813.00, 17107.44, 44602.55, 30695.56, 0.00, 0.00, 0.00, 0.00
215, 58388.30, 52060.74, 37174.79, 26791.74, 17098.32, 44494.12, 30679.45, 0.00, 0.00, 0.00, 0.00
216, 58341.56, 52043.46, 37128.21, 26775.76, 17100.98, 44205.29, 30693.62, 0.00, 0.00, 0.00, 0.00
217, 58307.45, 52030.90, 37134.92, 26802.33, 17105.03, 44189.98, 30692.50, 0.00, 0.00, 0.00, 0.00
218, 58353.38, 52044.52, 37214.34, 26832.24, 17102.50, 44559.74, 30682.78, 0.00, 0.00, 0.00, 0.00
219, 58383.40, 52053.97, 37185.34, 26796.14, 17082.92, 44552.08, 30667.31, 0.00, 0.00, 0.00, 0.00
220, 58339.53, 52034.55, 37117.51, 26786.26, 17080.26, 44233.23, 30646.56, 0.00, 0.08, 0.80, 0.58
221, 58302.20, 52019.88, 37108.07, 26768.63, 17086.21, 44135.26, 30662.14, 0.00, 0.00, 0.00, 0.00
222, 58345.61, 52047.15, 37199.89, 26789.86, 17107.91, 44475.12, 30675.42, 0.00, 0.00, 0.00, 0.00
223, 58396.28, 52072.59, 37213.44, 26775.02, 17099.49, 44570.45, 30657.63, 0.00, 0.00, 0.00, 0.00
224, 58366.17, 52064.68, 37147.88, 26783.89, 17106.06, 44297.11, 30678.39, 0.00, 0.00, 0.00, 0.00
225, 58314.87, 52034.32, 37117.73, 26780.96, 17111.60, 44139.08, 30694.49, 0.00, 0.00, 0.00, 0.00
226, 58338.14, 52032.71, 37190.02, 26785.84, 17123.20, 44409.76, 30684.27, 0.00, 0.00, 0.00, 0.00
227, 58392.48, 52049.14, 37208.30, 26770.10, 17106.37, 44585.09, 30631.48, 0.00, 0.00, 0.00, 0.00
228, 58372.29, 52040.13, 37144.30, 26754.28, 17114.13, 44331.20, 30664.27, 0.00, 0.00, 0.00, 0.00
229, 58319.21, 52019.79, 37123.36, 26756.85, 17123.36, 44140.87, 30688.92, 0.00, 0.00, 0.00, 0.00
230, 58325.47, 52025.14, 37172.31, 26793.62, 17126.89, 44344.05, 30673.14, 0.00, 0.08, 0.81, 0.58
231, 58392.12, 52058.13, 37231.23, 26801.55, 17127.31, 44625.73, 30664.65, 0.00, 0.00, 0.00, 0.00
232, 58387.49, 52068.70, 37157.61, 26772.79, 17113.97, 44412.87, 30658.77, 0.00, 0.00, 0.00, 0.00
233, 58334.90, 52051.80, 37099.94, 26757.85, 17110.57, 44146.04, 30652.85, 0.00, 0.00, 0.00, 0.00
234, 58318.00, 52037.16, 37168.80, 26779.60, 17121.30, 44262.93, 30692.28, 0.00, 0.00, 0.00, 0.00
235, 58374.57, 52047.44, 37232.93, 26776.96, 17108.34, 44598.66, 30649.47, 0.00, 0.00, 0.00, 0.00
236, 58383.83, 52047.91, 37177.68, 26760.04, 17095.91, 44455.79, 30635.77, 0.00, 0.00, 0.00, 0.00
237, 58338.14, 52036.83, 37131.30, 26781.88, 17107.13, 44200.98, 30672.27, 0.00, 0.00, 0.00, 0.00
238, 58310.47, 52025.34, 37149.85, 26777.19, 17108.00, 44225.85, 30673.52, 0.00, 0.00, 0.00, 0.00
239, 58373.84, 52053.68, 37241.22, 26792.19, 17108.70, 44586.72, 30640.22, 0.00, 0.00, 0.00, 0.00
240, 58402.83, 52060.77, 37226.36, 26768.81, 17110.77, 44508.25, 30662.26, 0.00, 0.08, 0.80, 0.59
241, 58350.25, 52032.13, 37146.41, 26743.17, 17110.68, 44217.20, 30677.61, 0.00, 0.00, 0.00, 0.00
242, 58314.70, 52016.33, 37134.23, 26766.53, 17111.78, 44175.81, 30682.64, 0.00, 0.00, 0.00, 0.00
243, 58365.03, 52040.87, 37223.01, 26791.76, 17125.84, 44537.88, 30668.96, 0.00, 0.00, 0.00, 0.00
244, 58396.32, 52052.72, 37207.52, 26768.22, 17112.81, 44548.34, 30624.97, 0.00, 0.00, 0.00, 0.00
245, 58351.98, 52037.86, 37141.04, 26764.54, 17116.72, 44244.70, 30639.26, 0.00, 0.00, 0.00, 0.00
246, 58305.08, 52019.93, 37126.43, 26769.77, 17124.21, 44142.32, 30674.71, 0.00, 0.00, 0.00, 0.00
247, 58347.75, 52042.77, 37216.23, 26817.13, 17135.45, 44468.75, 30664.02, 0.00, 0.00, 0.00, 0.00
248, 58401.89, 52066.66, 37225.36, 26761.88, 17120.56, 44588.02, 30644.15, 0.00, 0.00, 0.00, 0.00
249, 58371.22, 52060.00, 37144.44, 26750.59, 17124.54, 44303.30, 30649.47, 0.00, 0.00, 0.00, 0.00
250, 58312.08, 52032.85, 37097.82, 26760.92, 17117.93, 44120.20, 30645.20, 0.00, 0.07, 0.80, 0.59
251, 58328.73, 52038.23, 37178.28, 26785.23, 17129.46, 44379.41, 30671.93, 0.00, 0.00, 0.00, 0.00
252, 58383.52, 52055.20, 37219.61, 26771.09, 17117.28, 44616.72, 30662.28, 0.00, 0.00, 0.00, 0.00
253, 58368.88, 52052.43, 37150.99, 26771.60, 17123.98, 44383.99, 30662.77, 0.00, 0.00, 0.00, 0.00
254, 58310.65, 52032.36, 37102.02, 26779.85, 17122.20, 44155.56, 30669.48, 0.00, 0.00, 0.00, 0.00
255, 58312.04, 52042.46, 37154.88, 26805.35, 17132.10, 44342.08, 30690.42, 0.00, 0.00, 0.00, 0.00
0, 58370.10, 52057.25, 37227.75, 26802.06, 17119.18, 44625.84, 30638.12, 0.00, 0.00, 0.00, 0.00
1, 58367.06, 52049.48, 37169.61, 26772.27, 17108.34, 44413.99, 30628.06, 0.00, 0.00, 0.00, 0.00
2, 58315.66, 52024.67, 37108.39, 26765.16, 17107.02, 44158.44, 30649.47, 0.00, 0.00, 0.00, 0.00
3, 58300.68, 52024.71, 37134.07, 26801.93, 17119.31, 44265.26, 30687.38, 0.00, 0.08, 0.79, 0.58
4, 58359.82, 52051.46, 37204.88, 26819.37, 17111.49, 44623.04, 30661.32, 0.00, 0.00, 0.00, 0.00
5, 58372.20, 52055.89, 37161.41, 26757.67, 17105.12, 44484.95, 30642.81, 0.00, 0.00, 0.00, 0.00
6, 58327.57, 52036.22, 37107.88, 26753.76, 17111.60, 44204.44, 30671.58, 0.00, 0.00, 0.00, 0.00
7, 58300.34, 52025.38, 37121.17, 26769.23, 17114.48, 44211.41, 30674.33, 0.00, 0.00, 0.00, 0.00
8, 58363.29, 52053.59, 37216.57, 26789.15, 17118.11, 44571.41, 30649.74, 0.00, 0.00, 0.00, 0.00
9, 58392.68, 52070.96, 37185.19, 26769.99, 17108.70, 44525.19, 30629.15, 0.00, 0.00, 0.00, 0.00
10, 58344.06, 52055.22, 37123.21, 26768.13, 17120.01, 44234.32, 30668.51, 0.00, 0.00, 0.00, 0.00
11, 58310.43, 52047.89, 37112.01, 26777.59, 17118.82, 44163.45, 30677.61, 0.00, 0.00, 0.00, 0.00
12, 58364.56, 52072.88, 37196.79, 26804.46, 17128.97, 44524.43, 30659.19, 0.00, 0.00, 0.00, 0.00
13, 58401.66, 52086.96, 37181.86, 26780.18, 17122.93, 44569.67, 30641.85, 0.00, 0.08, 0.80, 0.58
14, 58359.38, 52063.65, 37117.60, 26761.29, 17114.26, 44268.84, 30649.25, 0.00, 0.00, 0.00, 0.00
15, 58315.88, 52048.65, 37102.80, 26782.93, 17128.45, 44139.80, 30670.75, 0.00, 0.00, 0.00, 0.00
16, 58350.21, 52066.89, 37187.07, 26816.15, 17140.79, 44460.30, 30666.79, 0.00, 0.00, 0.00, 0.00
17, 58413.06, 52096.06, 37216.41, 26811.19, 17128.61, 44612.72, 30658.23, 0.00, 0.00, 0.00, 0.00
18, 58392.48, 52086.47, 37150.52, 26846.70, 17123.40, 44343.29, 30654.66, 0.00, 0.00, 0.00, 0.00
19, 58337.22, 52069.64, 37108.28, 26791.00, 17126.87, 44152.25, 30669.25, 0.00, 0.00, 0.00, 0.00
20, 58348.33, 52073.15, 37167.86, 26774.80, 17134.60, 44382.23, 30666.73, 0.00, 0.00, 0.00, 0.00
21, 58404.28, 52087.16, 37212.66, 26779.87, 17115.38, 44623.33, 30629.35, 0.00, 0.00, 0.00, 0.00
22, 58394.00, 52085.44, 37154.05, 26768.61, 17114.24, 44379.88, 30626.38, 0.00, 0.00, 0.00, 0.00
23, 58338.59, 52064.52, 37106.15, 26783.47, 17121.46, 44158.64, 30671.73, 0.00, 0.08, 0.80, 0.58
24, 58337.18, 52065.77, 37152.96, 26803.45, 17132.75, 44307.28, 30669.36, 0.00, 0.00, 0.00, 0.00
25, 58401.29, 52084.48, 37218.25, 26800.21, 17122.17, 44623.76, 30649.38, 0.00, 0.00, 0.00, 0.00
26, 58404.97, 52094.79, 37158.84, 26778.62, 17112.72, 44444.86, 30635.19, 0.00, 0.00, 0.00, 0.00
27, 58358.04, 52084.86, 37117.93, 26779.67, 17126.29, 44164.88, 30644.40, 0.00, 0.00, 0.00, 0.00
28, 58339.23, 52077.30, 37147.75, 26803.67, 17135.74, 44236.96, 30667.64, 0.00, 0.00, 0.00, 0.00
29, 58396.30, 52101.24, 37224.53, 26809.29, 17125.77, 44596.22, 30644.69, 0.00, 0.00, 0.00, 0.00
30, 58410.43, 52101.16, 37181.39, 26783.98, 17120.16, 44491.23, 30625.13, 0.00, 0.00, 0.00, 0.00
31, 58363.06, 52076.93, 37118.67, 26775.62, 17135.92, 44192.82, 30646.59, 0.00, 0.00, 0.00, 0.00
32, 58328.37, 52067.96, 37122.91, 26797.82, 17138.85, 44181.75, 30662.32, 0.00, 0.00, 0.00, 0.00
33, 58377.64, 52091.27, 37207.59, 26815.57, 17136.12, 44555.21, 30638.21, 0.00, 0.07, 0.80, 0.58
34, 58408.32, 52101.71, 37179.00, 26784.79, 17121.14, 44532.81, 30620.62, 0.00, 0.00, 0.00, 0.00
35, 58363.89, 52086.02, 37111.18, 26814.00, 17123.02, 44242.84, 30634.27, 0.00, 0.00, 0.00, 0.00
36, 58325.67, 52074.27, 37109.21, 26793.55, 17132.88, 44151.60, 30649.54, 0.00, 0.00, 0.00, 0.00
37, 58361.57, 52082.76, 37198.31, 26787.43, 17127.89, 44489.07, 30634.45, 0.00, 0.00, 0.00, 0.00
38, 58412.37, 52107.82, 37200.32, 26784.01, 17109.57, 44563.32, 30615.36, 0.00, 0.00, 0.00, 0.00
39, 58385.75, 52098.38, 37129.13, 26778.95, 17108.67, 44277.11, 30614.20, 0.00, 0.00, 0.00, 0.00
40, 58338.12, 52076.86, 37099.20, 26792.05, 17108.14, 44132.71, 30628.95, 0.00, 0.00, 0.00, 0.00
41, 58370.48, 52097.85, 37181.34, 26833.54, 17122.87, 44438.60, 30640.42, 0.00, 0.00, 0.00, 0.00
42, 58423.95, 52120.80, 37194.75, 26800.77, 17100.60, 44594.70, 30589.26, 0.00, 0.00, 0.00, 0.00
43, 58404.08, 52114.41, 37140.42, 26784.18, 17095.82, 44315.91, 30596.03, 0.00, 0.07, 0.80, 0.59
44, 58352.89, 52091.72, 37104.21, 26787.92, 17110.93, 44140.71, 30651.19, 0.00, 0.00, 0.00, 0.00
45, 58368.14, 52100.82, 37175.58, 26812.57, 17126.91, 44362.63, 30654.72, 0.00, 0.00, 0.00, 0.00
46, 58421.94, 52122.34, 37223.07, 26798.38, 17116.25, 44608.67, 30610.40, 0.00, 0.00, 0.00, 0.00
47, 58404.28, 52112.06, 37155.30, 26764.07, 17106.01, 44377.58, 30587.85, 0.00, 0.00, 0.00, 0.00
48, 58350.19, 52081.82, 37106.06, 26786.51, 17103.20, 44139.69, 30614.76, 0.00, 0.00, 0.00, 0.00
49, 58347.06, 52084.70, 37154.54, 26800.77, 17125.53, 44280.84, 30640.75, 0.00, 0.00, 0.00, 0.00
50, 58405.98, 52114.45, 37224.28, 26794.46, 17117.95, 44609.72, 30608.19, 0.00, 0.00, 0.00, 0.00
51, 58409.04, 52120.20, 37177.12, 26775.58, 17108.20, 44456.63, 30621.73, 0.00, 0.00, 0.00, 0.00
52, 58352.11, 52089.09, 37115.41, 26767.53, 17111.38, 44178.78, 30624.97, 0.00, 0.07, 0.80, 0.58
53, 58331.66, 52080.93, 37137.64, 26784.74, 17113.23, 44221.45, 30618.20, 0.00, 0.00, 0.00, 0.00
54, 58396.21, 52109.31, 37217.02, 26801.26, 17114.86, 44599.42, 30623.52, 0.00, 0.00, 0.00, 0.00
55, 58415.63, 52115.44, 37174.68, 26781.43, 17098.50, 44496.82, 30601.93, 0.00, 0.00, 0.00, 0.00
56, 58372.83, 52097.64, 37117.62, 26781.05, 17105.70, 44196.75, 30601.71, 0.00, 0.00, 0.00, 0.00
57, 58332.87, 52075.85, 37114.76, 26794.11, 17115.98, 44180.90, 30611.25, 0.00, 0.00, 0.00, 0.00
58, 58383.38, 52096.01, 37191.16, 26799.85, 17116.70, 44556.57, 30634.16, 0.00, 0.00, 0.00, 0.00
59, 58424.64, 52121.00, 37167.08, 26783.07, 17105.52, 44556.70, 30621.96, 0.00, 0.00, 0.00, 0.00
60, 58387.74, 52105.07, 37130.02, 26766.77, 17111.06, 44255.20, 30616.97, 0.00, 0.00, 0.00, 0.00
61, 58336.87, 52074.09, 37131.30, 26779.87, 17108.25, 44135.06, 30612.63, 0.00, 0.00, 0.00, 0.00
62, 58371.98, 52088.79, 37192.03, 26789.01, 17113.23, 44459.21, 30602.62, 0.00, 0.08, 0.80, 0.58
63, 58420.93, 52106.23, 37181.10, 26773.90, 17097.18, 44572.53, 30595.13, 0.00, 0.00, 0.00, 0.00
64, 58396.12, 52100.08, 37131.88, 26773.16, 17109.23, 44294.18, 30630.70, 0.00, 0.00, 0.00, 0.00
65, 58344.82, 52079.25, 37105.88, 26774.42, 17116.03, 44128.85, 30638.76, 0.00, 0.00, 0.00, 0.00
66, 58359.84, 52085.78, 37168.02, 26816.21, 17117.28, 44394.21, 30597.97, 0.00, 0.00, 0.00, 0.00
67, 58411.70, 52106.56, 37190.06, 26783.49, 17100.89, 44598.10, 30581.46, 0.00, 0.00, 0.00, 0.00
68, 58392.93, 52099.90, 37135.05, 26756.80, 17107.15, 44356.34, 30612.66, 0.00, 0.00, 0.00, 0.00
69, 58342.61, 52078.71, 37106.00, 26767.08, 17119.33, 44137.83, 30653.20, 0.00, 0.00, 0.00, 0.00
70, 58344.76, 52076.01, 37159.73, 26792.12, 17131.43, 44330.17, 30648.11, 0.00, 0.00, 0.00, 0.00
71, 58408.64, 52100.53, 37206.67, 26780.07, 17113.81, 44600.54, 30596.88, 0.00, 0.00, 0.00, 0.00
72, 58407.54, 52109.54, 37151.75, 26762.39, 17112.32, 44395.46, 30599.58, 0.00, 0.08, 0.81, 0.58
73, 58352.11, 52091.59, 37100.68, 26769.12, 17121.75, 44147.84, 30633.87, 0.00, 0.00, 0.00, 0.00
74, 58342.05, 52088.70, 37138.61, 26806.67, 17126.04, 44249.79, 30627.19, 0.00, 0.00, 0.00, 0.00
75, 58403.43, 52109.02, 37210.87, 26806.04, 17117.93, 44595.84, 30609.42, 0.00, 0.00, 0.00, 0.00
76, 58410.16, 52109.34, 37173.09, 26757.61, 17108.05, 44458.98, 30598.78, 0.00, 0.00, 0.00, 0.00
77, 58358.97, 52084.79, 37116.41, 26756.87, 17109.39, 44166.89, 30599.98, 0.00, 0.00, 0.00, 0.00
78, 58331.48, 52074.73, 37135.95, 26773.68, 17129.04, 44186.18, 30629.47, 0.00, 0.00, 0.00, 0.00
79, 58391.85, 52102.23, 37227.01, 26792.45, 17136.21, 44575.57, 30637.51, 0.00, 0.00, 0.00, 0.00
80, 58420.37, 52116.98, 37183.76, 26772.61, 17112.94, 44514.70, 30604.74, 0.00, 0.00, 0.00, 0.00
81, 58374.04, 52095.03, 37105.53, 26770.15, 17109.84, 44208.39, 30607.49, 0.00, 0.00, 0.00, 0.00
82, 58336.89, 52081.71, 37108.77, 26774.66, 17119.98, 44159.16, 30631.19, 0.00, 0.08, 0.80, 0.58
83, 58379.51, 52104.38, 37197.23, 26790.11, 17119.27, 44529.43, 30613.82, 0.00, 0.00, 0.00, 0.00
84, 58413.62, 52116.73, 37189.30, 26762.99, 17103.49, 44539.16, 30583.87, 0.00, 0.00, 0.00, 0.00
85, 58374.55, 52095.93, 37129.02, 26754.32, 17108.72, 44238.62, 30611.79, 0.00, 0.00, 0.00, 0.00
86, 58331.77, 52079.59, 37117.04, 26769.05, 17110.44, 44133.32, 30630.81, 0.00, 0.00, 0.00, 0.00
87, 58365.14, 52092.77, 37197.70, 26785.03, 17111.98, 44446.58, 30608.16, 0.00, 0.00, 0.00, 0.00
88, 58421.24, 52114.72, 37222.96, 26767.80, 17103.46, 44565.09, 30577.56, 0.00, 0.00, 0.00, 0.00
89, 58395.59, 52105.04, 37158.14, 26755.44, 17115.18, 44293.80, 30615.68, 0.00, 0.00, 0.00, 0.00
90, 58340.02, 52079.38, 37111.41, 26752.11, 17111.29, 44114.45, 30622.38, 0.00, 0.00, 0.00, 0.00
91, 58350.90, 52084.28, 37183.27, 26798.58, 17116.38, 44387.41, 30613.80, 0.00, 0.00, 0.00, 0.00
92, 58409.93, 52109.54, 37214.60, 26778.73, 17105.74, 44613.25, 30597.21, 0.00, 0.09, 0.80, 0.58
93, 58398.69, 52106.81, 37153.05, 26749.03, 17101.03, 44357.71, 30611.41, 0.00, 0.00, 0.00, 0.00
94, 58343.82, 52082.25, 37120.84, 26739.97, 17108.05, 44124.18, 30628.10, 0.00, 0.00, 0.00, 0.00
95, 58344.42, 52082.45, 37175.98, 26766.28, 17114.75, 44302.18, 30615.43, 0.00, 0.00, 0.00, 0.00
96, 58412.64, 52112.18, 37232.08, 26776.29, 17101.92, 44602.66, 30598.73, 0.00, 0.00, 0.00, 0.00
97, 58413.55, 52119.24, 37163.66, 26766.28, 17089.85, 44399.82, 30578.97, 0.00, 0.00, 0.00, 0.00
98, 58362.37, 52097.96, 37116.37, 26753.18, 17092.36, 44137.00, 30594.13, 0.00, 0.00, 0.00, 0.00
99, 58345.29, 52091.10, 37145.98, 26773.12, 17112.12, 44231.93, 30619.54, 0.00, 0.00, 0.00, 0.00
100, 58405.40, 52115.62, 37203.89, 26772.00, 17110.91, 44576.39, 30601.79, 0.00, 0.00, 0.00, 0.00
101, 58413.91, 52112.64, 37160.06, 26759.89, 17093.56, 44450.49, 30584.72, 0.00, 0.08, 0.80, 0.58
102, 58360.83, 52087.32, 37105.10, 26740.35, 17099.29, 44160.43, 30600.90, 0.00, 0.00, 0.00, 0.00
103, 58330.34, 52075.07, 37123.47, 26743.95, 17107.62, 44165.66, 30612.46, 0.00, 0.00, 0.00, 0.00
104, 58393.17, 52104.89, 37201.32, 26768.47, 17110.26, 44548.59, 30601.17, 0.00, 0.00, 0.00, 0.00
105, 58419.55, 52114.12, 37171.91, 26750.37, 17093.32, 44499.28, 30594.02, 0.00, 0.00, 0.00, 0.00
106, 58370.04, 52092.93, 37120.61, 26738.90, 17097.36, 44195.01, 30603.76, 0.00, 0.00, 0.00, 0.00
107, 58326.38, 52074.71, 37113.75, 26742.21, 17096.29, 44118.41, 30594.84, 0.00, 0.00, 0.00, 0.00
108, 58372.94, 52095.75, 37193.66, 26780.47, 17098.70, 44478.94, 30571.73, 0.00, 0.00, 0.00, 0.00
109, 58415.68, 52116.69, 37185.12, 26771.13, 17084.00, 44534.98, 30565.25, 0.00, 0.00, 0.00, 0.00
110, 58379.11, 52099.77, 37127.79, 26712.10, 17088.82, 44222.77, 30570.95, 0.00, 0.00, 0.00, 0.00
111, 58336.11, 52077.91, 37109.50, 26734.92, 17095.33, 44106.52, 30621.58, 0.00, 0.09, 0.80, 0.58
112, 58367.13, 52094.67, 37187.78, 26770.30, 17110.57, 44434.62, 30634.12, 0.00, 0.00, 0.00, 0.00
113, 58412.24, 52106.81, 37190.82, 26748.62, 17081.52, 44570.27, 30573.81, 0.00, 0.00, 0.00, 0.00
114, 58385.06, 52090.20, 37125.40, 26728.57, 17074.43, 44287.54, 30572.58, 0.00, 0.00, 0.00, 0.00
115, 58334.41, 52068.92, 37098.17, 26735.77, 17084.58, 44102.70, 30602.91, 0.00, 0.00, 0.00, 0.00
116, 58348.82, 52084.10, 37173.27, 26772.25, 17102.86, 44347.09, 30615.59, 0.00, 0.00, 0.00, 0.00
117, 58413.51, 52112.26, 37216.28, 26770.30, 17092.45, 44581.20, 30576.13, 0.00, 0.00, 0.00, 0.00
118, 58402.49, 52108.20, 37154.12, 26723.97, 17082.28, 44331.13, 30555.13, 0.00, 0.00, 0.00, 0.00
119, 58348.54, 52084.79, 37121.73, 26716.66, 17086.12, 44106.76, 30600.28, 0.00, 0.00, 0.00, 0.00
120, 58349.36, 52081.02, 37167.46, 26755.71, 17106.13, 44275.94, 30614.49, 0.00, 0.00, 0.00, 0.00
121, 58415.68, 52107.37, 37213.73, 26747.97, 17095.84, 44587.44, 30587.09, 0.00, 0.08, 0.80, 0.58
122, 58415.12, 52109.94, 37154.79, 26729.11, 17087.44, 44402.66, 30594.20, 0.00, 0.00, 0.00, 0.00
123, 58360.16, 52087.70, 37108.28, 26738.18, 17089.61, 44143.44, 30609.33, 0.00, 0.00, 0.00, 0.00
124, 58339.13, 52080.37, 37141.13, 26753.27, 17086.48, 44211.26, 30590.13, 0.00, 0.00, 0.00, 0.00
125, 58404.75, 52111.50, 37206.78, 26764.87, 17072.42, 44570.85, 30563.01, 0.00, 0.00, 0.00, 0.00
126, 58432.78, 52136.40, 37164.00, 26752.87, 17072.51, 44469.00, 30572.18, 0.00, 0.00, 0.00, 0.00
127, 58387.74, 52120.33, 37115.25, 26749.18, 17081.61, 44174.15, 30577.25, 0.00, 0.00, 0.00, 0.00
128, 58357.59, 52101.09, 37126.61, 26761.54, 17083.73, 44163.78, 30578.01, 0.00, 0.00, 0.00, 0.00
129, 58407.16, 52114.16, 37204.39, 26769.61, 17081.96, 44530.73, 30571.91, 0.00, 0.00, 0.00, 0.00
130, 58425.74, 52122.75, 37180.67, 26749.87, 17069.85, 44503.44, 30552.96, 0.00, 0.00, 0.00, 0.00
131, 58377.23, 52097.91, 37119.59, 26758.35, 17067.63, 44199.16, 30543.72, 0.00, 0.09, 0.80, 0.58
132, 58331.26, 52079.88, 37114.45, 26749.58, 17080.93, 44120.62, 30574.23, 0.00, 0.00, 0.00, 0.00
133, 58373.19, 52100.28, 37204.54, 26755.55, 17088.15, 44469.60, 30564.98, 0.00, 0.00, 0.00, 0.00
134, 58413.58, 52114.10, 37206.06, 26734.96, 17072.35, 44551.18, 30547.53, 0.00, 0.00, 0.00, 0.00
135, 58380.39, 52099.61, 37134.36, 26724.26, 17086.16, 44260.50, 30583.06, 0.00, 0.00, 0.00, 0.00
136, 58334.34, 52080.75, 37106.04, 26744.51, 17094.52, 44114.03, 30613.33, 0.00, 0.00, 0.00, 0.00
137, 58365.97, 52098.02, 37187.00, 26753.83, 17099.82, 44407.44, 30596.43, 0.00, 0.00, 0.00, 0.00
138, 58412.75, 52117.16, 37210.40, 26720.68, 17077.22, 44567.99, 30543.59, 0.00, 0.00, 0.00, 0.00
139, 58384.90, 52101.94, 37158.19, 26691.74, 17074.86, 44292.53, 30549.58, 0.00, 0.00, 0.00, 0.00
140, 58338.52, 52075.72, 37124.55, 26725.87, 17085.45, 44106.50, 30580.16, 0.00, 0.09, 0.80, 0.58
141, 58347.71, 52079.99, 37169.41, 26761.14, 17100.78, 44324.69, 30573.92, 0.00, 0.00, 0.00, 0.00
142, 58409.11, 52104.24, 37210.80, 26712.64, 17089.49, 44577.60, 30545.04, 0.00, 0.00, 0.00, 0.00
143, 58403.52, 52107.91, 37159.68, 26692.65, 17086.75, 44342.30, 30544.71, 0.00, 0.00, 0.00, 0.00
144, 58350.16, 52085.84, 37125.57, 26703.05, 17088.98, 44121.00, 30582.91, 0.00, 0.00, 0.00, 0.00
145, 58343.39, 52083.12, 37164.42, 26762.59, 17100.74, 44269.11, 30587.98, 0.00, 0.00, 0.00, 0.00
146, 58406.20, 52106.03, 37217.20, 26734.32, 17096.09, 44593.14, 30566.21, 0.00, 0.00, 0.00, 0.00
147, 58412.06, 52109.89, 37161.20, 26701.75, 17084.58, 44412.13, 30553.92, 0.00, 0.00, 0.00, 0.00
148, 58350.32, 52076.84, 37110.09, 26689.37, 17090.01, 44128.62, 30562.70, 0.00, 0.00, 0.00, 0.00
149, 58329.71, 52070.29, 37141.69, 26715.45, 17106.88, 44176.57, 30577.99, 0.00, 0.00, 0.00, 0.00
150, 58395.27, 52103.77, 37223.95, 26736.24, 17100.60, 44552.99, 30565.72, 0.00, 0.09, 0.80, 0.57
151, 58413.69, 52117.23, 37187.98, 26722.94, 17077.74, 44478.47, 30557.02, 0.00, 0.00, 0.00, 0.00
152, 58369.03, 52103.23, 37128.17, 26712.10, 17079.84, 44185.89, 30568.80, 0.00, 0.00, 0.00, 0.00
153, 58337.65, 52094.29, 37137.00, 26718.45, 17088.51, 44152.79, 30594.33, 0.00, 0.00, 0.00, 0.00
154, 58382.96, 52108.98, 37219.90, 26742.21, 17080.11, 44533.37, 30568.85, 0.00, 0.00, 0.00, 0.00
155, 58417.09, 52116.84, 37206.67, 26720.01, 17081.18, 44532.68, 30567.89, 0.00, 0.00, 0.00, 0.00
156, 58376.79, 52095.93, 37150.45, 26717.20, 17090.34, 44233.23, 30586.06, 0.00, 0.00, 0.00, 0.00
157, 58336.44, 52082.07, 37131.45, 26738.92, 17094.10, 44129.61, 30591.56, 0.00, 0.00, 0.00, 0.00
158, 58378.44, 52105.09, 37221.33, 26746.30, 17099.87, 44452.77, 30578.26, 0.00, 0.00, 0.00, 0.00
159, 58423.39, 52128.25, 37224.01, 26726.72, 17077.67, 44566.36, 30560.29, 0.00, 0.00, 0.00, 0.00
160, 58388.61, 52109.85, 37145.87, 26707.38, 17070.61, 44266.15, 30553.80, 0.00, 0.08, 0.80, 0.57
161, 58340.22, 52090.20, 37117.77, 26740.51, 17077.20, 44106.20, 30577.92, 0.00, 0.00, 0.00, 0.00
162, 58363.60, 52101.31, 37188.59, 26750.99, 17080.04, 44389.47, 30561.29, 0.00, 0.00, 0.00, 0.00
163, 58421.11, 52120.87, 37222.22, 26735.05, 17061.71, 44562.89, 30506.40, 0.00, 0.00, 0.00, 0.00
164, 58406.07, 52121.29, 37162.30, 26716.01, 17064.75, 44304.31, 30523.45, 0.00, 0.00, 0.00, 0.00
165, 58358.30, 52101.98, 37140.33, 26696.30, 17081.40, 44096.66, 30586.66, 0.00, 0.00, 0.00, 0.00
166, 58363.15, 52102.50, 37201.53, 26734.21, 17092.51, 44297.89, 30583.33, 0.00, 0.00, 0.00, 0.00
167, 58422.38, 52125.96, 37228.98, 26728.39, 17084.44, 44583.73, 30582.08, 0.00, 0.00, 0.00, 0.00
168, 58416.04, 52119.84, 37169.18, 26706.73, 17079.84, 44381.13, 30575.91, 0.00, 0.00, 0.00, 0.00
169, 58362.84, 52092.68, 37127.50, 26705.10, 17077.69, 44126.25, 30559.86, 0.00, 0.00, 0.00, 0.00
170, 58348.47, 52084.23, 37169.90, 26729.56, 17090.79, 44228.60, 30585.25, 0.00, 0.08, 0.81, 0.56
171, 58406.94, 52107.52, 37236.06, 26720.08, 17084.47, 44567.61, 30561.74, 0.00, 0.00, 0.00, 0.00
172, 58420.66, 52120.04, 37188.45, 26696.50, 17066.72, 44420.04, 30547.99, 0.00, 0.00, 0.00, 0.00
173, 58387.56, 52118.81, 37148.55, 26715.56, 17079.59, 44160.96, 30583.35, 0.00, 0.00, 0.00, 0.00
174, 58357.54, 52104.75, 37173.83, 26728.01, 17092.91, 44182.49, 30582.79, 0.00, 0.00, 0.00, 0.00
175, 58396.01, 52103.25, 37248.55, 26744.40, 17084.20, 44543.20, 30550.99, 0.00, 0.00, 0.00, 0.00
176, 58428.13, 52116.91, 37231.34, 26696.01, 17082.01, 44479.10, 30553.65, 0.00, 0.00, 0.00, 0.00
177, 58375.45, 52088.48, 37162.30, 26690.64, 17083.01, 44191.27, 30571.15, 0.00, 0.00, 0.00, 0.00
178, 58322.14, 52062.55, 37138.00, 26693.44, 17073.11, 44125.96, 30562.21, 0.00, 0.00, 0.00, 0.00
179, 58367.76, 52089.51, 37218.76, 26719.59, 17073.02, 44499.33, 30559.10, 0.00, 0.00, 0.00, 0.00
180, 58405.53, 52102.92, 37205.55, 26707.45, 17056.30, 44534.91, 30534.81, 0.00, 0.09, 0.81, 0.57
181, 58364.40, 52083.77, 37147.91, 26701.59, 17047.16, 44231.04, 30531.90, 0.00, 0.00, 0.00, 0.00
182, 58331.55, 52082.16, 37152.44, 26700.03, 17078.16, 44112.35, 30579.33, 0.00, 0.00, 0.00, 0.00
183, 58364.52, 52091.90, 37226.09, 26711.85, 17081.96, 44413.83, 30533.09, 0.00, 0.00, 0.00, 0.00
184, 58407.65, 52098.36, 37229.64, 26693.14, 17059.01, 44536.36, 30519.88, 0.00, 0.00, 0.00, 0.00
185, 58389.97, 52096.17, 37177.12, 26694.73, 17071.55, 44278.02, 30560.44, 0.00, 0.00, 0.00, 0.00
186, 58336.60, 52072.95, 37145.38, 26699.18, 17076.80, 44099.79, 30566.52, 0.00, 0.00, 0.00, 0.00
187, 58351.17, 52078.29, 37210.38, 26723.66, 17085.31, 44358.20, 30572.92, 0.00, 0.00, 0.00, 0.00
188, 58405.62, 52100.86, 37240.89, 26695.65, 17068.35, 44580.31, 30540.62, 0.00, 0.00, 0.00, 0.00
189, 58389.75, 52095.90, 37172.18, 26684.43, 17065.62, 44333.66, 30548.69, 0.00, 0.09, 0.81, 0.57
190, 58336.60, 52073.30, 37147.39, 26695.60, 17073.63, 44110.18, 30564.89, 0.00, 0.00, 0.00, 0.00
191, 58336.24, 52077.24, 37195.11, 26720.41, 17078.43, 44277.93, 30551.21, 0.00, 0.00, 0.00, 0.00
192, 58390.64, 52095.01, 37238.43, 26697.35, 17056.86, 44559.99, 30500.59, 0.00, 0.00, 0.00, 0.00
193, 58391.92, 52098.92, 37190.98, 26691.40, 17055.63, 44361.28, 30520.93, 0.00, 0.00, 0.00, 0.00
194, 58346.07, 52083.09, 37158.32, 26693.17, 17076.08, 44111.61, 30577.61, 0.00, 0.00, 0.00, 0.00
195, 58331.79, 52079.12, 37193.97, 26695.58, 17086.50, 44203.37, 30580.34, 0.00, 0.00, 0.00, 0.00
196, 58395.85, 52105.65, 37262.43, 26708.75, 17075.86, 44551.03, 30528.19, 0.00, 0.00, 0.00, 0.00
197, 58404.30, 52104.55, 37210.96, 26720.57, 17061.04, 44421.81, 30515.40, 0.00, 0.00, 0.00, 0.00
198, 58356.00, 52079.96, 37158.23, 26683.09, 17061.38, 44149.75, 30544.98, 0.00, 0.00, 0.00, 0.00
199, 58326.23, 52067.36, 37184.47, 26681.81, 17064.57, 44148.58, 30548.82, 0.00, 0.09, 0.81, 0.57
200, 58377.01, 52085.15, 37264.34, 26687.33, 17060.15, 44506.46, 30510.64, 0.00, 0.00, 0.00, 0.00
201, 58403.05, 52100.37, 37238.88, 26664.80, 17050.67, 44465.48, 30503.74, 0.00, 0.00, 0.00, 0.00
202, 58361.54, 52083.09, 37184.05, 26663.46, 17061.82, 44168.43, 30527.99, 0.00, 0.00, 0.00, 0.00
203, 58308.95, 52056.56, 37178.71, 26665.05, 17056.82, 44081.46, 30515.40, 0.00, 0.00, 0.00, 0.00
204, 58353.96, 52083.56, 37263.29, 26688.23, 17061.85, 44432.27, 30517.64, 0.00, 0.00, 0.00, 0.00
205, 58396.52, 52105.96, 37262.50, 26668.89, 17036.68, 44491.93, 30475.96, 0.00, 0.00, 0.00, 0.00
206, 58359.00, 52085.60, 37215.52, 26664.42, 17040.70, 44197.64, 30490.84, 0.00, 0.00, 0.00, 0.00
207, 58313.53, 52057.34, 37200.70, 26675.64, 17066.25, 44079.29, 30562.57, 0.00, 0.00, 0.00, 0.00
208, 58343.80, 52067.56, 37273.95, 26696.34, 17077.98, 44388.86, 30572.04, 0.00, 0.00, 0.00, 0.00
209, 58386.62, 52082.87, 37292.34, 26674.37, 17054.56, 44531.82, 30517.44, 0.00, 0.09, 0.81, 0.57
210, 58366.97, 52079.83, 37252.94, 26668.45, 17056.53, 44262.55, 30523.90, 0.00, 0.00, 0.00, 0.00
211, 58320.80, 52069.30, 37224.59, 26675.67, 17057.42, 44074.89, 30540.46, 0.00, 0.00, 0.00, 0.00
212, 58328.86, 52070.78, 37282.33, 26690.06, 17059.50, 44304.15, 30531.45, 0.00, 0.00, 0.00, 0.00
213, 58388.43, 52093.09, 37316.08, 26679.49, 17048.77, 44526.08, 30495.13, 0.00, 0.00, 0.00, 0.00
214, 58382.89, 52089.80, 37262.79, 26699.40, 17040.79, 44309.56, 30526.56, 0.00, 0.00, 0.00, 0.00
215, 58332.08, 52067.25, 37237.85, 26675.31, 17048.93, 44095.48, 30540.04, 0.00, 0.00, 0.00, 0.00
216, 58324.59, 52063.31, 37283.58, 26681.50, 17060.46, 44236.98, 30536.79, 0.00, 0.00, 0.00, 0.00
217, 58385.19, 52090.25, 37345.88, 26682.68, 17049.20, 44553.98, 30510.53, 0.00, 0.00, 0.00, 0.00
218, 58389.19, 52094.85, 37300.55, 26662.14, 17041.19, 44378.98, 30530.20, 0.00, 0.00, 0.00, 0.00
219, 58348.04, 52085.24, 37274.13, 26676.27, 17061.62, 44113.80, 30552.02, 0.00, 0.08, 0.81, 0.58
220, 58317.80, 52068.12, 37305.93, 26687.74, 17064.01, 44170.29, 30531.99, 0.00, 0.00, 0.00, 0.00
221, 58376.52, 52091.03, 37389.75, 26685.48, 17062.16, 44518.50, 30508.37, 0.00, 0.00, 0.00, 0.00
222, 58398.91, 52108.75, 37352.58, 26665.03, 17051.61, 44406.72, 30505.41, 0.00, 0.00, 0.00, 0.00
223, 58350.03, 52085.22, 37309.39, 26666.21, 17056.37, 44130.90, 30534.70, 0.00, 0.00, 0.00, 0.00
224, 58310.49, 52062.93, 37334.14, 26687.96, 17068.39, 44117.80, 30547.70, 0.00, 0.00, 0.00, 0.00
225, 58359.02, 52076.48, 37420.64, 26714.94, 17063.97, 44484.15, 30503.67, 0.00, 0.00, 0.00, 0.00
226, 58395.70, 52099.55, 37403.32, 26657.56, 17049.15, 44468.57, 30479.69, 0.00, 0.00, 0.00, 0.00
227, 58358.91, 52090.27, 37354.99, 26650.90, 17056.79, 44174.09, 30514.89, 0.00, 0.00, 0.00, 0.00
228, 58317.18, 52077.13, 37353.34, 26675.31, 17065.31, 44083.70, 30538.63, 0.00, 0.00, 0.00, 0.00
229, 58361.99, 52098.50, 37443.39, 26695.89, 17071.59, 44430.08, 30521.69, 0.00, 0.08, 0.81, 0.58
230, 58409.22, 52116.42, 37450.28, 26672.20, 17058.94, 44515.42, 30515.88, 0.00, 0.00, 0.00, 0.00
231, 58375.51, 52101.71, 37381.53, 26658.05, 17051.72, 44205.09, 30501.95, 0.00, 0.00, 0.00, 0.00
232, 58324.37, 52078.94, 37367.29, 26658.88, 17055.74, 44043.91, 30498.02, 0.00, 0.00, 0.00, 0.00
233, 58349.41, 52089.69, 37452.76, 26710.51, 17074.25, 44361.93, 30530.94, 0.00, 0.00, 0.00, 0.00
234, 58401.02, 52103.61, 37481.15, 26681.37, 17052.01, 44553.06, 30504.18, 0.00, 0.00, 0.00, 0.00
235, 58374.62, 52088.17, 37425.18, 26658.90, 17044.57, 44277.57, 30504.92, 0.00, 0.00, 0.00, 0.00
236, 58310.65, 52056.63, 37398.96, 26661.92, 17052.44, 44069.57, 30530.54, 0.00, 0.00, 0.00, 0.00
237, 58305.48, 52043.00, 37454.10, 26680.43, 17063.14, 44274.02, 30523.59, 0.00, 0.00, 0.00, 0.00
238, 58358.59, 52061.75, 37501.89, 26663.48, 17052.06, 44521.93, 30465.11, 0.00, 0.08, 0.80, 0.57
239, 58338.45, 52049.84, 37449.14, 26649.76, 17042.94, 44311.44, 30497.95, 0.00, 0.00, 0.00, 0.00
240, 58284.36, 52022.39, 37417.00, 26658.12, 17054.74, 44079.96, 30536.59, 0.00, 0.00, 0.00, 0.00
241, 58263.46, 52005.78, 37456.80, 26676.38, 17063.12, 44222.90, 30538.74, 0.00, 0.00, 0.00, 0.00
242, 58302.54, 52002.25, 37509.76, 26666.88, 17041.48, 44546.46, 30486.84, 0.00, 0.00, 0.00, 0.00
243, 58296.19, 51987.94, 37465.23, 26635.86, 17038.42, 44368.52, 30476.02, 0.00, 0.00, 0.00, 0.00
244, 58235.55, 51960.00, 37423.26, 26661.34, 17055.92, 44106.85, 30516.81, 0.00, 0.00, 0.00, 0.00
245, 58200.34, 51945.52, 37447.98, 26673.07, 17068.46, 44146.55, 30534.31, 0.00, 0.00, 0.00, 0.00
246, 58236.86, 51947.82, 37521.25, 26668.22, 17059.61, 44509.16, 30509.57, 0.00, 0.00, 0.00, 0.00
247, 58255.51, 51948.07, 37495.74, 26654.81, 17053.53, 44428.70, 30496.65, 0.00, 0.00, 0.00, 0.00
248, 58191.22, 51894.02, 37444.80, 26646.03, 17056.86, 44145.03, 30516.57, 0.00, 0.08, 0.81, 0.57
249, 58129.91, 51851.20, 37438.77, 26643.19, 17044.90, 44083.41, 30493.28, 0.00, 0.00, 0.00, 0.00
250, 58172.83, 51880.81, 37520.46, 26681.92, 17046.13, 44442.51, 30460.80, 0.00, 0.00, 0.00, 0.00
251, 58194.62, 51883.96, 37501.53, 26627.28, 17031.87, 44470.76, 30483.11, 0.00, 0.00, 0.00, 0.00
252, 58147.52, 51849.56, 37435.95, 26633.31, 17026.84, 44179.85, 30502.73, 0.00, 0.00, 0.00, 0.00
253, 58109.97, 51836.58, 37432.87, 26639.66, 17042.31, 44057.43, 30525.04, 0.00, 0.00, 0.00, 0.00
254, 58140.89, 51845.79, 37528.53, 26649.20, 17053.17, 44374.02, 30502.78, 0.00, 0.00, 0.00, 0.00
255, 58189.39, 51877.39, 37524.87, 26654.37, 17037.48, 44530.80, 30507.80, 0.00, 0.00, 0.00, 0.00
0, 58166.97, 51881.39, 37467.94, 26646.72, 17035.11, 44248.81, 30499.54, 0.00, 0.00, 0.00, 0.00
1, 58129.15, 51873.21, 37439.57, 26646.43, 17037.79, 44069.26, 30523.50, 0.00, 0.00, 0.00, 0.00
2, 58156.13, 51881.04, 37504.37, 26672.36, 17051.23, 44345.48, 30527.59, 0.00, 0.07, 0.79, 0.58
3, 58218.49, 51905.29, 37529.41, 26660.89, 17031.89, 44542.82, 30485.65, 0.00, 0.00, 0.00, 0.00
4, 58213.73, 51909.87, 37464.79, 26632.01, 17022.48, 44274.00, 30477.45, 0.00, 0.00, 0.00, 0.00
5, 58173.45, 51898.20, 37433.34, 26632.30, 17027.02, 44052.61, 30495.71, 0.00, 0.00, 0.00, 0.00
6, 58195.80, 51927.13, 37496.30, 26665.12, 17048.52, 44249.81, 30504.30, 0.00, 0.00, 0.00, 0.00
7, 58267.06, 51969.48, 37550.01, 26673.88, 17038.31, 44543.98, 30482.66, 0.00, 0.00, 0.00, 0.00
8, 58272.36, 51981.08, 37485.89, 26654.66, 17029.46, 44332.85, 30480.38, 0.00, 0.00, 0.00, 0.00
9, 58232.21, 51973.75, 37437.81, 26666.37, 17037.82, 44078.91, 30489.97, 0.00, 0.00, 0.00, 0.00
10, 58222.80, 51975.58, 37471.87, 26679.29, 17040.90, 44190.70, 30483.60, 0.00, 0.00, 0.00, 0.00
11, 58290.46, 52006.76, 37536.60, 26674.97, 17036.95, 44529.03, 30464.73, 0.00, 0.00, 0.00, 0.00
12, 58306.85, 52019.53, 37487.63, 26664.09, 17020.25, 44385.85, 30449.42, 0.00, 0.08, 0.80, 0.57
13, 58262.14, 52000.86, 37444.25, 26647.55, 17025.88, 44111.81, 30503.25, 0.00, 0.00, 0.00, 0.00
14, 58238.72, 51995.52, 37469.66, 26666.32, 17032.39, 44130.72, 30507.13, 0.00, 0.00, 0.00, 0.00
15, 58305.29, 52027.50, 37552.88, 26691.67, 17032.68, 44503.57, 30494.13, 0.00, 0.00, 0.00, 0.00
16, 58343.50, 52050.24, 37524.87, 26661.18, 17049.55, 44438.60, 30491.71, 0.00, 0.00, 0.00, 0.00
17, 58295.18, 52030.86, 37461.28, 26664.13, 17040.92, 44127.39, 30474.93, 0.00, 0.00, 0.00, 0.00
18, 58250.45, 52012.26, 37454.57, 26684.99, 17036.19, 44059.33, 30479.69, 0.00, 0.00, 0.00, 0.00
19, 58300.68, 52036.27, 37537.38, 26673.56, 17041.55, 44430.15, 30496.16, 0.00, 0.00, 0.00, 0.00
20, 58349.05, 52058.91, 37517.09, 26660.00, 17024.74, 44489.16, 30491.11, 0.00, 0.00, 0.00, 0.00
21, 58320.35, 52047.24, 37466.06, 26649.11, 17031.47, 44207.30, 30516.46, 0.00, 0.00, 0.00, 0.00
22, 58282.42, 52033.41, 37454.71, 26664.74, 17042.85, 44071.89, 30530.22, 0.00, 0.09, 0.79, 0.57
23, 58321.76, 52055.27, 37540.22, 26695.65, 17059.16, 44401.11, 30515.58, 0.00, 0.00, 0.00, 0.00
24, 58370.62, 52071.36, 37546.08, 26685.84, 17043.18, 44524.34, 30490.77, 0.00, 0.00, 0.00, 0.00
25, 58345.20, 52064.48, 37482.87, 26656.82, 17043.27, 44241.59, 30503.85, 0.00, 0.00, 0.00, 0.00
26, 58299.70, 52056.23, 37465.05, 26683.42, 17054.54, 44069.30, 30531.72, 0.00, 0.00, 0.00, 0.00
27, 58316.39, 52069.30, 37529.02, 26721.02, 17061.82, 44328.87, 30519.83, 0.00, 0.00, 0.00, 0.00
28, 58379.38, 52094.00, 37556.61, 26687.33, 17049.49, 44547.34, 30487.24, 0.00, 0.00, 0.00, 0.00
29, 58362.88, 52083.45, 37498.80, 26659.77, 17044.03, 44292.39, 30483.29, 0.00, 0.00, 0.00, 0.00
30, 58303.83, 52050.98, 37455.09, 26655.53, 17041.77, 44059.00, 30488.27, 0.00, 0.00, 0.00, 0.00
31, 58298.80, 52051.42, 37497.71, 26676.34, 17043.32, 44227.39, 30473.45, 0.00, 0.10, 0.80, 0.57
32, 58361.99, 52077.91, 37546.53, 26672.07, 17029.21, 44536.83, 30450.83, 0.00, 0.00, 0.00, 0.00
33, 58376.86, 52093.22, 37496.68, 26662.37, 17034.51, 44340.79, 30468.31, 0.00, 0.00, 0.00, 0.00
34, 58332.22, 52077.06, 37464.14, 26666.95, 17046.33, 44073.64, 30480.51, 0.00, 0.00, 0.00, 0.00
35, 58312.19, 52068.90, 37496.17, 26685.75, 17051.65, 44145.70, 30481.88, 0.00, 0.00, 0.00, 0.00
36, 58382.53, 52108.35, 37578.58, 26722.92, 17057.42, 44544.70, 30495.29, 0.00, 0.00, 0.00, 0.00
37, 58399.77, 52119.95, 37543.66, 26692.79, 17042.00, 44440.95, 30485.68, 0.00, 0.00, 0.00, 0.00
38, 58353.90, 52100.80, 37487.27, 26670.39, 17044.75, 44133.20, 30509.30, 0.00, 0.00, 0.00, 0.00
39, 58319.68, 52084.61, 37486.94, 26694.08, 17049.93, 44118.41, 30501.19, 0.00, 0.00, 0.00, 0.00
40, 58368.70, 52096.24, 37563.07, 26717.49, 17042.40, 44498.77, 30494.89, 0.00, 0.00, 0.00, 0.00
41, 58395.70, 52108.57, 37531.82, 26672.71, 17020.38, 44466.13, 30462.65, 0.00, 0.09, 0.81, 0.57
42, 58361.61, 52100.71, 37486.20, 26674.95, 17038.11, 44163.54, 30492.88, 0.00, 0.00, 0.00, 0.00
43, 58322.38, 52082.89, 37486.09, 26684.38, 17047.85, 44081.53, 30525.69, 0.00, 0.00, 0.00, 0.00
44, 58368.94, 52107.97, 37559.54, 26717.13, 17053.44, 44437.10, 30511.90, 0.00, 0.00, 0.00, 0.00
45, 58405.73, 52122.01, 37545.27, 26694.75, 17037.35, 44501.41, 30487.73, 0.00, 0.00, 0.00, 0.00
46, 58369.66, 52103.32, 37486.80, 26677.34, 17032.88, 44203.55, 30485.48, 0.00, 0.00, 0.00, 0.00
47, 58335.64, 52098.96, 37482.60, 26697.12, 17049.02, 44060.52, 30505.41, 0.00, 0.00, 0.00, 0.00
48, 58366.37, 52119.21, 37557.32, 26721.60, 17065.18, 44369.33, 30510.67, 0.00, 0.00, 0.00, 0.00
49, 58411.34, 52132.38, 37559.51, 26697.15, 17039.29, 44513.45, 30447.99, 0.00, 0.00, 0.00, 0.00
50, 58379.78, 52116.62, 37493.95, 26675.53, 17032.99, 44239.09, 30445.62, 0.00, 0.00, 0.00, 0.00
51, 58324.04, 52091.66, 37469.95, 26654.25, 17048.03, 44042.90, 30496.16, 0.00, 0.10, 0.82, 0.57
52, 58334.56, 52087.72, 37536.13, 26681.63, 17061.22, 44277.30, 30516.39, 0.00, 0.00, 0.00, 0.00
53, 58397.86, 52109.22, 37575.58, 26669.50, 17043.23, 44536.57, 30485.86, 0.00, 0.00, 0.00, 0.00
54, 58392.32, 52106.68, 37514.70, 26677.99, 17043.58, 44302.05, 30484.27, 0.00, 0.00, 0.00, 0.00
55, 58338.97, 52085.08, 37484.41, 26680.11, 17052.57, 44060.63, 30484.34, 0.00, 0.00, 0.00, 0.00
56, 58332.06, 52087.30, 37532.71, 26682.37, 17060.50, 44211.39, 30481.92, 0.00, 0.00, 0.00, 0.00
57, 58400.55, 52120.04, 37583.61, 26694.04, 17057.73, 44527.20, 30482.68, 0.00, 0.00, 0.00, 0.00
58, 58406.22, 52128.67, 37522.45, 26653.02, 17046.07, 44350.69, 30474.26, 0.00, 0.00, 0.00, 0.00
59, 58361.61, 52113.45, 37474.75, 26663.75, 17047.03, 44085.68, 30458.34, 0.00, 0.00, 0.00, 0.00
60, 58335.70, 52095.01, 37498.78, 26682.15, 17052.50, 44149.34, 30493.34, 0.00, 0.00, 0.00, 0.00
61, 58393.06, 52112.78, 37579.61, 26687.74, 17060.48, 44522.53, 30508.39, 0.00, 0.10, 0.81, 0.56
62, 58411.72, 52126.30, 37533.59, 26664.27, 17041.35, 44399.68, 30455.90, 0.00, 0.00, 0.00, 0.00
63, 58370.57, 52121.09, 37490.47, 26665.76, 17058.96, 44112.51, 30496.07, 0.00, 0.00, 0.00, 0.00
64, 58338.27, 52108.96, 37508.80, 26684.32, 17066.12, 44108.46, 30513.44, 0.00, 0.00, 0.00, 0.00
65, 58390.04, 52129.05, 37591.68, 26695.38, 17056.86, 44469.42, 30457.11, 0.00, 0.00, 0.00, 0.00
66, 58436.33, 52159.98, 37551.11, 26695.78, 17041.95, 44453.62, 30436.95, 0.00, 0.00, 0.00, 0.00
67, 58401.95, 52147.02, 37493.11, 26708.39, 17049.57, 44157.30, 30489.25, 0.00, 0.00, 0.00, 0.00
68, 58361.43, 52132.27, 37489.20, 26700.41, 17049.20, 44082.78, 30494.86, 0.00, 0.00, 0.00, 0.00
69, 58397.39, 52145.84, 37571.96, 26712.03, 17044.39, 44415.62, 30447.68, 0.00, 0.00, 0.00, 0.00
70, 58445.43, 52168.16, 37571.11, 26688.79, 17039.38, 44496.33, 30447.52, 0.00, 0.10, 0.81, 0.56
71, 58414.07, 52157.26, 37506.14, 26674.41, 17052.99, 44204.77, 30464.58, 0.00, 0.00, 0.00, 0.00
72, 58352.65, 52122.81, 37477.04, 26672.36, 17050.22, 44030.01, 30461.38, 0.00, 0.00, 0.00, 0.00
73, 58370.75, 52125.00, 37547.64, 26696.07, 17058.61, 44323.91, 30473.72, 0.00, 0.00, 0.00, 0.00
74, 58423.86, 52144.58, 37561.84, 26680.92, 17043.52, 44519.18, 30446.40, 0.00, 0.00, 0.00, 0.00
75, 58398.98, 52132.54, 37498.65, 26658.39, 17041.37, 44244.25, 30455.21, 0.00, 0.00, 0.00, 0.00
76, 58344.55, 52112.93, 37471.56, 26666.14, 17054.22, 44046.52, 30490.21, 0.00, 0.00, 0.00, 0.00
77, 58346.93, 52111.91, 37533.23, 26692.18, 17058.25, 44257.55, 30471.21, 0.00, 0.00, 0.00, 0.00
78, 58412.50, 52137.54, 37573.48, 26674.48, 17043.88, 44524.56, 30436.53, 0.00, 0.00, 0.00, 0.00
79, 58408.86, 52140.05, 37526.10, 26654.63, 17044.46, 44307.97, 30452.69, 0.00, 0.00, 0.00, 0.00
80, 58354.59, 52117.70, 37476.25, 26666.21, 17054.69, 44061.30, 30487.02, 0.00, 0.10, 0.81, 0.56
81, 58343.82, 52114.66, 37503.59, 26674.30, 17068.26, 44188.23, 30498.26, 0.00, 0.00, 0.00, 0.00
82, 58403.12, 52135.60, 37560.68, 26682.37, 17052.90, 44513.57, 30451.70, 0.00, 0.00, 0.00, 0.00
83, 58402.71, 52131.20, 37510.68, 26635.28, 17028.27, 44341.75, 30423.32, 0.00, 0.00, 0.00, 0.00
84, 58352.58, 52109.58, 37469.26, 26645.33, 17032.77, 44087.00, 30476.31, 0.00, 0.00, 0.00, 0.00
85, 58326.92, 52090.63, 37491.43, 26663.51, 17051.12, 44124.27, 30494.95, 0.00, 0.00, 0.00, 0.00
86, 58387.80, 52116.18, 37571.83, 26695.43, 17047.50, 44499.75, 30460.53, 0.00, 0.00, 0.00, 0.00
87, 58407.39, 52133.79, 37529.83, 26659.93, 17027.54, 44414.08, 30446.70, 0.00, 0.00, 0.00, 0.00
88, 58371.31, 52132.00, 37478.71, 26632.91, 17045.69, 44115.12, 30469.40, 0.00, 0.00, 0.00, 0.00
89, 58332.30, 52104.78, 37477.97, 26646.70, 17055.54, 44055.20, 30449.09, 0.00, 0.00, 0.00, 0.00
90, 58374.30, 52116.40, 37554.19, 26669.63, 17054.60, 44419.84, 30445.44, 0.00, 0.10, 0.81, 0.57
91, 58410.54, 52135.33, 37538.99, 26643.68, 17038.04, 44443.04, 30445.15, 0.00, 0.00, 0.00, 0.00
92, 58376.56, 52128.58, 37478.33, 26656.53, 17043.94, 44150.19, 30451.46, 0.00, 0.00, 0.00, 0.00
93, 58339.28, 52112.84, 37467.02, 26682.71, 17053.11, 44046.70, 30479.29, 0.00, 0.00, 0.00, 0.00
94, 58370.55, 52121.76, 37535.60, 26681.70, 17050.65, 44364.99, 30461.38, 0.00, 0.00, 0.00, 0.00
95, 58415.45, 52136.40, 37534.03, 26630.92, 17030.64, 44465.51, 30434.04, 0.00, 0.00, 0.00, 0.00
96, 58391.16, 52136.22, 37478.78, 26612.72, 17037.37, 44184.57, 30455.97, 0.00, 0.00, 0.00, 0.00
97, 58355.24, 52129.47, 37463.51, 26645.18, 17046.60, 44033.36, 30478.14, 0.00, 0.00, 0.00, 0.00
98, 58371.33, 52126.41, 37524.42, 26668.13, 17062.92, 44302.27, 30494.04, 0.00, 0.00, 0.00, 0.00
99, 58428.96, 52141.28, 37547.49, 26652.40, 17042.22, 44514.17, 30467.42, 0.00, 0.00, 0.00, 0.00
100, 58410.36, 52138.30, 37481.95, 26645.18, 17028.10, 44251.67, 30445.60, 0.00, 0.10, 0.81, 0.56
101, 58356.13, 52120.67, 37450.55, 26629.44, 17037.37, 44011.66, 30443.34, 0.00, 0.00, 0.00, 0.00
102, 58350.97, 52116.02, 37503.34, 26655.62, 17045.28, 44204.93, 30446.49, 0.00, 0.00, 0.00, 0.00
103, 58421.07, 52147.60, 37552.88, 26659.44, 17044.95, 44504.96, 30443.28, 0.00, 0.00, 0.00, 0.00
104, 58419.59, 52147.82, 37496.86, 26637.53, 17042.45, 44305.47, 30438.13, 0.00, 0.00, 0.00, 0.00
105, 58362.04, 52119.26, 37450.52, 26634.65, 17034.89, 44052.67, 30452.60, 0.00, 0.00, 0.00, 0.00
106, 58346.50, 52112.46, 37489.39, 26656.13, 17051.65, 44153.93, 30480.45, 0.00, 0.00, 0.00, 0.00
107, 58410.52, 52140.96, 37556.50, 26667.55, 17050.00, 44490.59, 30442.02, 0.00, 0.00, 0.00, 0.00
108, 58419.61, 52148.88, 37507.03, 26614.60, 17037.59, 44335.22, 30419.87, 0.00, 0.00, 0.00, 0.00
109, 58371.55, 52129.52, 37467.76, 26620.35, 17038.51, 44052.00, 30438.78, 0.00, 0.00, 0.00, 0.00
110, 58352.16, 52120.69, 37481.64, 26638.79, 17052.35, 44078.98, 30480.09, 0.00, 0.09, 0.82, 0.56
111, 58414.34, 52143.45, 37559.27, 26651.57, 17054.80, 44453.89, 30448.48, 0.00, 0.00, 0.00, 0.00
112, 58429.96, 52146.44, 37516.22, 26624.79, 17031.65, 44385.76, 30408.70, 0.00, 0.00, 0.00, 0.00
113, 58388.52, 52136.14, 37462.64, 26624.30, 17038.15, 44092.97, 30437.17, 0.00, 0.00, 0.00, 0.00
114, 58356.60, 52127.69, 37465.90, 26637.27, 17048.95, 44044.42, 30450.07, 0.00, 0.00, 0.00, 0.00
115, 58393.37, 52139.82, 37536.04, 26649.60, 17045.26, 44403.95, 30433.31, 0.00, 0.00, 0.00, 0.00
116, 58430.99, 52156.14, 37523.13, 26631.30, 17034.29, 44440.18, 30433.78, 0.00, 0.00, 0.00, 0.00
117, 58398.76, 52139.51, 37468.81, 26624.37, 17041.89, 44149.48, 30452.28, 0.00, 0.00, 0.00, 0.00
118, 58352.73, 52117.16, 37454.77, 26637.31, 17041.69, 44032.51, 30456.02, 0.00, 0.00, 0.00, 0.00
119, 58383.58, 52129.47, 37525.40, 26659.73, 17043.25, 44349.05, 30444.37, 0.00, 0.09, 0.82, 0.57
120, 58439.30, 52154.22, 37526.81, 26642.29, 17029.82, 44477.27, 30415.58, 0.00, 0.00, 0.00, 0.00
121, 58411.16, 52147.89, 37477.37, 26615.54, 17031.11, 44190.80, 30411.98, 0.00, 0.00, 0.00, 0.00
122, 58348.76, 52119.48, 37441.43, 26621.66, 17031.34, 44009.51, 30449.91, 0.00, 0.00, 0.00, 0.00
123, 58377.28, 52137.27, 37505.96, 26679.67, 17043.49, 44290.49, 30467.79, 0.00, 0.00, 0.00, 0.00
124, 58451.73, 52173.04, 37539.04, 26661.00, 17031.00, 44527.11, 30436.91, 0.00, 0.00, 0.00, 0.00
125, 58427.75, 52161.50, 37471.34, 26637.69, 17028.81, 44264.45, 30427.72, 0.00, 0.00, 0.00, 0.00
126, 58375.47, 52140.88, 37436.00, 26620.52, 17040.25, 44041.63, 30450.25, 0.00, 0.00, 0.00, 0.00
127, 58369.30, 52136.22, 37491.50, 26648.98, 17049.40, 44217.02, 30454.38, 0.00, 0.00, 0.00, 0.00
128, 58431.08, 52159.31, 37548.54, 26649.18, 17043.23, 44530.11, 30444.06, 0.00, 0.00, 0.00, 0.00
129, 58429.80, 52161.79, 37488.14, 26636.06, 17038.80, 44334.53, 30440.62, 0.00, 0.08, 0.81, 0.58
130, 58383.94, 52147.22, 37449.48, 26631.72, 17053.51, 44071.36, 30474.90, 0.00, 0.00, 0.00, 0.00
131, 58361.81, 52135.96, 37473.30, 26649.69, 17056.97, 44143.09, 30464.76, 0.00, 0.00, 0.00, 0.00
132, 58419.50, 52149.75, 37543.04, 26653.58, 17044.86, 44491.79, 30424.84, 0.00, 0.00, 0.00, 0.00
133, 58434.97, 52159.78, 37496.70, 26628.68, 17034.06, 44367.29, 30414.55, 0.00, 0.00, 0.00, 0.00
134, 58387.80, 52143.46, 37442.59, 26634.96, 17038.87, 44079.74, 30414.55, 0.00, 0.00, 0.00, 0.00
135, 58362.62, 52133.18, 37460.76, 26653.31, 17045.95, 44089.55, 30447.50, 0.00, 0.00, 0.00, 0.00
136, 58420.95, 52159.78, 37545.72, 26657.58, 17050.87, 44467.18, 30446.79, 0.00, 0.00, 0.00, 0.00
137, 58446.08, 52167.81, 37526.21, 26629.38, 17041.44, 44435.29, 30457.78, 0.00, 0.00, 0.00, 0.00
138, 58403.45, 52148.27, 37465.97, 26642.34, 17044.41, 44124.36, 30447.97, 0.00, 0.00, 0.00, 0.00
139, 58362.23, 52133.34, 37461.90, 26666.46, 17049.71, 44054.97, 30457.67, 0.00, 0.07, 0.80, 0.58
140, 58409.06, 52151.71, 37535.21, 26641.29, 17047.29, 44399.88, 30426.42, 0.00, 0.00, 0.00, 0.00
141, 58455.89, 52170.73, 37528.78, 26620.32, 17031.80, 44467.43, 30415.34, 0.00, 0.00, 0.00, 0.00
142, 58422.94, 52164.48, 37479.27, 26625.11, 17037.21, 44175.98, 30446.94, 0.00, 0.00, 0.00, 0.00
143, 58371.64, 52151.45, 37462.62, 26657.81, 17043.23, 44037.32, 30469.83, 0.00, 0.00, 0.00, 0.00
144, 58398.58, 52166.46, 37529.38, 26686.39, 17046.47, 44361.30, 30461.72, 0.00, 0.00, 0.00, 0.00
145, 58439.28, 52167.02, 37528.69, 26625.53, 17021.23, 44496.58, 30402.75, 0.00, 0.00, 0.00, 0.00
146, 58421.40, 52156.00, 37479.71, 26614.53, 17031.31, 44229.88, 30428.30, 0.00, 0.00, 0.00, 0.00
147, 58373.05, 52140.76, 37449.88, 26628.35, 17044.17, 44051.13, 30463.10, 0.00, 0.00, 0.00, 0.00
148, 58376.92, 52144.07, 37505.69, 26661.05, 17056.91, 44285.67, 30460.46, 0.00, 0.00, 0.00, 0.00
149, 58438.81, 52170.16, 37553.90, 26648.60, 17043.29, 44532.07, 30418.62, 0.00, 0.07, 0.80, 0.58
150, 58435.04, 52173.06, 37494.16, 26627.54, 17046.63, 44300.39, 30433.29, 0.00, 0.00, 0.00, 0.00
151, 58379.27, 52145.84, 37446.01, 26626.20, 17051.23, 44058.37, 30459.06, 0.00, 0.00, 0.00, 0.00
152, 58370.55, 52142.53, 37491.21, 26647.59, 17057.71, 44188.01, 30454.12, 0.00, 0.00, 0.00, 0.00
153, 58438.54, 52171.34, 37560.90, 26662.99, 17041.55, 44523.29, 30418.73, 0.00, 0.00, 0.00, 0.00
154, 58441.43, 52174.96, 37495.12, 26616.84, 17026.22, 44350.96, 30403.27, 0.00, 0.00, 0.00, 0.00
155, 58390.42, 52155.07, 37441.05, 26623.70, 17045.39, 44087.90, 30474.10, 0.00, 0.00, 0.00, 0.00
156, 58366.28, 52143.69, 37464.07, 26630.85, 17048.77, 44135.13, 30467.46, 0.00, 0.00, 0.00, 0.00
157, 58428.78, 52173.08, 37540.94, 26637.31, 17039.49, 44498.43, 30426.40, 0.00, 0.00, 0.00, 0.00
158, 58444.13, 52183.52, 37497.17, 26620.75, 17026.80, 44396.26, 30407.02, 0.00, 0.00, 0.00, 0.00
159, 58398.80, 52161.50, 37446.68, 26629.93, 17038.00, 44103.28, 30427.85, 0.00, 0.09, 0.80, 0.57
160, 58365.48, 52146.35, 37453.97, 26650.83, 17047.38, 44081.93, 30442.43, 0.00, 0.00, 0.00, 0.00
161, 58417.71, 52168.21, 37541.30, 26665.90, 17047.38, 44471.12, 30426.58, 0.00, 0.00, 0.00, 0.00
162, 58443.86, 52180.44, 37511.90, 26625.75, 17028.61, 44457.68, 30433.84, 0.00, 0.00, 0.00, 0.00
163, 58407.45, 52171.23, 37456.38, 26616.28, 17040.16, 44162.20, 30457.13, 0.00, 0.00, 0.00, 0.00
164, 58362.66, 52151.82, 37443.37, 26630.29, 17045.80, 44059.38, 30465.47, 0.00, 0.00, 0.00, 0.00
165, 58400.99, 52168.61, 37524.51, 26657.18, 17050.87, 44402.14, 30453.13, 0.00, 0.00, 0.00, 0.00
166, 58447.60, 52188.06, 37521.02, 26648.31, 17029.03, 44503.28, 30414.22, 0.00, 0.00, 0.00, 0.00
167, 58413.20, 52175.21, 37459.60, 26622.47, 17030.71, 44200.89, 30408.92, 0.00, 0.00, 0.00, 0.00
168, 58363.58, 52156.36, 37440.22, 26634.90, 17042.45, 44036.76, 30439.52, 0.00, 0.10, 0.81, 0.56
169, 58383.13, 52164.75, 37514.50, 26639.23, 17049.04, 44329.03, 30441.87, 0.00, 0.00, 0.00, 0.00
170, 58444.22, 52184.46, 37531.28, 26617.33, 17034.24, 44506.97, 30390.62, 0.00, 0.00, 0.00, 0.00
171, 58422.56, 52177.55, 37461.48, 26607.38, 17037.37, 44233.70, 30383.89, 0.00, 0.00, 0.00, 0.00
172, 58370.91, 52160.12, 37440.02, 26623.59, 17053.73, 44049.03, 30450.32, 0.00, 0.00, 0.00, 0.00
173, 58372.47, 52164.57, 37497.35, 26649.11, 17064.97, 44258.60, 30457.69, 0.00, 0.00, 0.00, 0.00
174, 58429.29, 52188.71, 37538.01, 26648.62, 17046.85, 44527.31, 30405.39, 0.00, 0.00, 0.00, 0.00
175, 58420.48, 52186.56, 37473.61, 26620.37, 17040.25, 44303.08, 30387.17, 0.00, 0.00, 0.00, 0.00
176, 58368.07, 52159.20, 37434.99, 26615.83, 17047.12, 44051.73, 30422.38, 0.00, 0.00, 0.00, 0.00
177, 58355.89, 52150.26, 37475.89, 26629.91, 17054.80, 44171.11, 30427.21, 0.00, 0.00, 0.00, 0.00
178, 58426.59, 52183.03, 37544.67, 26637.71, 17049.08, 44515.13, 30413.08, 0.00, 0.11, 0.81, 0.56
179, 58441.03, 52193.47, 37495.25, 26616.52, 17039.18, 44359.27, 30403.49, 0.00, 0.00, 0.00, 0.00
180, 58385.26, 52159.07, 37446.82, 26604.34, 17038.55, 44075.65, 30406.57, 0.00, 0.00, 0.00, 0.00
181, 58352.60, 52144.58, 37476.92, 26638.79, 17041.73, 44102.88, 30407.36, 0.00, 0.00, 0.00, 0.00
182, 58408.26, 52170.96, 37543.64, 26623.68, 17044.70, 44474.72, 30401.77, 0.00, 0.00, 0.00, 0.00
183, 58433.25, 52184.44, 37504.01, 26606.76, 17035.27, 44407.02, 30394.59, 0.00, 0.00, 0.00, 0.00
184, 58399.25, 52179.95, 37460.02, 26606.71, 17040.10, 44114.61, 30416.12, 0.00, 0.00, 0.00, 0.00
185, 58369.93, 52167.50, 37457.30, 26618.45, 17049.53, 44070.48, 30439.30, 0.00, 0.00, 0.00, 0.00
186, 58407.01, 52169.11, 37540.91, 26649.20, 17058.85, 44444.12, 30420.95, 0.00, 0.00, 0.00, 0.00
187, 58438.05, 52174.02, 37526.10, 26637.82, 17045.08, 44454.33, 30408.05, 0.00, 0.00, 0.00, 0.00
188, 58404.57, 52157.32, 37462.39, 26602.40, 17049.87, 44146.21, 30420.77, 0.00, 0.12, 0.82, 0.56
189, 58351.57, 52127.15, 37440.31, 26597.03, 17052.23, 44032.58, 30427.05, 0.00, 0.00, 0.00, 0.00
190, 58385.17, 52137.05, 37522.34, 26631.72, 17061.06, 44374.22, 30421.64, 0.00, 0.00, 0.00, 0.00
191, 58438.41, 52155.22, 37524.73, 26633.42, 17043.85, 44484.24, 30381.23, 0.00, 0.00, 0.00, 0.00
192, 58399.41, 52127.82, 37458.08, 26582.95, 17034.76, 44186.71, 30370.95, 0.00, 0.00, 0.00, 0.00
193, 58347.19, 52105.54, 37440.98, 26565.16, 17040.77, 44016.66, 30418.58, 0.00, 0.00, 0.00, 0.00
194, 58376.92, 52123.73, 37518.70, 26603.52, 17054.27, 44296.42, 30419.65, 0.00, 0.00, 0.00, 0.00
195, 58430.61, 52143.54, 37537.43, 26585.86, 17035.67, 44508.65, 30386.32, 0.00, 0.00, 0.00, 0.00
196, 58412.04, 52136.58, 37470.73, 26586.84, 17048.21, 44243.85, 30404.61, 0.00, 0.00, 0.00, 0.00
197, 58363.98, 52119.95, 37442.25, 26585.92, 17052.48, 44021.49, 30415.74, 0.00, 0.00, 0.00, 0.00
198, 58372.43, 52128.18, 37498.56, 26610.64, 17059.30, 44213.36, 30414.67, 0.00, 0.11, 0.81, 0.56
199, 58442.32, 52162.15, 37546.70, 26602.84, 17040.84, 44506.75, 30381.67, 0.00, 0.00, 0.00, 0.00
200, 58445.21, 52169.28, 37488.57, 26585.74, 17032.23, 44301.60, 30384.74, 0.00, 0.00, 0.00, 0.00
201, 58386.04, 52135.09, 37445.94, 26577.70, 17039.61, 44043.73, 30408.03, 0.00, 0.00, 0.00, 0.00
202, 58367.46, 52125.29, 37481.08, 26595.85, 17044.52, 44139.51, 30413.26, 0.00, 0.00, 0.00, 0.00
203, 58432.91, 52156.97, 37550.84, 26602.04, 17039.23, 44476.26, 30373.83, 0.00, 0.00, 0.00, 0.00
204, 58440.18, 52160.86, 37501.04, 26574.81, 17027.63, 44354.84, 30377.47, 0.00, 0.00, 0.00, 0.00
205, 58387.14, 52138.95, 37446.28, 26572.92, 17028.97, 44081.17, 30408.16, 0.00, 0.00, 0.00, 0.00
206, 58357.09, 52130.99, 37449.56, 26591.00, 17032.16, 44086.60, 30409.39, 0.00, 0.00, 0.00, 0.00
207, 58419.77, 52162.53, 37537.92, 26613.69, 17030.80, 44467.90, 30386.97, 0.00, 0.11, 0.82, 0.56
208, 58444.76, 52177.44, 37506.98, 26607.16, 17013.43, 44395.88, 30344.32, 0.00, 0.00, 0.00, 0.00
209, 58402.67, 52162.78, 37448.47, 26590.15, 17033.19, 44112.95, 30425.60, 0.00, 0.00, 0.00, 0.00
210, 58364.85, 52144.74, 37446.10, 26589.08, 17042.20, 44048.58, 30419.74, 0.00, 0.00, 0.00, 0.00
211, 58411.99, 52162.80, 37530.75, 26600.97, 17045.73, 44407.89, 30405.95, 0.00, 0.00, 0.00, 0.00
212, 58450.28, 52180.35, 37515.10, 26589.03, 17026.80, 44432.61, 30369.31, 0.00, 0.00, 0.00, 0.00
213, 58412.44, 52166.09, 37455.13, 26565.56, 17031.16, 44119.70, 30374.07, 0.00, 0.00, 0.00, 0.00
214, 58359.15, 52140.29, 37439.64, 26579.58, 17038.98, 44013.91, 30396.34, 0.00, 0.00, 0.00, 0.00
215, 58391.54, 52155.02, 37521.40, 26600.70, 17042.94, 44333.25, 30374.37, 0.00, 0.00, 0.00, 0.00
216, 58442.12, 52174.80, 37534.93, 26578.88, 17029.86, 44460.81, 30374.66, 0.00, 0.00, 0.00, 0.00
217, 58421.56, 52170.78, 37465.52, 26583.06, 17028.30, 44182.11, 30384.27, 0.00, 0.10, 0.81, 0.56
218, 58374.35, 52155.63, 37434.90, 26586.15, 17024.00, 43992.46, 30369.45, 0.00, 0.00, 0.00, 0.00
219, 58392.97, 52165.89, 37503.21, 26603.34, 17033.06, 44245.90, 30369.11, 0.00, 0.00, 0.00, 0.00
220, 58460.34, 52197.07, 37546.10, 26590.28, 17035.92, 44482.41, 30374.97, 0.00, 0.00, 0.00, 0.00
221, 58447.89, 52202.86, 37483.98, 26590.10, 17024.34, 44247.98, 30384.36, 0.00, 0.00, 0.00, 0.00
222, 58395.52, 52181.69, 37433.43, 26595.07, 17027.63, 44018.83, 30398.17, 0.00, 0.00, 0.00, 0.00
223, 58400.25, 52178.27, 37485.15, 26605.64, 17042.87, 44187.18, 30415.00, 0.00, 0.00, 0.00, 0.00
224, 58458.66, 52197.78, 37533.09, 26606.93, 17030.71, 44520.18, 30395.64, 0.00, 0.00, 0.00, 0.00
225, 58451.51, 52195.55, 37474.91, 26574.21, 17018.77, 44311.73, 30379.95, 0.00, 0.00, 0.00, 0.00
226, 58398.09, 52171.74, 37438.01, 26577.65, 17025.61, 44046.48, 30399.69, 0.00, 0.00, 0.00, 0.00
227, 58378.35, 52160.83, 37459.71, 26600.50, 17031.83, 44125.83, 30403.94, 0.00, 0.09, 0.81, 0.56
228, 58440.27, 52188.15, 37530.57, 26607.31, 17024.83, 44483.52, 30368.73, 0.00, 0.00, 0.00, 0.00
229, 58456.11, 52196.20, 37492.73, 26593.01, 17007.58, 44349.77, 30346.47, 0.00, 0.00, 0.00, 0.00
230, 58415.14, 52183.48, 37445.90, 26573.18, 17022.06, 44076.77, 30393.37, 0.00, 0.00, 0.00, 0.00
231, 58385.97, 52169.55, 37451.42, 26601.75, 17023.80, 44094.98, 30408.74, 0.00, 0.00, 0.00, 0.00
232, 58447.55, 52200.15, 37537.81, 26641.45, 17038.98, 44471.23, 30407.16, 0.00, 0.00, 0.00, 0.00
233, 58466.55, 52206.25, 37500.32, 26591.56, 17020.12, 44415.75, 30384.22, 0.00, 0.00, 0.00, 0.00
234, 58411.12, 52180.86, 37421.38, 26555.10, 17009.77, 44091.79, 30395.18, 0.00, 0.00, 0.00, 0.00
235, 58377.39, 52169.62, 37420.30, 26587.20, 17019.15, 44034.68, 30416.95, 0.00, 0.00, 0.00, 0.00
236, 58420.15, 52189.55, 37504.15, 26610.18, 17027.67, 44389.25, 30397.81, 0.00, 0.00, 0.00, 0.00
237, 58466.42, 52208.42, 37495.59, 26585.97, 17005.27, 44448.30, 30360.53, 0.00, 0.10, 0.82, 0.55
238, 58443.02, 52203.30, 37440.87, 26577.36, 17017.19, 44152.65, 30385.72, 0.00, 0.00, 0.00, 0.00
239, 58390.09, 52182.47, 37424.73, 26575.08, 17036.07, 44006.18, 30404.85, 0.00, 0.00, 0.00, 0.00
240, 58409.64, 52195.70, 37484.77, 26590.89, 17037.42, 44301.43, 30397.68, 0.00, 0.00, 0.00, 0.00
241, 58468.56, 52222.86, 37506.09, 26573.59, 17030.31, 44472.55, 30410.64, 0.00, 0.00, 0.00, 0.00
242, 58446.12, 52212.09, 37455.00, 26560.31, 17034.42, 44196.95, 30403.20, 0.00, 0.00, 0.00, 0.00
243, 58390.15, 52181.91, 37421.98, 26559.06, 17034.40, 44009.73, 30415.52, 0.00, 0.00, 0.00, 0.00
244, 58399.77, 52188.15, 37473.05, 26600.77, 17037.93, 44238.97, 30398.80, 0.00, 0.00, 0.00, 0.00
245, 58460.83, 52211.97, 37510.00, 26570.50, 17017.39, 44482.29, 30347.01, 0.00, 0.00, 0.00, 0.00
246, 58450.70, 52208.71, 37447.84, 26541.71, 17008.25, 44246.64, 30360.37, 0.00, 0.00, 0.00, 0.00
247, 58404.79, 52194.29, 37415.79, 26553.20, 17018.46, 44010.05, 30394.44, 0.00, 0.09, 0.82, 0.56
248, 58411.43, 52204.17, 37471.78, 26581.32, 17034.40, 44160.38, 30406.04, 0.00, 0.00, 0.00, 0.00
249, 58476.99, 52229.95, 37531.71, 26587.60, 17026.69, 44490.57, 30369.85, 0.00, 0.00, 0.00, 0.00
250, 58450.68, 52211.66, 37474.55, 26599.67, 17021.77, 44304.98, 30360.57, 0.00, 0.00, 0.00, 0.00
251, 58380.88, 52171.94, 37428.89, 26579.35, 17030.55, 44021.36, 30370.95, 0.00, 0.00, 0.00, 0.00
252, 58353.45, 52160.57, 37446.91, 26575.35, 17033.64, 44108.75, 30419.38, 0.00, 0.00, 0.00, 0.00
253, 58397.66, 52175.14, 37517.13, 26580.47, 17015.11, 44482.27, 30394.88, 0.00, 0.00, 0.00, 0.00
254, 58411.99, 52174.91, 37480.45, 26548.31, 17016.49, 44353.64, 30369.96, 0.00, 0.00, 0.00, 0.00
255, 58357.23, 52144.14, 37421.82, 26556.51, 17020.90, 44065.61, 30381.00, 0.00, 0.00, 0.00, 0.00
0, 58314.54, 52116.91, 37430.61, 26583.91, 17012.36, 44057.10, 30376.67, 0.00, 0.09, 0.81, 0.56
1, 58365.86, 52142.64, 37516.87, 26603.07, 17022.08, 44434.15, 30373.65, 0.00, 0.00, 0.00, 0.00
2, 58386.35, 52146.82, 37486.38, 26572.58, 17004.71, 44408.02, 30336.05, 0.00, 0.00, 0.00, 0.00
3, 58343.50, 52128.49, 37419.70, 26558.92, 17001.43, 44096.64, 30350.03, 0.00, 0.00, 0.00, 0.00
4, 58295.47, 52108.69, 37410.85, 26576.49, 17007.13, 43991.38, 30354.36, 0.00, 0.00, 0.00, 0.00
5, 58337.29, 52134.08, 37492.03, 26578.08, 17015.18, 44350.62, 30362.12, 0.00, 0.00, 0.00, 0.00
6, 58385.95, 52149.37, 37487.03, 26551.50, 16988.29, 44445.70, 30309.95, 0.00, 0.00, 0.00, 0.00
7, 58351.30, 52130.82, 37423.41, 26534.27, 16988.42, 44138.61, 30332.43, 0.00, 0.00, 0.00, 0.00
8, 58303.25, 52111.55, 37404.21, 26545.62, 17005.23, 43981.10, 30384.87, 0.00, 0.00, 0.00, 0.00
9, 58332.35, 52132.56, 37475.25, 26580.31, 17020.05, 44273.11, 30372.71, 0.00, 0.00, 0.00, 0.00
10, 58390.67, 52157.82, 37496.64, 26558.65, 16998.39, 44461.29, 30339.65, 0.00, 0.09, 0.82, 0.55
11, 58373.68, 52156.90, 37431.59, 26542.58, 16995.73, 44196.73, 30354.99, 0.00, 0.00, 0.00, 0.00
12, 58317.91, 52136.94, 37404.30, 26542.88, 17000.69, 43982.02, 30371.71, 0.00, 0.00, 0.00, 0.00
13, 58326.45, 52146.57, 37470.98, 26572.11, 17010.26, 44187.92, 30350.14, 0.00, 0.00, 0.00, 0.00
14, 58391.36, 52170.71, 37506.81, 26571.22, 16996.06, 44466.98, 30320.16, 0.00, 0.00, 0.00, 0.00
15, 58380.72, 52163.25, 37427.61, 26538.36, 16985.45, 44230.26, 30313.50, 0.00, 0.00, 0.00, 0.00
16, 58319.77, 52134.23, 37384.14, 26528.59, 16990.19, 43969.32, 30334.15, 0.00, 0.00, 0.00, 0.00
17, 58309.13, 52131.96, 37419.99, 26552.22, 16997.74, 44113.74, 30361.04, 0.00, 0.00, 0.00, 0.00
18, 58378.93, 52164.41, 37489.71, 26549.69, 16995.33, 44459.50, 30345.38, 0.00, 0.00, 0.00, 0.00
19, 58387.31, 52168.77, 37436.49, 26530.20, 16986.63, 44288.75, 30328.70, 0.00, 0.00, 0.00, 0.00
20, 58336.17, 52146.04, 37384.54, 26544.33, 16992.38, 44009.31, 30350.85, 0.00, 0.09, 0.81, 0.54
21, 58310.29, 52136.29, 37401.75, 26558.52, 16993.83, 44054.21, 30344.82, 0.00, 0.00, 0.00, 0.00
22, 58367.46, 52160.79, 37479.25, 26556.49, 16989.85, 44427.13, 30309.21, 0.00, 0.00, 0.00, 0.00
23, 58385.86, 52165.62, 37441.85, 26524.90, 16965.67, 44340.52, 30277.38, 0.00, 0.00, 0.00, 0.00
24, 58337.63, 52142.89, 37385.19, 26506.73, 16973.18, 44035.42, 30299.96, 0.00, 0.00, 0.00, 0.00
25, 58302.89, 52128.31, 37394.38, 26525.24, 16995.21, 44007.41, 30364.93, 0.00, 0.00, 0.00, 0.00
26, 58353.77, 52148.25, 37477.66, 26548.15, 16991.30, 44373.17, 30339.74, 0.00, 0.00, 0.00, 0.00
27, 58390.98, 52159.92, 37456.96, 26522.45, 16968.86, 44390.09, 30323.49, 0.00, 0.00, 0.00, 0.00
28, 58352.11, 52145.52, 37389.84, 26513.93, 16969.24, 44084.93, 30325.68, 0.00, 0.00, 0.00, 0.00
29, 58308.12, 52130.93, 37376.18, 26533.62, 16977.60, 43976.30, 30340.62, 0.00, 0.00, 0.00, 0.00
30, 58343.37, 52146.08, 37450.86, 26553.16, 16988.38, 44304.06, 30338.22, 0.00, 0.10, 0.82, 0.55
31, 58394.18, 52165.21, 37463.89, 26527.05, 16973.65, 44400.26, 30303.29, 0.00, 0.00, 0.00, 0.00
32, 58362.17, 52156.36, 37399.59, 26514.87, 16969.89, 44121.40, 30320.23, 0.00, 0.00, 0.00, 0.00
33, 58307.38, 52134.70, 37375.82, 26524.59, 16983.99, 43965.19, 30357.76, 0.00, 0.00, 0.00, 0.00
34, 58323.14, 52143.73, 37442.03, 26561.90, 16996.62, 44241.14, 30349.51, 0.00, 0.00, 0.00, 0.00
35, 58385.19, 52168.01, 37466.35, 26553.27, 16979.37, 44452.84, 30315.96, 0.00, 0.00, 0.00, 0.00
36, 58368.58, 52159.87, 37402.07, 26515.81, 16979.41, 44177.80, 30301.23, 0.00, 0.00, 0.00, 0.00
37, 58312.95, 52133.39, 37368.20, 26510.78, 16992.18, 43962.41, 30345.69, 0.00, 0.00, 0.00, 0.00
38, 58310.85, 52127.44, 37419.72, 26530.63, 16999.26, 44153.77, 30354.07, 0.00, 0.00, 0.00, 0.00
39, 58367.09, 52144.85, 37462.35, 26517.35, 16977.85, 44440.81, 30320.25, 0.00, 0.00, 0.00, 0.00
40, 58366.84, 52148.83, 37406.36, 26503.04, 16979.08, 44227.37, 30317.39, 0.00, 0.10, 0.83, 0.56
41, 58319.03, 52129.54, 37368.11, 26512.28, 16992.53, 43979.71, 30369.63, 0.00, 0.00, 0.00, 0.00
42, 58300.75, 52122.39, 37393.91, 26525.66, 16996.11, 44087.00, 30368.42, 0.00, 0.00, 0.00, 0.00
43, 58360.80, 52151.89, 37466.66, 26530.87, 16994.19, 44447.54, 30349.60, 0.00, 0.00, 0.00, 0.00
44, 58367.18, 52154.91, 37423.05, 26495.00, 16979.41, 44296.98, 30324.07, 0.00, 0.00, 0.00, 0.00
45, 58309.39, 52121.59, 37366.35, 26487.44, 16977.09, 44004.93, 30316.54, 0.00, 0.00, 0.00, 0.00
46, 58278.42, 52107.08, 37380.05, 26515.34, 16982.16, 44018.99, 30319.36, 0.00, 0.00, 0.00, 0.00
47, 58340.84, 52135.46, 37477.59, 26518.91, 16986.68, 44395.91, 30307.13, 0.00, 0.00, 0.00, 0.00
48, 58368.27, 52150.21, 37456.23, 26514.26, 16983.62, 44351.85, 30318.82, 0.00, 0.00, 0.00, 0.00
49, 58327.90, 52140.32, 37385.26, 26527.68, 16994.21, 44071.71, 30371.95, 0.00, 0.10, 0.83, 0.56
50, 58284.63, 52119.84, 37370.71, 26526.54, 16993.85, 44005.78, 30359.59, 0.00, 0.00, 0.00, 0.00
51, 58325.98, 52136.63, 37460.79, 26550.34, 16995.10, 44364.59, 30327.11, 0.00, 0.00, 0.00, 0.00
52, 58364.25, 52152.77, 37444.33, 26502.26, 16983.08, 44394.96, 30313.97, 0.00, 0.00, 0.00, 0.00
53, 58326.47, 52135.69, 37386.69, 26510.98, 16988.46, 44109.51, 30352.06, 0.00, 0.00, 0.00, 0.00
54, 58283.18, 52121.32, 37374.42, 26524.99, 17001.85, 43995.77, 30383.48, 0.00, 0.00, 0.00, 0.00
55, 58315.27, 52129.54, 37447.62, 26534.89, 17001.72, 44304.26, 30355.43, 0.00, 0.00, 0.00, 0.00
56, 58367.20, 52146.57, 37453.59, 26515.09, 16978.18, 44430.93, 30308.14, 0.00, 0.00, 0.00, 0.00
57, 58343.77, 52136.52, 37388.95, 26488.85, 16972.46, 44125.54, 30290.05, 0.00, 0.00, 0.00, 0.00
58, 58293.32, 52112.55, 37358.55, 26495.49, 16977.00, 43948.25, 30323.40, 0.00, 0.00, 0.00, 0.00
59, 58308.68, 52132.89, 37417.78, 26537.60, 16995.57, 44229.65, 30349.46, 0.00, 0.10, 0.82, 0.56
60, 58373.57, 52174.51, 37452.70, 26536.17, 16994.39, 44467.07, 30338.76, 0.00, 0.00, 0.00, 0.00
61, 58376.59, 52185.46, 37396.90, 26518.00, 16998.12, 44215.73, 30352.28, 0.00, 0.00, 0.00, 0.00
62, 58331.57, 52171.65, 37364.80, 26520.25, 16994.84, 44001.38, 30362.83, 0.00, 0.00, 0.00, 0.00
63, 58327.32, 52168.77, 37409.40, 26543.32, 16997.79, 44169.62, 30334.83, 0.00, 0.00, 0.00, 0.00
64, 58401.48, 52200.91, 37469.64, 26542.90, 16998.08, 44488.20, 30347.25, 0.00, 0.00, 0.00, 0.00
65, 58401.60, 52194.00, 37409.69, 26528.39, 16987.06, 44278.34, 30328.77, 0.00, 0.00, 0.00, 0.00
66, 58334.61, 52160.18, 37353.59, 26504.25, 16977.60, 44000.04, 30308.49, 0.00, 0.00, 0.00, 0.00
67, 58321.40, 52157.30, 37381.53, 26541.11, 16991.24, 44098.65, 30345.13, 0.00, 0.00, 0.00, 0.00
68, 58387.63, 52185.49, 37457.57, 26541.09, 17001.68, 44467.65, 30357.27, 0.00, 0.00, 0.00, 0.00
69, 58400.99, 52196.71, 37417.13, 26508.95, 16988.20, 44329.16, 30321.17, 0.00, 0.09, 0.81, 0.56
70, 58352.25, 52178.18, 37365.68, 26515.49, 16994.46, 44030.10, 30331.85, 0.00, 0.00, 0.00, 0.00
71, 58323.70, 52167.38, 37378.13, 26553.49, 17009.34, 44041.99, 30360.35, 0.00, 0.00, 0.00, 0.00
72, 58377.59, 52193.78, 37462.04, 26565.18, 17008.40, 44436.21, 30344.59, 0.00, 0.00, 0.00, 0.00
73, 58404.84, 52203.19, 37436.91, 26515.70, 16990.88, 44393.54, 30323.38, 0.00, 0.00, 0.00, 0.00
74, 58366.30, 52187.30, 37377.68, 26525.44, 16990.25, 44086.76, 30343.61, 0.00, 0.00, 0.00, 0.00
75, 58324.44, 52175.56, 37356.34, 26540.79, 16992.60, 43993.93, 30343.07, 0.00, 0.00, 0.00, 0.00
76, 58365.10, 52190.25, 37436.67, 26539.70, 16989.74, 44345.84, 30322.55, 0.00, 0.00, 0.00, 0.00
77, 58407.07, 52204.15, 37433.16, 26517.66, 16968.97, 44419.89, 30306.68, 0.00, 0.00, 0.00, 0.00
78, 58371.63, 52186.05, 37364.83, 26494.35, 16969.51, 44088.12, 30277.63, 0.00, 0.00, 0.00, 0.00
79, 58318.58, 52161.57, 37349.38, 26503.07, 16980.37, 43961.19, 30328.92, 0.00, 0.10, 0.82, 0.56
80, 58342.77, 52175.95, 37426.30, 26541.60, 16989.85, 44296.37, 30351.86, 0.00, 0.00, 0.00, 0.00
81, 58404.79, 52206.30, 37449.86, 26523.99, 16985.52, 44454.67, 30317.35, 0.00, 0.00, 0.00, 0.00
82, 58381.39, 52195.39, 37385.19, 26502.35, 16982.07, 44170.09, 30300.63, 0.00, 0.00, 0.00, 0.00
83, 58322.56, 52168.16, 37343.57, 26505.77, 16975.79, 43973.01, 30317.57, 0.00, 0.00, 0.00, 0.00
84, 58334.68, 52177.06, 37415.70, 26531.16, 16991.24, 44202.00, 30309.34, 0.00, 0.00, 0.00, 0.00
85, 58395.18, 52201.85, 37462.24, 26514.22, 16983.82, 44458.85, 30288.04, 0.00, 0.00, 0.00, 0.00
86, 58395.36, 52206.99, 37388.39, 26512.68, 16984.98, 44223.35, 30308.92, 0.00, 0.00, 0.00, 0.00
87, 58342.36, 52184.97, 37345.29, 26512.63, 16996.09, 43988.30, 30338.22, 0.00, 0.00, 0.00, 0.00
88, 58330.03, 52180.95, 37395.68, 26544.66, 16998.14, 44133.50, 30333.48, 0.00, 0.10, 0.81, 0.56
89, 58394.40, 52208.20, 37455.58, 26535.81, 16988.40, 44471.99, 30314.91, 0.00, 0.00, 0.00, 0.00
90, 58396.25, 52206.10, 37402.60, 26493.75, 16974.21, 44281.73, 30290.77, 0.00, 0.00, 0.00, 0.00
91, 58346.16, 52188.08, 37357.88, 26486.71, 16982.72, 44005.44, 30320.25, 0.00, 0.00, 0.00, 0.00
92, 58323.43, 52185.78, 37379.58, 26520.14, 16991.71, 44069.59, 30343.52, 0.00, 0.00, 0.00, 0.00
93, 58385.35, 52213.25, 37459.42, 26529.40, 16986.90, 44442.62, 30311.49, 0.00, 0.00, 0.00, 0.00
94, 58400.50, 52211.15, 37418.32, 26493.61, 16971.21, 44324.31, 30290.81, 0.00, 0.00, 0.00, 0.00
95, 58354.17, 52187.99, 37363.91, 26495.64, 16978.70, 44029.94, 30301.83, 0.00, 0.00, 0.00, 0.00
96, 58318.02, 52174.38, 37367.96, 26516.68, 16989.67, 44020.73, 30329.44, 0.00, 0.00, 0.00, 0.00
97, 58369.16, 52195.70, 37447.69, 26535.12, 16992.31, 44395.17, 30311.63, 0.00, 0.00, 0.00, 0.00
98, 58404.66, 52213.07, 37426.23, 26506.33, 16975.88, 44375.45, 30283.93, 0.00, 0.10, 0.82, 0.55
99, 58365.68, 52201.56, 37368.23, 26495.49, 16972.37, 44058.91, 30265.74, 0.00, 0.00, 0.00, 0.00
100, 58327.28, 52188.64, 37356.11, 26511.54, 16986.95, 43973.19, 30320.14, 0.00, 0.00, 0.00, 0.00
101, 58370.98, 52205.47, 37432.33, 26538.65, 16997.58, 44341.70, 30333.33, 0.00, 0.00, 0.00, 0.00
102, 58417.46, 52220.54, 37429.96, 26505.93, 16972.30, 44420.04, 30293.94, 0.00, 0.00, 0.00, 0.00
103, 58393.10, 52214.66, 37382.42, 26508.79, 16980.64, 44125.16, 30319.54, 0.00, 0.00, 0.00, 0.00
104, 58339.68, 52193.33, 37360.22, 26523.61, 16988.40, 43968.38, 30335.67, 0.00, 0.00, 0.00, 0.00
105, 58358.12, 52193.69, 37414.20, 26518.20, 16991.59, 44246.46, 30316.09, 0.00, 0.00, 0.00, 0.00
106, 58415.10, 52211.17, 37440.13, 26497.25, 16974.70, 44427.49, 30280.89, 0.00, 0.00, 0.00, 0.00
107, 58391.88, 52200.98, 37382.44, 26484.11, 16964.62, 44154.15, 30266.43, 0.00, 0.00, 0.00, 0.00
108, 58341.05, 52186.02, 37341.98, 26489.79, 16964.06, 43949.61, 30285.34, 0.00, 0.10, 0.82, 0.55
109, 58349.41, 52194.92, 37412.75, 26522.54, 16994.99, 44185.98, 30342.78, 0.00, 0.00, 0.00, 0.00
110, 58416.55, 52220.07, 37461.28, 26520.05, 16989.96, 44465.31, 30322.06, 0.00, 0.00, 0.00, 0.00
111, 58411.77, 52218.70, 37395.76, 26513.55, 16973.94, 44226.77, 30294.64, 0.00, 0.00, 0.00, 0.00
112, 58358.46, 52194.34, 37345.83, 26496.58, 16978.14, 43968.41, 30309.41, 0.00, 0.00, 0.00, 0.00
113, 58348.54, 52190.90, 37376.61, 26517.28, 16994.37, 44103.63, 30327.76, 0.00, 0.00, 0.00, 0.00
114, 58405.31, 52212.09, 37441.36, 26506.24, 16987.75, 44443.85, 30281.54, 0.00, 0.00, 0.00, 0.00
115, 58412.53, 52216.20, 37390.82, 26482.68, 16966.87, 44287.07, 30278.66, 0.00, 0.00, 0.00, 0.00
116, 58363.33, 52197.89, 37350.97, 26490.21, 16976.62, 44006.65, 30310.57, 0.00, 0.00, 0.00, 0.00
117, 58331.61, 52182.27, 37366.39, 26507.18, 16982.99, 44042.52, 30324.59, 0.00, 0.00, 0.00, 0.00
118, 58385.70, 52204.15, 37431.50, 26517.10, 16983.95, 44421.25, 30326.24, 0.00, 0.09, 0.83, 0.55
119, 58417.45, 52221.23, 37397.62, 26491.96, 16977.36, 44346.26, 30300.38, 0.00, 0.00, 0.00, 0.00
120, 58379.89, 52210.05, 37352.69, 26513.28, 16983.88, 44052.61, 30318.67, 0.00, 0.00, 0.00, 0.00
121, 58338.81, 52192.57, 37355.24, 26509.86, 16988.96, 43999.03, 30319.78, 0.00, 0.00, 0.00, 0.00
122, 58381.52, 52207.62, 37422.41, 26506.66, 16981.02, 44361.50, 30277.87, 0.00, 0.00, 0.00, 0.00
123, 58422.52, 52221.96, 37395.72, 26485.41, 16961.51, 44380.82, 30261.27, 0.00, 0.00, 0.00, 0.00
124, 58392.07, 52212.96, 37347.51, 26484.49, 16972.84, 44083.79, 30303.18, 0.00, 0.00, 0.00, 0.00
125, 58349.36, 52194.27, 37338.90, 26508.56, 16981.47, 43975.25, 30324.37, 0.00, 0.00, 0.00, 0.00
126, 58382.35, 52211.26, 37421.85, 26519.00, 16991.84, 44312.73, 30325.13, 0.00, 0.00, 0.00, 0.00
127, 58426.99, 52228.92, 37425.85, 26493.83, 16970.03, 44418.59, 30264.73, 0.00, 0.00, 0.00, 0.00
128, 58395.56, 52213.96, 37355.44, 26480.63, 16970.12, 44128.11, 30283.46, 0.00, 0.09, 0.82, 0.56
129, 58340.64, 52188.21, 37325.22, 26491.00, 16969.58, 43975.58, 30326.76, 0.00, 0.00, 0.00, 0.00
130, 58362.10, 52199.88, 37398.16, 26515.94, 16988.15, 44234.50, 30322.46, 0.00, 0.00, 0.00, 0.00
131, 58432.24, 52230.28, 37438.25, 26514.24, 16987.75, 44450.78, 30307.40, 0.00, 0.00, 0.00, 0.00
132, 58415.79, 52218.41, 37377.28, 26494.26, 16984.04, 44205.91, 30320.52, 0.00, 0.00, 0.00, 0.00
133, 58364.29, 52200.04, 37339.17, 26495.89, 16992.85, 43982.22, 30327.47, 0.00, 0.00, 0.00, 0.00
134, 58362.82, 52202.81, 37382.49, 26529.13, 16996.33, 44167.56, 30322.44, 0.00, 0.00, 0.00, 0.00
135, 58420.13, 52224.47, 37431.32, 26500.52, 16983.21, 44459.68, 30291.98, 0.00, 0.00, 0.00, 0.00
136, 58414.00, 52216.87, 37369.70, 26481.34, 16976.89, 44241.10, 30281.88, 0.00, 0.00, 0.00, 0.00
137, 58366.88, 52196.11, 37334.41, 26502.26, 16990.97, 43990.51, 30311.58, 0.00, 0.09, 0.80, 0.56
138, 58353.54, 52193.87, 37367.45, 26517.30, 17000.13, 44102.05, 30323.63, 0.00, 0.00, 0.00, 0.00
139, 58413.62, 52220.67, 37432.00, 26502.35, 16991.19, 44458.24, 30292.94, 0.00, 0.00, 0.00, 0.00
140, 58417.60, 52220.22, 37383.80, 26472.56, 16980.64, 44291.03, 30269.25, 0.00, 0.00, 0.00, 0.00
141, 58368.05, 52205.71, 37332.80, 26482.97, 16991.19, 44027.17, 30332.84, 0.00, 0.00, 0.00, 0.00
142, 58341.65, 52202.25, 37354.66, 26520.54, 17000.56, 44062.98, 30351.59, 0.00, 0.00, 0.00, 0.00
143, 58404.91, 52233.75, 37428.17, 26528.30, 16994.84, 44436.03, 30304.74, 0.00, 0.00, 0.00, 0.00
144, 58435.59, 52247.47, 37392.43, 26482.99, 16976.44, 44366.63, 30277.63, 0.00, 0.00, 0.00, 0.00
145, 58389.19, 52226.95, 37340.18, 26481.12, 16980.87, 44062.84, 30308.23, 0.00, 0.00, 0.00, 0.00
146, 58342.07, 52207.68, 37334.95, 26493.77, 16982.25, 43993.13, 30305.39, 0.00, 0.00, 0.00, 0.00
147, 58386.87, 52230.95, 37409.02, 26500.92, 16982.16, 44351.98, 30270.05, 0.00, 0.10, 0.81, 0.56
148, 58429.67, 52248.95, 37390.29, 26483.20, 16953.66, 44393.94, 30251.68, 0.00, 0.00, 0.00, 0.00
149, 58394.87, 52229.99, 37342.97, 26475.66, 16962.56, 44094.60, 30284.18, 0.00, 0.00, 0.00, 0.00
150, 58346.63, 52206.88, 37351.73, 26482.77, 16986.90, 43980.81, 30321.71, 0.00, 0.00, 0.00, 0.00
151, 58376.92, 52218.79, 37416.80, 26513.97, 16994.77, 44321.61, 30336.05, 0.00, 0.00, 0.00, 0.00
152, 58431.84, 52244.70, 37405.82, 26488.92, 16968.24, 44452.79, 30289.74, 0.00, 0.00, 0.00, 0.00
153, 58411.61, 52240.56, 37347.53, 26479.87, 16971.34, 44159.85, 30303.02, 0.00, 0.00, 0.00, 0.00
154, 58351.11, 52210.16, 37317.04, 26490.68, 16975.90, 43965.23, 30323.40, 0.00, 0.00, 0.00, 0.00
155, 58361.01, 52214.43, 37374.30, 26500.09, 16978.54, 44207.19, 30308.65, 0.00, 0.00, 0.00, 0.00
156, 58427.82, 52246.42, 37417.40, 26487.96, 16969.13, 44450.49, 30278.97, 0.00, 0.00, 0.00, 0.00
157, 58415.63, 52239.47, 37355.20, 26470.19, 16966.05, 44200.77, 30306.73, 0.00, 0.10, 0.80, 0.56
158, 58362.84, 52220.67, 37318.45, 26483.06, 16974.29, 43974.46, 30331.74, 0.00, 0.00, 0.00, 0.00
159, 58360.20, 52222.93, 37360.74, 26520.93, 16984.35, 44138.93, 30315.71, 0.00, 0.00, 0.00, 0.00
160, 58423.61, 52247.16, 37413.80, 26508.86, 16974.58, 44460.05, 30288.00, 0.00, 0.00, 0.00, 0.00
161, 58427.39, 52249.48, 37358.39, 26485.65, 16964.68, 44259.47, 30291.48, 0.00, 0.00, 0.00, 0.00
162, 58373.72, 52227.78, 37318.58, 26472.38, 16970.58, 43993.71, 30310.60, 0.00, 0.00, 0.00, 0.00
163, 58347.37, 52213.96, 37340.31, 26488.89, 16970.07, 44071.56, 30294.23, 0.00, 0.00, 0.00, 0.00
164, 58413.91, 52241.03, 37415.81, 26493.39, 16968.13, 44427.22, 30271.97, 0.00, 0.00, 0.00, 0.00
165, 58439.08, 52253.41, 37384.12, 26470.16, 16965.38, 44305.36, 30282.48, 0.00, 0.00, 0.00, 0.00
166, 58394.64, 52237.57, 37327.08, 26478.08, 16970.70, 44012.68, 30298.82, 0.00, 0.00, 0.00, 0.00
167, 58360.02, 52228.94, 37329.76, 26517.10, 16981.74, 44013.80, 30317.30, 0.00, 0.11, 0.81, 0.55
168, 58404.57, 52243.36, 37407.30, 26497.93, 16975.68, 44399.64, 30311.56, 0.00, 0.00, 0.00, 0.00
169, 58435.41, 52254.27, 37379.58, 26465.80, 16954.04, 44355.02, 30269.31, 0.00, 0.00, 0.00, 0.00
170, 58399.96, 52248.50, 37340.78, 26466.34, 16971.54, 44053.12, 30299.15, 0.00, 0.00, 0.00, 0.00
171, 58350.10, 52223.60, 37330.30, 26480.69, 16968.28, 43985.53, 30328.21, 0.00, 0.00, 0.00, 0.00
172, 58393.37, 52242.64, 37402.96, 26509.53, 16970.05, 44364.03, 30307.76, 0.00, 0.00, 0.00, 0.00
173, 58436.76, 52261.08, 37399.61, 26479.26, 16949.53, 44413.07, 30281.43, 0.00, 0.00, 0.00, 0.00
174, 58409.33, 52252.25, 37346.84, 26494.68, 16959.14, 44105.38, 30311.07, 0.00, 0.00, 0.00, 0.00
175, 58369.37, 52238.62, 37320.75, 26497.79, 16967.86, 43966.35, 30327.18, 0.00, 0.00, 0.00, 0.00
176, 58399.52, 52252.90, 37380.83, 26498.75, 16968.68, 44284.26, 30307.27, 0.00, 0.00, 0.00, 0.00
177, 58462.30, 52287.30, 37396.21, 26495.42, 16952.30, 44449.75, 30262.50, 0.00, 0.11, 0.82, 0.55
178, 58445.47, 52288.53, 37335.10, 26490.75, 16947.94, 44171.54, 30292.40, 0.00, 0.00, 0.00, 0.00
179, 58392.05, 52262.98, 37309.13, 26497.05, 16954.78, 43972.14, 30311.38, 0.00, 0.00, 0.00, 0.00
180, 58395.96, 52265.11, 37370.06, 26522.85, 16964.77, 44208.53, 30299.42, 0.00, 0.00, 0.00, 0.00
181, 58452.45, 52284.08, 37414.02, 26514.55, 16955.92, 44455.74, 30272.58, 0.00, 0.00, 0.00, 0.00
182, 58441.76, 52277.40, 37352.18, 26469.14, 16949.24, 44207.82, 30274.30, 0.00, 0.00, 0.00, 0.00
183, 58380.39, 52248.27, 37295.54, 26459.57, 16946.67, 43956.00, 30281.94, 0.00, 0.00, 0.00, 0.00
184, 58363.58, 52236.52, 37337.36, 26484.94, 16964.39, 44100.84, 30286.54, 0.00, 0.00, 0.00, 0.00
185, 58420.71, 52255.65, 37401.57, 26478.93, 16951.00, 44440.16, 30267.14, 0.00, 0.00, 0.00, 0.00
186, 58422.07, 52254.24, 37353.21, 26445.53, 16939.04, 44236.78, 30262.21, 0.00, 0.11, 0.82, 0.54
187, 58372.88, 52236.67, 37312.30, 26461.85, 16953.35, 43988.32, 30318.15, 0.00, 0.00, 0.00, 0.00
188, 58347.42, 52225.79, 37329.71, 26476.58, 16958.02, 44059.40, 30319.56, 0.00, 0.00, 0.00, 0.00
189, 58407.41, 52251.61, 37404.73, 26487.33, 16957.44, 44437.39, 30275.66, 0.00, 0.00, 0.00, 0.00
190, 58426.36, 52258.76, 37363.93, 26458.54, 16941.57, 44315.62, 30250.45, 0.00, 0.00, 0.00, 0.00
191, 58375.73, 52235.67, 37308.99, 26449.82, 16952.08, 44016.42, 30293.18, 0.00, 0.00, 0.00, 0.00
192, 58339.08, 52223.11, 37313.31, 26471.06, 16957.17, 44002.36, 30310.95, 0.00, 0.00, 0.00, 0.00
193, 58388.16, 52242.60, 37387.67, 26480.09, 16943.63, 44381.36, 30268.37, 0.00, 0.00, 0.00, 0.00
194, 58416.30, 52247.34, 37355.38, 26445.76, 16919.11, 44352.23, 30237.33, 0.00, 0.00, 0.00, 0.00
195, 58381.17, 52234.21, 37314.40, 26451.12, 16943.34, 44049.21, 30301.77, 0.00, 0.00, 0.00, 0.00
196, 58333.78, 52214.37, 37304.14, 26462.47, 16946.49, 43950.66, 30292.29, 0.00, 0.11, 0.84, 0.55
197, 58372.09, 52229.83, 37373.64, 26464.71, 16954.18, 44295.48, 30266.96, 0.00, 0.00, 0.00, 0.00
198, 58429.83, 52258.36, 37367.42, 26457.87, 16929.86, 44397.18, 30244.21, 0.00, 0.00, 0.00, 0.00
199, 58393.95, 52241.43, 37303.85, 26450.29, 16923.49, 44093.31, 30266.00, 0.00, 0.00, 0.00, 0.00
200, 58327.41, 52206.10, 37280.52, 26430.33, 16931.54, 43926.96, 30288.91, 0.00, 0.00, 0.00, 0.00
201, 58340.15, 52203.04, 37345.02, 26437.35, 16938.73, 44202.56, 30248.08, 0.00, 0.00, 0.00, 0.00
202, 58394.89, 52214.52, 37367.40, 26420.41, 16929.08, 44410.97, 30242.78, 0.00, 0.00, 0.00, 0.00
203, 58372.99, 52203.66, 37300.95, 26419.40, 16924.92, 44135.66, 30235.90, 0.00, 0.00, 0.00, 0.00
