%OpenBCI Raw EEG Data
%
%Sample Rate = 250.0 Hz
%First Column = SampleIndex
%Other Columns = EEG data in microvolts followed by Accel Data (in G) interleaved with Aux Data
0, 32203.23, 26312.56, -12304.61, 6547.68, -438.61, 36226.34, -2628.79, -187500.02, 0.02, 0.46, 0.19
1, 32151.87, 26330.87, -12286.55, 6560.04, -434.67, 35936.44, -2606.44, -187500.02, 0.00, 0.00, 0.00
2, 32052.71, 26356.91, -12238.97, 6602.08, -392.23, 35578.75, -2519.42, -187500.02, 0.00, 0.00, 0.00
3, 32075.20, 26334.87, -12257.63, 6595.19, -392.14, 35734.18, -2554.80, -187500.02, 0.00, 0.00, 0.00
4, 32195.03, 26290.63, -12317.31, 6540.41, -444.55, 36192.97, -2626.93, -187500.02, 0.00, 0.00, 0.00
5, 32182.46, 26320.41, -12291.38, 6558.72, -442.54, 36007.52, -2576.73, -187500.02, 0.00, 0.00, 0.00
6, 32083.60, 26352.59, -12243.66, 6597.77, -406.11, 35598.48, -2542.00, -187500.02, 0.00, 0.00, 0.00
7, 32070.62, 26333.71, -12252.82, 6599.04, -405.10, 35629.68, -2564.15, -187500.02, 0.03, 0.94, 0.38
8, 32197.22, 26282.52, -12312.97, 6549.58, -441.96, 36134.72, -2645.80, -187500.02, 0.00, 0.00, 0.00
9, 32207.66, 26298.82, -12297.79, 6553.04, -446.68, 36059.78, -2579.73, -187500.02, 0.00, 0.00, 0.00
10, 32102.22, 26335.14, -12252.76, 6596.94, -413.69, 35666.50, -2515.87, -187500.02, 0.00, 0.00, 0.00
11, 32054.41, 26325.12, -12253.09, 6605.68, -406.27, 35580.87, -2551.30, -187500.02, 0.00, 0.00, 0.00
12, 32176.01, 26277.36, -12313.96, 6556.19, -445.56, 36081.48, -2643.47, -187500.02, 0.00, 0.00, 0.00
13, 32223.19, 26289.16, -12311.70, 6545.55, -454.50, 36135.44, -2598.46, -187500.02, 0.00, 0.00, 0.00
14, 32146.81, 26339.92, -12247.48, 6602.17, -403.49, 35715.20, -2509.21, -187500.02, 0.00, 0.00, 0.00
15, 32088.77, 26343.85, -12232.71, 6628.79, -384.76, 35541.06, -2516.56, -187500.02, 0.00, 0.00, 0.00
16, 32183.40, 26278.68, -12311.03, 6577.36, -435.95, 35992.34, -2591.39, -187500.02, 0.03, 0.92, 0.37
17, 32243.02, 26263.05, -12341.22, 6538.94, -474.06, 36169.48, -2624.99, -187500.02, 0.00, 0.00, 0.00
18, 32177.75, 26316.81, -12257.45, 6594.08, -421.26, 35793.37, -2562.40, -187500.02, 0.00, 0.00, 0.00
19, 32089.53, 26325.30, -12238.25, 6622.51, -399.36, 35541.82, -2524.07, -187500.02, 0.00, 0.00, 0.00
20, 32150.05, 26271.64, -12298.67, 6588.69, -426.69, 35897.26, -2570.50, -187500.02, 0.00, 0.00, 0.00
21, 32233.07, 26243.14, -12338.52, 6541.42, -474.39, 36195.48, -2627.89, -187500.02, 0.00, 0.00, 0.00
22, 32176.12, 26280.69, -12291.31, 6570.88, -449.72, 35843.82, -2593.88, -187500.02, 0.00, 0.00, 0.00
23, 32086.44, 26301.19, -12252.24, 6601.95, -409.42, 35520.41, -2551.97, -187500.02, 0.00, 0.00, 0.00
24, 32132.71, 26265.00, -12286.26, 6574.05, -420.70, 35764.04, -2601.79, -187500.02, 0.00, 0.00, 0.00
25, 32262.87, 26250.13, -12320.93, 6545.66, -453.79, 36180.79, -2626.20, -187500.02, 0.00, 0.00, 0.00
26, 32221.98, 26280.96, -12287.40, 6566.63, -437.07, 35919.05, -2556.08, -187500.02, 0.03, 0.92, 0.38
27, 32112.55, 26301.50, -12254.75, 6593.38, -412.14, 35548.28, -2533.99, -187500.02, 0.00, 0.00, 0.00
28, 32123.57, 26280.93, -12268.40, 6589.72, -423.50, 35674.61, -2555.68, -187500.02, 0.00, 0.00, 0.00
29, 32245.54, 26239.27, -12324.17, 6537.39, -478.71, 36161.66, -2610.55, -187500.02, 0.00, 0.00, 0.00
30, 32242.48, 26281.36, -12299.07, 6556.01, -466.01, 35997.21, -2607.42, -187500.02, 0.00, 0.00, 0.00
31, 32127.86, 26308.43, -12262.26, 6588.42, -438.45, 35587.57, -2542.26, -187500.02, 0.00, 0.00, 0.00
32, 32116.97, 26307.31, -12264.69, 6609.43, -421.60, 35611.45, -2523.82, -187500.02, 0.00, 0.00, 0.00
33, 32244.98, 26270.47, -12318.36, 6565.58, -458.14, 36123.61, -2609.28, -187500.02, 0.00, 0.00, 0.00
34, 32249.56, 26282.37, -12301.75, 6564.42, -460.20, 36060.89, -2576.64, -187500.02, 0.00, 0.00, 0.00
35, 32148.80, 26318.44, -12259.95, 6608.99, -426.92, 35654.52, -2540.30, -187500.02, 0.00, 0.00, 0.00
36, 32081.81, 26293.32, -12263.60, 6603.02, -430.76, 35543.79, -2592.11, -187500.02, 0.03, 0.92, 0.38
37, 32197.08, 26243.54, -12286.55, 6556.33, -461.16, 36031.26, -2635.29, -187500.02, 0.00, 0.00, 0.00
38, 32249.79, 26256.17, -12303.65, 6545.46, -470.82, 36117.71, -2589.65, -187500.02, 0.00, 0.00, 0.00
39, 32161.99, 26301.54, -12266.39, 6585.34, -435.72, 35706.22, -2561.71, -187500.02, 0.00, 0.00, 0.00
40, 32089.37, 26301.65, -12251.91, 6601.77, -405.73, 35514.21, -2496.22, -187500.02, 0.00, 0.00, 0.00
41, 32187.94, 26254.51, -12300.03, 6566.29, -429.18, 35949.52, -2560.12, -187500.02, 0.00, 0.00, 0.00
42, 32260.09, 26241.17, -12328.44, 6529.28, -475.51, 36150.10, -2630.35, -187500.02, 0.00, 0.00, 0.00
43, 32188.16, 26285.49, -12279.56, 6571.28, -452.53, 35768.58, -2579.86, -187500.02, 0.00, 0.00, 0.00
44, 32091.31, 26295.93, -12254.83, 6597.61, -431.57, 35506.95, -2529.90, -187500.02, 0.00, 0.00, 0.00
45, 32152.02, 26253.71, -12304.55, 6572.11, -453.23, 35841.65, -2571.17, -187500.02, 0.00, 0.00, 0.00
46, 32248.00, 26231.31, -12344.71, 6527.22, -493.37, 36166.77, -2628.74, -187500.02, 0.03, 0.91, 0.38
47, 32199.68, 26281.11, -12294.11, 6564.68, -461.90, 35844.24, -2576.66, -187500.02, 0.00, 0.00, 0.00
48, 32095.56, 26304.45, -12252.60, 6604.78, -430.99, 35509.86, -2539.92, -187500.02, 0.00, 0.00, 0.00
49, 32116.77, 26263.63, -12294.87, 6591.37, -452.15, 35737.40, -2571.10, -187500.02, 0.00, 0.00, 0.00
50, 32229.83, 26229.12, -12344.02, 6534.89, -501.04, 36167.38, -2640.66, -187500.02, 0.00, 0.00, 0.00
51, 32212.21, 26279.15, -12286.44, 6562.81, -477.30, 35929.58, -2566.54, -187500.02, 0.00, 0.00, 0.00
52, 32115.30, 26319.16, -12247.79, 6613.72, -440.46, 35553.42, -2545.66, -187500.02, 0.00, 0.00, 0.00
53, 32115.07, 26292.87, -12271.62, 6611.60, -444.62, 35660.13, -2557.08, -187500.02, 0.00, 0.00, 0.00
54, 32246.71, 26254.47, -12319.95, 6568.53, -482.15, 36159.11, -2591.68, -187500.02, 0.00, 0.00, 0.00
55, 32248.38, 26284.55, -12296.16, 6580.06, -490.02, 36007.00, -2602.26, -187500.02, 0.00, 0.00, 0.00
56, 32147.78, 26316.16, -12248.29, 6616.14, -460.78, 35581.61, -2580.82, -187500.02, 0.03, 0.92, 0.38
57, 32111.72, 26287.13, -12262.19, 6608.43, -458.26, 35565.04, -2556.95, -187500.02, 0.00, 0.00, 0.00
58, 32245.70, 26244.39, -12314.04, 6575.01, -475.94, 36091.07, -2603.82, -187500.02, 0.00, 0.00, 0.00
59, 32268.09, 26261.24, -12308.01, 6571.79, -487.63, 36069.97, -2612.23, -187500.02, 0.00, 0.00, 0.00
60, 32161.70, 26294.01, -12264.16, 6602.46, -459.53, 35640.44, -2568.26, -187500.02, 0.00, 0.00, 0.00
61, 32086.71, 26271.66, -12261.70, 6604.67, -444.62, 35515.94, -2554.16, -187500.02, 0.00, 0.00, 0.00
62, 32180.63, 26203.15, -12327.28, 6548.93, -485.90, 35991.16, -2653.40, -187500.02, 0.00, 0.00, 0.00
63, 32221.49, 26195.26, -12341.92, 6521.70, -509.98, 36094.40, -2641.91, -187500.02, 0.00, 0.00, 0.00
64, 32124.73, 26234.67, -12282.37, 6560.39, -470.95, 35684.25, -2559.81, -187500.02, 0.00, 0.00, 0.00
65, 32030.79, 26222.84, -12271.13, 6568.40, -460.94, 35454.43, -2562.96, -187500.02, 0.03, 0.91, 0.38
66, 32108.23, 26167.34, -12320.62, 6536.03, -484.88, 35874.06, -2596.42, -187500.02, 0.00, 0.00, 0.00
67, 32196.37, 26164.46, -12331.84, 6517.68, -510.00, 36126.77, -2621.66, -187500.02, 0.00, 0.00, 0.00
68, 32123.50, 26206.82, -12281.14, 6551.32, -473.57, 35757.20, -2560.57, -187500.02, 0.00, 0.00, 0.00
69, 32020.48, 26212.63, -12256.91, 6572.62, -448.76, 35468.82, -2545.06, -187500.02, 0.00, 0.00, 0.00
70, 32055.71, 26141.55, -12300.81, 6523.51, -480.88, 35751.77, -2621.81, -187500.02, 0.00, 0.00, 0.00
71, 32157.10, 26118.30, -12343.24, 6484.60, -512.55, 36117.89, -2646.45, -187500.02, 0.00, 0.00, 0.00
72, 32104.28, 26164.93, -12302.78, 6513.32, -484.56, 35816.81, -2605.16, -187500.02, 0.00, 0.00, 0.00
73, 32000.70, 26191.30, -12264.96, 6548.37, -462.50, 35463.25, -2569.91, -187500.02, 0.00, 0.00, 0.00
74, 32037.31, 26178.65, -12288.65, 6549.19, -468.18, 35671.57, -2579.15, -187500.02, 0.00, 0.00, 0.00
75, 32166.95, 26160.35, -12332.04, 6508.11, -500.37, 36124.91, -2613.46, -187500.02, 0.03, 0.92, 0.38
76, 32138.83, 26194.16, -12306.29, 6517.41, -498.27, 35900.34, -2585.18, -187500.02, 0.00, 0.00, 0.00
77, 32034.79, 26230.29, -12259.42, 6570.45, -462.95, 35520.47, -2522.17, -187500.02, 0.00, 0.00, 0.00
78, 32028.01, 26204.92, -12280.34, 6560.68, -465.30, 35578.21, -2573.45, -187500.02, 0.00, 0.00, 0.00
79, 32150.10, 26158.54, -12342.21, 6500.13, -516.24, 36069.63, -2673.65, -187500.02, 0.00, 0.00, 0.00
80, 32163.62, 26201.09, -12308.23, 6519.15, -504.66, 35967.44, -2611.00, -187500.02, 0.00, 0.00, 0.00
81, 32066.57, 26250.96, -12250.19, 6574.45, -450.37, 35562.43, -2556.57, -187500.02, 0.00, 0.00, 0.00
82, 32015.72, 26234.55, -12267.78, 6572.02, -454.01, 35515.56, -2541.97, -187500.02, 0.00, 0.00, 0.00
83, 32141.23, 26193.88, -12331.59, 6531.89, -491.31, 36027.19, -2606.03, -187500.02, 0.00, 0.00, 0.00
84, 32179.80, 26213.90, -12300.21, 6527.56, -507.59, 36045.96, -2618.62, -187500.02, 0.00, 0.00, 0.00
85, 32075.96, 26249.46, -12256.71, 6560.64, -482.42, 35619.47, -2561.71, -187500.02, 0.03, 0.91, 0.38
86, 32025.36, 26258.09, -12263.82, 6585.20, -464.49, 35477.49, -2554.04, -187500.02, 0.00, 0.00, 0.00
87, 32121.98, 26204.02, -12333.45, 6536.97, -504.75, 35933.54, -2645.24, -187500.02, 0.00, 0.00, 0.00
88, 32182.51, 26208.25, -12336.46, 6518.17, -525.11, 36067.40, -2596.98, -187500.02, 0.00, 0.00, 0.00
89, 32113.15, 26269.63, -12275.35, 6574.79, -478.35, 35679.80, -2542.91, -187500.02, 0.00, 0.00, 0.00
90, 32024.82, 26279.55, -12264.47, 6591.17, -470.53, 35433.01, -2553.51, -187500.02, 0.00, 0.00, 0.00
91, 32099.07, 26230.64, -12317.53, 6560.30, -503.29, 35825.66, -2615.67, -187500.02, 0.00, 0.00, 0.00
92, 32189.10, 26219.11, -12341.45, 6531.36, -524.13, 36112.44, -2630.06, -187500.02, 0.00, 0.00, 0.00
93, 32126.85, 26266.94, -12291.02, 6577.72, -484.61, 35764.76, -2567.19, -187500.02, 0.00, 0.00, 0.00
94, 32032.20, 26281.25, -12262.35, 6605.41, -461.41, 35461.78, -2540.92, -187500.02, 0.00, 0.00, 0.00
95, 32081.39, 26234.87, -12307.18, 6573.85, -484.23, 35747.48, -2606.53, -187500.02, 0.03, 0.92, 0.39
96, 32207.59, 26224.07, -12338.01, 6541.73, -516.68, 36125.38, -2644.10, -187500.02, 0.00, 0.00, 0.00
97, 32176.30, 26274.50, -12292.21, 6572.64, -497.97, 35836.24, -2595.13, -187500.02, 0.00, 0.00, 0.00
98, 32074.30, 26295.80, -12255.21, 6607.18, -471.22, 35475.10, -2561.22, -187500.02, 0.00, 0.00, 0.00
99, 32099.83, 26263.88, -12280.07, 6604.67, -477.79, 35648.04, -2578.41, -187500.02, 0.00, 0.00, 0.00
100, 32237.38, 26236.54, -12322.49, 6571.77, -509.73, 36121.16, -2574.92, -187500.02, 0.00, 0.00, 0.00
101, 32222.23, 26268.08, -12299.05, 6578.34, -505.24, 35912.61, -2561.20, -187500.02, 0.00, 0.00, 0.00
102, 32126.12, 26301.45, -12254.81, 6620.74, -469.39, 35505.68, -2538.22, -187500.02, 0.00, 0.00, 0.00
103, 32119.12, 26283.39, -12261.29, 6627.43, -476.36, 35553.02, -2567.48, -187500.02, 0.00, 0.00, 0.00
104, 32240.45, 26228.16, -12327.28, 6572.44, -526.03, 36055.78, -2629.03, -187500.02, 0.04, 0.92, 0.39
105, 32254.39, 26249.20, -12321.89, 6554.63, -537.65, 35960.51, -2638.58, -187500.02, 0.00, 0.00, 0.00
106, 32163.58, 26294.17, -12268.85, 6601.01, -505.84, 35544.52, -2583.77, -187500.02, 0.00, 0.00, 0.00
107, 32130.61, 26291.37, -12258.95, 6618.22, -484.18, 35478.23, -2548.57, -187500.02, 0.00, 0.00, 0.00
108, 32250.15, 26239.40, -12322.00, 6569.38, -524.17, 35980.50, -2619.51, -187500.02, 0.00, 0.00, 0.00
109, 32295.34, 26251.61, -12319.12, 6557.31, -541.78, 36015.81, -2610.39, -187500.02, 0.00, 0.00, 0.00
110, 32214.54, 26301.36, -12263.89, 6609.05, -507.59, 35606.98, -2561.53, -187500.02, 0.00, 0.00, 0.00
111, 32155.20, 26303.46, -12257.94, 6628.57, -498.31, 35447.77, -2554.49, -187500.02, 0.00, 0.00, 0.00
112, 32260.05, 26253.98, -12317.06, 6583.80, -524.86, 35892.39, -2628.65, -187500.02, 0.00, 0.00, 0.00
113, 32339.46, 26256.66, -12328.35, 6566.18, -535.93, 36070.04, -2613.34, -187500.02, 0.00, 0.00, 0.00
114, 32263.74, 26300.22, -12281.86, 6609.10, -507.59, 35680.69, -2556.97, -187500.02, 0.04, 0.92, 0.39
115, 32171.54, 26297.27, -12271.60, 6621.37, -498.51, 35414.80, -2575.59, -187500.02, 0.00, 0.00, 0.00
116, 32253.03, 26252.48, -12316.79, 6593.00, -511.56, 35780.65, -2609.28, -187500.02, 0.00, 0.00, 0.00
117, 32347.91, 26234.26, -12345.99, 6558.90, -550.08, 36084.45, -2630.33, -187500.02, 0.00, 0.00, 0.00
118, 32293.15, 26277.45, -12289.55, 6599.13, -523.68, 35753.65, -2588.94, -187500.02, 0.00, 0.00, 0.00
119, 32199.05, 26304.45, -12263.04, 6640.64, -494.02, 35436.36, -2555.07, -187500.02, 0.00, 0.00, 0.00
120, 32234.59, 26261.80, -12307.23, 6605.01, -512.12, 35684.74, -2596.02, -187500.02, 0.00, 0.00, 0.00
121, 32355.36, 26235.43, -12351.22, 6559.10, -547.64, 36088.03, -2641.64, -187500.02, 0.00, 0.00, 0.00
122, 32317.13, 26266.41, -12319.86, 6575.88, -543.91, 35817.13, -2619.20, -187500.02, 0.00, 0.00, 0.00
123, 32214.58, 26292.87, -12279.09, 6608.27, -518.54, 35442.18, -2589.92, -187500.02, 0.00, 0.00, 0.00
124, 32232.96, 26273.94, -12295.81, 6602.84, -516.53, 35569.36, -2595.06, -187500.02, 0.04, 0.91, 0.39
125, 32364.97, 26245.28, -12348.18, 6555.83, -559.93, 36042.32, -2652.12, -187500.02, 0.00, 0.00, 0.00
126, 32348.99, 26273.38, -12320.55, 6574.39, -547.39, 35877.59, -2571.14, -187500.02, 0.00, 0.00, 0.00
127, 32225.63, 26289.45, -12282.04, 6613.08, -526.07, 35480.67, -2541.73, -187500.02, 0.00, 0.00, 0.00
128, 32197.60, 26260.79, -12296.34, 6603.42, -532.62, 35484.09, -2584.71, -187500.02, 0.00, 0.00, 0.00
129, 32336.69, 26228.63, -12346.16, 6566.85, -554.82, 36005.11, -2628.27, -187500.02, 0.00, 0.00, 0.00
130, 32343.98, 26240.79, -12337.74, 6565.40, -565.88, 35950.01, -2616.14, -187500.02, 0.00, 0.00, 0.00
131, 32238.79, 26274.47, -12290.75, 6599.64, -531.14, 35523.49, -2559.59, -187500.02, 0.00, 0.00, 0.00
132, 32189.89, 26267.39, -12283.00, 6614.02, -516.66, 35432.77, -2538.40, -187500.02, 0.00, 0.00, 0.00
133, 32305.22, 26221.81, -12342.19, 6572.75, -554.97, 35943.41, -2625.99, -187500.02, 0.00, 0.00, 0.00
134, 32354.39, 26235.31, -12347.82, 6555.70, -573.55, 36006.63, -2632.39, -187500.02, 0.04, 0.92, 0.38
135, 32271.13, 26283.15, -12295.29, 6592.89, -536.22, 35587.46, -2556.26, -187500.02, 0.00, 0.00, 0.00
136, 32190.31, 26270.00, -12296.52, 6591.42, -541.56, 35375.05, -2605.88, -187500.02, 0.00, 0.00, 0.00
137, 32295.41, 26228.54, -12344.58, 6566.34, -567.13, 35824.68, -2638.71, -187500.02, 0.00, 0.00, 0.00
138, 32372.90, 26224.92, -12363.64, 6544.48, -584.97, 36041.98, -2636.14, -187500.02, 0.00, 0.00, 0.00
139, 32303.16, 26274.77, -12311.45, 6582.43, -558.50, 35652.39, -2617.19, -187500.02, 0.00, 0.00, 0.00
140, 32220.60, 26294.12, -12281.43, 6616.79, -529.67, 35388.33, -2567.72, -187500.02, 0.00, 0.00, 0.00
141, 32288.28, 26253.04, -12316.53, 6585.58, -545.00, 35738.85, -2584.58, -187500.02, 0.00, 0.00, 0.00
142, 32385.51, 26238.00, -12348.71, 6540.61, -583.87, 36059.35, -2621.19, -187500.02, 0.00, 0.00, 0.00
143, 32317.89, 26266.83, -12327.79, 6555.90, -577.37, 35713.15, -2612.65, -187500.02, 0.00, 0.00, 0.00
144, 32221.33, 26287.46, -12295.85, 6592.83, -551.02, 35382.86, -2576.42, -187500.02, 0.05, 0.92, 0.39
145, 32257.57, 26251.01, -12331.90, 6575.53, -568.96, 35614.98, -2606.59, -187500.02, 0.00, 0.00, 0.00
146, 32381.02, 26230.17, -12377.43, 6534.96, -611.45, 36047.39, -2665.89, -187500.02, 0.00, 0.00, 0.00
147, 32361.32, 26282.21, -12333.04, 6565.85, -583.31, 35797.64, -2610.17, -187500.02, 0.00, 0.00, 0.00
148, 32249.28, 26306.88, -12295.07, 6599.35, -554.64, 35417.61, -2544.79, -187500.02, 0.00, 0.00, 0.00
149, 32245.90, 26279.39, -12316.75, 6592.16, -555.75, 35528.36, -2582.50, -187500.02, 0.00, 0.00, 0.00
150, 32366.98, 26230.20, -12380.61, 6531.98, -606.83, 36007.61, -2677.65, -187500.02, 0.00, 0.00, 0.00
151, 32366.49, 26264.33, -12346.19, 6546.80, -590.58, 35854.34, -2651.01, -187500.02, 0.00, 0.00, 0.00
152, 32267.69, 26307.35, -12290.33, 6599.11, -546.25, 35456.26, -2570.99, -187500.02, 0.00, 0.00, 0.00
153, 32226.05, 26282.30, -12312.86, 6585.85, -554.57, 35442.67, -2567.23, -187500.02, 0.05, 0.92, 0.39
154, 32351.87, 26237.84, -12374.73, 6538.51, -597.73, 35956.78, -2640.68, -187500.02, 0.00, 0.00, 0.00
155, 32383.63, 26263.39, -12356.69, 6547.68, -602.76, 35933.45, -2652.08, -187500.02, 0.00, 0.00, 0.00
156, 32281.01, 26300.47, -12311.43, 6586.66, -577.77, 35519.58, -2600.80, -187500.02, 0.00, 0.00, 0.00
157, 32219.88, 26293.85, -12309.35, 6597.68, -563.02, 35397.00, -2578.09, -187500.02, 0.00, 0.00, 0.00
158, 32333.34, 26248.01, -12362.44, 6561.60, -589.21, 35877.63, -2645.46, -187500.02, 0.00, 0.00, 0.00
159, 32387.79, 26250.56, -12369.37, 6534.49, -605.93, 35979.07, -2653.84, -187500.02, 0.00, 0.00, 0.00
160, 32293.78, 26282.97, -12330.29, 6567.30, -584.86, 35571.95, -2624.47, -187500.02, 0.00, 0.00, 0.00
161, 32220.49, 26293.56, -12300.57, 6593.56, -558.53, 35361.35, -2557.64, -187500.02, 0.00, 0.00, 0.00
162, 32313.22, 26254.56, -12341.49, 6564.93, -578.08, 35789.07, -2619.00, -187500.02, 0.00, 0.00, 0.00
163, 32398.85, 26255.32, -12371.94, 6541.15, -611.90, 36028.93, -2634.62, -187500.02, 0.04, 0.92, 0.38
164, 32326.61, 26294.79, -12327.05, 6567.10, -590.35, 35646.74, -2584.62, -187500.02, 0.00, 0.00, 0.00
165, 32233.58, 26306.91, -12300.81, 6592.42, -567.94, 35356.21, -2553.02, -187500.02, 0.00, 0.00, 0.00
166, 32307.03, 26271.81, -12340.78, 6571.93, -587.56, 35683.48, -2597.29, -187500.02, 0.00, 0.00, 0.00
167, 32412.02, 26251.52, -12380.56, 6529.73, -625.83, 36029.69, -2656.42, -187500.02, 0.00, 0.00, 0.00
168, 32359.36, 26295.66, -12336.17, 6560.93, -599.67, 35717.50, -2615.18, -187500.02, 0.00, 0.00, 0.00
169, 32262.93, 26324.95, -12302.96, 6598.21, -573.75, 35387.06, -2560.10, -187500.02, 0.00, 0.00, 0.00
170, 32282.98, 26291.98, -12330.99, 6583.21, -585.75, 35582.75, -2596.83, -187500.02, 0.00, 0.00, 0.00
171, 32394.43, 26254.04, -12383.96, 6531.58, -632.49, 36022.43, -2691.98, -187500.02, 0.00, 0.00, 0.00
172, 32372.61, 26285.07, -12354.05, 6542.42, -616.48, 35796.27, -2635.45, -187500.02, 0.00, 0.00, 0.00
173, 32266.78, 26317.86, -12308.68, 6586.59, -573.79, 35407.51, -2549.82, -187500.02, 0.04, 0.92, 0.38
174, 32264.16, 26297.97, -12322.90, 6587.64, -577.48, 35496.20, -2582.32, -187500.02, 0.00, 0.00, 0.00
175, 32389.64, 26249.91, -12385.55, 6523.71, -622.88, 35997.04, -2648.79, -187500.02, 0.00, 0.00, 0.00
176, 32389.89, 26274.50, -12360.54, 6521.86, -624.22, 35868.87, -2644.32, -187500.02, 0.00, 0.00, 0.00
177, 32286.85, 26306.13, -12305.06, 6559.90, -586.33, 35450.04, -2583.06, -187500.02, 0.00, 0.00, 0.00
178, 32253.63, 26287.13, -12318.09, 6558.11, -581.41, 35393.74, -2571.55, -187500.02, 0.00, 0.00, 0.00
179, 32376.59, 26232.07, -12383.85, 6503.15, -623.43, 35903.89, -2645.22, -187500.02, 0.00, 0.00, 0.00
180, 32417.07, 26263.46, -12369.25, 6516.81, -621.07, 35915.12, -2646.92, -187500.02, 0.00, 0.00, 0.00
181, 32323.37, 26314.80, -12327.12, 6571.28, -585.26, 35514.68, -2597.65, -187500.02, 0.00, 0.00, 0.00
182, 32261.21, 26318.57, -12305.19, 6583.55, -568.25, 35367.39, -2583.50, -187500.02, 0.00, 0.00, 0.00
183, 32371.43, 26271.90, -12341.36, 6536.72, -602.76, 35828.19, -2642.45, -187500.02, 0.04, 0.92, 0.38
184, 32439.71, 26285.83, -12359.84, 6533.26, -620.60, 35966.59, -2644.90, -187500.02, 0.00, 0.00, 0.00
185, 32361.84, 26329.79, -12314.04, 6579.12, -589.75, 35587.75, -2572.15, -187500.02, 0.00, 0.00, 0.00
186, 32280.77, 26336.77, -12302.60, 6594.37, -574.17, 35364.62, -2543.05, -187500.02, 0.00, 0.00, 0.00
187, 32364.92, 26292.31, -12362.39, 6557.91, -598.89, 35753.74, -2617.97, -187500.02, 0.00, 0.00, 0.00
188, 32454.66, 26280.58, -12384.48, 6524.09, -629.02, 36009.75, -2664.24, -187500.02, 0.00, 0.00, 0.00
189, 32384.28, 26324.10, -12318.14, 6560.15, -602.47, 35646.72, -2584.26, -187500.02, 0.00, 0.00, 0.00
190, 32291.81, 26346.69, -12298.44, 6592.38, -582.89, 35342.73, -2580.26, -187500.02, 0.00, 0.00, 0.00
191, 32342.50, 26308.56, -12341.45, 6570.07, -600.39, 35635.52, -2610.80, -187500.02, 0.00, 0.00, 0.00
192, 32457.82, 26291.24, -12375.07, 6530.13, -633.18, 36025.18, -2645.31, -187500.02, 0.04, 0.92, 0.39
193, 32420.78, 26341.75, -12327.55, 6563.17, -610.60, 35738.16, -2617.10, -187500.02, 0.00, 0.00, 0.00
194, 32312.71, 26359.93, -12299.78, 6593.63, -590.29, 35373.96, -2557.58, -187500.02, 0.00, 0.00, 0.00
195, 32325.92, 26323.89, -12335.28, 6577.67, -593.95, 35543.09, -2577.18, -187500.02, 0.00, 0.00, 0.00
196, 32446.60, 26285.63, -12375.31, 6528.54, -631.91, 36007.86, -2653.44, -187500.02, 0.00, 0.00, 0.00
197, 32428.22, 26315.63, -12348.91, 6533.06, -627.68, 35797.86, -2651.52, -187500.02, 0.00, 0.00, 0.00
198, 32324.91, 26349.60, -12311.94, 6572.84, -598.38, 35399.42, -2563.79, -187500.02, 0.00, 0.00, 0.00
199, 32310.21, 26330.00, -12323.99, 6578.86, -599.16, 35456.32, -2573.92, -187500.02, 0.00, 0.00, 0.00
200, 32434.93, 26283.46, -12381.21, 6528.41, -647.13, 35964.58, -2669.20, -187500.02, 0.00, 0.00, 0.00
201, 32445.30, 26312.63, -12361.77, 6533.62, -655.00, 35875.22, -2658.34, -187500.02, 0.00, 0.00, 0.00
202, 32342.88, 26347.45, -12309.66, 6567.93, -619.57, 35461.20, -2577.13, -187500.02, 0.04, 0.91, 0.38
203, 32297.46, 26335.34, -12313.53, 6573.00, -606.45, 35386.54, -2567.25, -187500.02, 0.00, 0.00, 0.00
204, 32411.03, 26284.60, -12351.13, 6523.83, -638.01, 35893.32, -2667.35, -187500.02, 0.00, 0.00, 0.00
205, 32458.04, 26310.08, -12333.76, 6529.37, -648.33, 35946.21, -2642.91, -187500.02, 0.00, 0.00, 0.00
206, 32375.79, 26363.17, -12303.88, 6575.59, -610.43, 35532.84, -2575.23, -187500.02, 0.00, 0.00, 0.00
207, 32305.15, 26357.09, -12315.03, 6583.57, -608.35, 35359.34, -2567.08, -187500.02, 0.00, 0.00, 0.00
208, 32403.05, 26304.07, -12374.01, 6540.99, -646.21, 35820.19, -2638.11, -187500.02, 0.00, 0.00, 0.00
209, 32472.35, 26306.26, -12386.06, 6515.89, -672.47, 35986.02, -2668.02, -187500.02, 0.00, 0.00, 0.00
210, 32398.32, 26353.40, -12332.55, 6556.53, -641.41, 35592.89, -2613.39, -187500.02, 0.00, 0.00, 0.00
211, 32310.81, 26355.75, -12315.27, 6572.04, -630.92, 35342.44, -2588.94, -187500.02, 0.00, 0.00, 0.00
212, 32386.02, 26313.23, -12361.05, 6543.99, -655.76, 35721.48, -2635.76, -187500.02, 0.05, 0.90, 0.38
213, 32488.97, 26309.54, -12386.91, 6513.43, -685.22, 36004.93, -2682.50, -187500.02, 0.00, 0.00, 0.00
214, 32425.29, 26341.96, -12352.33, 6541.19, -668.97, 35660.06, -2621.95, -187500.02, 0.00, 0.00, 0.00
215, 32327.66, 26358.43, -12325.13, 6581.49, -643.82, 35353.04, -2582.88, -187500.02, 0.00, 0.00, 0.00
216, 32369.24, 26313.48, -12369.92, 6554.11, -658.01, 35612.88, -2650.18, -187500.02, 0.00, 0.00, 0.00
217, 32483.21, 26289.09, -12397.73, 6512.31, -686.69, 36015.05, -2669.94, -187500.02, 0.00, 0.00, 0.00
218, 32444.52, 26332.52, -12348.85, 6543.41, -660.70, 35757.61, -2619.33, -187500.02, 0.00, 0.00, 0.00
219, 32331.75, 26352.35, -12323.63, 6579.41, -640.89, 35372.89, -2595.53, -187500.02, 0.00, 0.00, 0.00
220, 32339.64, 26322.44, -12349.05, 6558.54, -648.18, 35501.99, -2589.81, -187500.02, 0.00, 0.00, 0.00
221, 32483.45, 26301.27, -12390.29, 6519.47, -678.91, 35995.02, -2641.40, -187500.02, 0.00, 0.00, 0.00
222, 32479.30, 26335.12, -12364.90, 6529.44, -675.29, 35817.91, -2631.54, -187500.02, 0.05, 0.90, 0.38
223, 32370.98, 26364.96, -12323.23, 6563.50, -643.73, 35417.99, -2584.44, -187500.02, 0.00, 0.00, 0.00
224, 32344.45, 26348.32, -12339.10, 6565.24, -640.65, 35431.05, -2573.67, -187500.02, 0.00, 0.00, 0.00
225, 32466.73, 26300.47, -12395.99, 6517.48, -683.11, 35944.40, -2633.19, -187500.02, 0.00, 0.00, 0.00
226, 32474.47, 26313.57, -12374.89, 6510.06, -693.71, 35885.61, -2628.83, -187500.02, 0.00, 0.00, 0.00
227, 32377.10, 26359.39, -12325.58, 6559.88, -649.90, 35476.89, -2590.50, -187500.02, 0.00, 0.00, 0.00
228, 32326.95, 26351.25, -12323.70, 6575.26, -636.49, 35389.38, -2580.67, -187500.02, 0.00, 0.00, 0.00
229, 32449.39, 26308.23, -12383.36, 6536.21, -676.83, 35890.46, -2639.56, -187500.02, 0.00, 0.00, 0.00
230, 32500.75, 26328.07, -12388.39, 6525.70, -702.60, 35962.30, -2636.97, -187500.02, 0.00, 0.00, 0.00
231, 32418.16, 26379.19, -12327.84, 6572.91, -666.57, 35549.31, -2575.59, -187500.02, 0.00, 0.00, 0.00
232, 32357.35, 26392.20, -12296.90, 6599.04, -649.63, 35364.06, -2567.79, -187500.02, 0.05, 0.90, 0.38
233, 32461.10, 26351.77, -12354.61, 6564.77, -671.13, 35807.00, -2650.54, -187500.02, 0.00, 0.00, 0.00
234, 32533.63, 26346.36, -12372.74, 6529.08, -688.08, 35998.49, -2668.06, -187500.02, 0.00, 0.00, 0.00
235, 32440.90, 26372.84, -12318.14, 6544.61, -674.60, 35606.04, -2622.35, -187500.02, 0.00, 0.00, 0.00
236, 32348.09, 26379.66, -12311.27, 6565.00, -661.34, 35327.18, -2601.27, -187500.02, 0.00, 0.00, 0.00
237, 32421.27, 26338.42, -12364.09, 6537.77, -677.48, 35670.12, -2638.22, -187500.02, 0.00, 0.00, 0.00
238, 32526.82, 26323.87, -12393.19, 6506.70, -710.76, 36003.63, -2698.73, -187500.02, 0.00, 0.00, 0.00
239, 32461.19, 26352.53, -12357.68, 6523.22, -696.26, 35671.41, -2671.46, -187500.02, 0.00, 0.00, 0.00
240, 32359.54, 26372.15, -12322.76, 6551.48, -661.39, 35342.71, -2581.65, -187500.02, 0.00, 0.00, 0.00
241, 32395.23, 26338.96, -12357.34, 6534.73, -667.83, 35574.97, -2587.50, -187500.02, 0.05, 0.91, 0.39
242, 32509.63, 26306.95, -12406.71, 6491.13, -709.33, 36006.25, -2632.34, -187500.02, 0.00, 0.00, 0.00
243, 32477.87, 26348.10, -12368.63, 6518.15, -682.64, 35753.69, -2605.07, -187500.02, 0.00, 0.00, 0.00
244, 32366.38, 26365.80, -12334.07, 6546.27, -665.25, 35373.98, -2572.42, -187500.02, 0.00, 0.00, 0.00
245, 32371.45, 26345.98, -12339.88, 6546.83, -665.77, 35488.82, -2586.63, -187500.02, 0.00, 0.00, 0.00
246, 32498.07, 26310.60, -12399.56, 6499.35, -707.01, 35972.81, -2661.40, -187500.02, 0.00, 0.00, 0.00
247, 32486.58, 26335.34, -12382.37, 6493.43, -711.05, 35805.86, -2669.49, -187500.02, 0.00, 0.00, 0.00
248, 32388.37, 26376.64, -12332.71, 6539.32, -677.93, 35414.10, -2580.75, -187500.02, 0.00, 0.00, 0.00
249, 32365.62, 26367.26, -12342.34, 6542.78, -670.49, 35406.50, -2560.17, -187500.02, 0.00, 0.00, 0.00
250, 32490.23, 26322.80, -12399.83, 6493.29, -706.81, 35913.69, -2646.56, -187500.02, 0.00, 0.00, 0.00
251, 32515.80, 26346.34, -12390.40, 6489.14, -718.34, 35877.45, -2640.95, -187500.02, 0.05, 0.91, 0.38
252, 32416.80, 26386.88, -12338.81, 6533.46, -675.74, 35461.27, -2576.02, -187500.02, 0.00, 0.00, 0.00
253, 32357.86, 26377.38, -12336.06, 6547.47, -662.86, 35354.65, -2575.61, -187500.02, 0.00, 0.00, 0.00
254, 32471.47, 26329.19, -12397.91, 6506.55, -703.77, 35846.79, -2651.61, -187500.02, 0.00, 0.00, 0.00
255, 32526.77, 26336.79, -12407.83, 6491.46, -722.52, 35946.75, -2660.57, -187500.02, 0.00, 0.00, 0.00
0, 32441.28, 26384.00, -12350.12, 6540.30, -681.42, 35532.86, -2568.93, -187500.02, 0.00, 0.00, 0.00
1, 32360.97, 26387.48, -12327.03, 6559.48, -667.36, 35316.11, -2564.08, -187500.02, 0.00, 0.00, 0.00
2, 32444.81, 26334.56, -12394.80, 6501.81, -696.17, 35730.76, -2625.41, -187500.02, 0.00, 0.00, 0.00
3, 32529.48, 26331.56, -12416.37, 6470.45, -716.04, 35969.25, -2645.35, -187500.02, 0.00, 0.00, 0.00
4, 32460.61, 26380.31, -12362.79, 6514.17, -685.13, 35606.89, -2606.93, -187500.02, 0.00, 0.00, 0.00
5, 32358.64, 26387.71, -12340.38, 6537.75, -663.96, 35325.16, -2574.14, -187500.02, 0.04, 0.90, 0.39
6, 32422.90, 26346.54, -12382.06, 6515.56, -680.50, 35655.14, -2606.03, -187500.02, 0.00, 0.00, 0.00
7, 32532.05, 26331.14, -12415.88, 6482.63, -711.50, 36011.34, -2639.47, -187500.02, 0.00, 0.00, 0.00
8, 32479.95, 26377.70, -12370.10, 6516.05, -686.00, 35692.54, -2584.04, -187500.02, 0.00, 0.00, 0.00
9, 32362.31, 26387.71, -12344.31, 6541.57, -670.64, 35343.43, -2559.77, -187500.02, 0.00, 0.00, 0.00
10, 32387.05, 26355.28, -12380.12, 6525.90, -680.81, 35543.43, -2596.80, -187500.02, 0.00, 0.00, 0.00
11, 32512.91, 26328.43, -12424.35, 6481.02, -713.04, 35988.25, -2655.52, -187500.02, 0.00, 0.00, 0.00
12, 32497.36, 26369.80, -12381.12, 6500.31, -698.56, 35759.50, -2614.46, -187500.02, 0.00, 0.00, 0.00
13, 32392.95, 26399.55, -12347.82, 6535.58, -672.72, 35376.24, -2574.21, -187500.02, 0.00, 0.00, 0.00
14, 32380.48, 26372.33, -12375.13, 6530.78, -666.17, 35463.19, -2589.76, -187500.02, 0.00, 0.00, 0.00
15, 32508.06, 26331.14, -12432.91, 6485.16, -705.91, 35965.09, -2684.56, -187500.02, 0.04, 0.91, 0.39
16, 32513.36, 26369.18, -12400.72, 6506.82, -704.35, 35837.02, -2635.18, -187500.02, 0.00, 0.00, 0.00
17, 32407.44, 26407.09, -12351.89, 6548.90, -667.74, 35430.17, -2547.79, -187500.02, 0.00, 0.00, 0.00
18, 32367.96, 26387.80, -12368.70, 6548.77, -660.07, 35392.85, -2575.48, -187500.02, 0.00, 0.00, 0.00
19, 32501.96, 26344.46, -12418.05, 6503.82, -689.19, 35898.73, -2633.12, -187500.02, 0.00, 0.00, 0.00
20, 32536.76, 26356.91, -12413.80, 6492.02, -708.39, 35891.85, -2616.52, -187500.02, 0.00, 0.00, 0.00
21, 32438.73, 26393.07, -12366.86, 6529.93, -685.28, 35479.01, -2594.57, -187500.02, 0.00, 0.00, 0.00
22, 32382.00, 26390.21, -12358.82, 6543.36, -673.06, 35340.86, -2594.81, -187500.02, 0.00, 0.00, 0.00
23, 32497.47, 26342.74, -12410.29, 6508.36, -698.85, 35828.26, -2626.04, -187500.02, 0.00, 0.00, 0.00
24, 32564.50, 26351.23, -12416.91, 6491.37, -718.47, 35959.89, -2611.78, -187500.02, 0.04, 0.92, 0.39
25, 32487.01, 26396.72, -12366.28, 6528.27, -683.32, 35562.43, -2556.21, -187500.02, 0.00, 0.00, 0.00
26, 32418.10, 26413.62, -12339.66, 6557.98, -644.78, 35327.56, -2532.81, -187500.02, 0.00, 0.00, 0.00
27, 32497.11, 26359.14, -12400.46, 6509.48, -682.76, 35708.63, -2623.51, -187500.02, 0.00, 0.00, 0.00
28, 32585.62, 26352.82, -12428.17, 6481.58, -727.15, 35971.80, -2675.21, -187500.02, 0.00, 0.00, 0.00
29, 32516.65, 26390.48, -12384.23, 6517.59, -695.52, 35623.29, -2598.32, -187500.02, 0.00, 0.00, 0.00
30, 32430.12, 26413.03, -12352.71, 6550.49, -656.43, 35330.53, -2553.55, -187500.02, 0.00, 0.00, 0.00
31, 32487.41, 26371.62, -12384.63, 6526.37, -672.99, 35624.10, -2603.08, -187500.02, 0.00, 0.00, 0.00
32, 32601.94, 26351.59, -12418.45, 6487.59, -707.39, 36003.92, -2637.66, -187500.02, 0.00, 0.00, 0.00
33, 32559.88, 26394.66, -12383.92, 6514.10, -681.53, 35702.39, -2595.35, -187500.02, 0.00, 0.00, 0.00
34, 32453.79, 26411.80, -12355.02, 6540.63, -662.26, 35347.63, -2564.80, -187500.02, 0.04, 0.91, 0.40
35, 32474.29, 26379.84, -12384.94, 6523.04, -675.49, 35522.24, -2602.73, -187500.02, 0.00, 0.00, 0.00
36, 32595.08, 26343.77, -12440.33, 6470.05, -721.83, 35972.20, -2688.49, -187500.02, 0.00, 0.00, 0.00
37, 32575.48, 26377.49, -12407.59, 6486.12, -710.29, 35764.49, -2646.49, -187500.02, 0.00, 0.00, 0.00
38, 32476.10, 26409.99, -12361.79, 6524.34, -671.18, 35381.00, -2551.94, -187500.02, 0.00, 0.00, 0.00
39, 32471.25, 26390.99, -12379.49, 6520.32, -675.18, 35437.35, -2588.98, -187500.02, 0.00, 0.00, 0.00
40, 32608.53, 26352.50, -12437.96, 6470.20, -721.07, 35940.33, -2669.71, -187500.02, 0.00, 0.00, 0.00
41, 32623.78, 26381.83, -12414.87, 6476.48, -714.23, 35841.33, -2662.45, -187500.02, 0.00, 0.00, 0.00
42, 32521.54, 26419.61, -12365.48, 6517.61, -685.24, 35428.61, -2595.71, -187500.02, 0.00, 0.00, 0.00
43, 32476.44, 26406.73, -12368.43, 6520.50, -681.28, 35372.89, -2576.15, -187500.02, 0.00, 0.00, 0.00
44, 32598.03, 26358.81, -12427.41, 6470.85, -713.71, 35876.09, -2639.27, -187500.02, 0.04, 0.90, 0.39
45, 32635.89, 26378.54, -12424.80, 6472.33, -719.88, 35918.69, -2621.32, -187500.02, 0.00, 0.00, 0.00
46, 32539.96, 26417.48, -12377.61, 6516.45, -685.89, 35502.13, -2580.40, -187500.02, 0.00, 0.00, 0.00
47, 32472.19, 26413.82, -12362.48, 6526.91, -686.29, 35330.24, -2580.15, -187500.02, 0.00, 0.00, 0.00
48, 32579.97, 26368.49, -12415.25, 6494.28, -718.18, 35798.95, -2644.23, -187500.02, 0.00, 0.00, 0.00
49, 32644.74, 26364.02, -12439.39, 6466.05, -735.64, 35969.14, -2651.32, -187500.02, 0.00, 0.00, 0.00
50, 32559.76, 26402.35, -12393.37, 6492.04, -702.05, 35567.08, -2585.38, -187500.02, 0.00, 0.00, 0.00
51, 32480.57, 26418.04, -12364.81, 6522.64, -676.45, 35321.34, -2562.56, -187500.02, 0.00, 0.00, 0.00
52, 32556.75, 26372.40, -12419.79, 6489.36, -704.64, 35700.74, -2631.60, -187500.02, 0.00, 0.00, 0.00
53, 32648.46, 26361.29, -12452.80, 6451.99, -739.19, 35986.91, -2681.32, -187500.02, 0.00, 0.00, 0.00
54, 32584.46, 26398.71, -12411.23, 6483.82, -711.57, 35643.92, -2610.73, -187500.02, 0.04, 0.91, 0.39
55, 32488.21, 26415.83, -12379.27, 6516.09, -681.64, 35331.47, -2542.53, -187500.02, 0.00, 0.00, 0.00
56, 32537.05, 26376.62, -12421.38, 6489.11, -701.42, 35597.86, -2612.67, -187500.02, 0.00, 0.00, 0.00
57, 32656.77, 26358.56, -12462.26, 6448.95, -735.26, 35979.63, -2655.07, -187500.02, 0.00, 0.00, 0.00
58, 32620.80, 26406.33, -12421.80, 6481.13, -711.14, 35710.82, -2621.12, -187500.02, 0.00, 0.00, 0.00
59, 32517.52, 26433.11, -12388.70, 6520.32, -686.27, 35357.24, -2582.34, -187500.02, 0.00, 0.00, 0.00
60, 32528.58, 26400.90, -12408.50, 6507.06, -691.54, 35508.11, -2569.44, -187500.02, 0.00, 0.00, 0.00
61, 32662.18, 26374.70, -12452.63, 6464.59, -727.44, 35982.35, -2635.58, -187500.02, 0.00, 0.00, 0.00
62, 32647.76, 26402.35, -12434.74, 6468.91, -735.75, 35785.90, -2665.09, -187500.02, 0.00, 0.00, 0.00
63, 32546.73, 26438.74, -12383.02, 6509.70, -692.01, 35387.23, -2548.68, -187500.02, 0.00, 0.00, 0.00
64, 32534.53, 26432.99, -12383.29, 6523.87, -672.01, 35441.02, -2535.92, -187500.02, 0.04, 0.92, 0.40
65, 32654.71, 26381.29, -12452.13, 6469.09, -725.85, 35953.59, -2649.06, -187500.02, 0.00, 0.00, 0.00
66, 32661.06, 26394.08, -12449.16, 6462.09, -734.88, 35879.04, -2613.08, -187500.02, 0.00, 0.00, 0.00
67, 32560.05, 26428.39, -12385.79, 6504.78, -695.56, 35465.80, -2545.91, -187500.02, 0.00, 0.00, 0.00
68, 32514.77, 26424.86, -12369.48, 6517.97, -680.03, 35370.02, -2564.10, -187500.02, 0.00, 0.00, 0.00
69, 32630.91, 26379.86, -12444.04, 6470.16, -709.13, 35863.02, -2634.96, -187500.02, 0.00, 0.00, 0.00
70, 32673.33, 26391.62, -12452.96, 6465.00, -727.53, 35927.14, -2632.99, -187500.02, 0.00, 0.00, 0.00
71, 32578.87, 26430.62, -12405.75, 6501.94, -694.07, 35514.80, -2582.45, -187500.02, 0.00, 0.00, 0.00
72, 32509.96, 26430.65, -12388.95, 6515.58, -676.77, 35339.87, -2539.56, -187500.02, 0.00, 0.00, 0.00
73, 32604.96, 26379.77, -12428.02, 6469.18, -702.90, 35779.24, -2600.63, -187500.02, 0.04, 0.92, 0.39
74, 32676.37, 26378.95, -12449.32, 6441.46, -731.39, 35952.63, -2655.57, -187500.02, 0.00, 0.00, 0.00
75, 32593.33, 26417.57, -12415.79, 6475.95, -707.63, 35567.19, -2605.59, -187500.02, 0.00, 0.00, 0.00
76, 32501.80, 26427.72, -12394.02, 6499.33, -682.82, 35301.11, -2537.75, -187500.02, 0.00, 0.00, 0.00
77, 32580.10, 26392.43, -12424.15, 6478.76, -690.11, 35666.92, -2591.44, -187500.02, 0.00, 0.00, 0.00
78, 32674.31, 26374.03, -12464.38, 6440.97, -735.64, 35979.22, -2650.18, -187500.02, 0.00, 0.00, 0.00
79, 32624.45, 26423.54, -12418.27, 6476.35, -715.08, 35649.20, -2594.32, -187500.02, 0.00, 0.00, 0.00
80, 32540.63, 26458.12, -12371.27, 6517.75, -676.99, 35333.70, -2526.89, -187500.02, 0.00, 0.00, 0.00
81, 32587.03, 26427.03, -12406.56, 6498.72, -691.67, 35580.78, -2579.95, -187500.02, 0.00, 0.00, 0.00
82, 32702.12, 26392.04, -12457.86, 6444.45, -741.56, 35987.38, -2646.76, -187500.02, 0.00, 0.00, 0.00
83, 32665.98, 26428.08, -12425.04, 6462.47, -739.49, 35713.84, -2627.96, -187500.02, 0.05, 0.91, 0.40
84, 32560.90, 26459.81, -12385.62, 6508.43, -714.25, 35342.44, -2577.49, -187500.02, 0.00, 0.00, 0.00
85, 32574.00, 26439.16, -12399.67, 6507.55, -704.66, 35479.66, -2573.89, -187500.02, 0.00, 0.00, 0.00
86, 32702.14, 26399.96, -12462.42, 6451.96, -753.41, 35972.18, -2646.31, -187500.02, 0.00, 0.00, 0.00
87, 32697.56, 26435.74, -12438.99, 6465.17, -746.59, 35813.15, -2611.67, -187500.02, 0.00, 0.00, 0.00
88, 32585.09, 26465.09, -12388.21, 6501.41, -714.27, 35397.65, -2602.53, -187500.02, 0.00, 0.00, 0.00
89, 32553.50, 26448.73, -12395.76, 6501.70, -708.55, 35399.06, -2592.71, -187500.02, 0.00, 0.00, 0.00
90, 32681.09, 26406.04, -12465.68, 6453.57, -748.92, 35914.09, -2618.82, -187500.02, 0.00, 0.00, 0.00
91, 32707.11, 26435.68, -12442.48, 6463.21, -743.84, 35875.62, -2601.07, -187500.02, 0.00, 0.00, 0.00
92, 32603.24, 26468.31, -12392.57, 6499.98, -714.74, 35457.71, -2576.57, -187500.02, 0.00, 0.00, 0.00
93, 32544.83, 26458.41, -12394.73, 6508.25, -708.33, 35343.83, -2565.71, -187500.02, 0.05, 0.91, 0.40
94, 32653.19, 26403.98, -12456.43, 6462.31, -740.78, 35839.88, -2616.58, -187500.02, 0.00, 0.00, 0.00
95, 32696.78, 26400.83, -12465.28, 6442.76, -758.22, 35922.80, -2630.71, -187500.02, 0.00, 0.00, 0.00
96, 32602.88, 26435.14, -12419.12, 6471.95, -725.02, 35505.70, -2596.09, -187500.02, 0.00, 0.00, 0.00
97, 32520.56, 26433.08, -12414.74, 6484.29, -712.24, 35308.85, -2589.34, -187500.02, 0.00, 0.00, 0.00
98, 32627.04, 26401.30, -12458.68, 6468.30, -723.75, 35741.18, -2615.36, -187500.02, 0.00, 0.00, 0.00
99, 32713.27, 26403.58, -12468.79, 6450.62, -741.32, 35964.36, -2641.60, -187500.02, 0.00, 0.00, 0.00
100, 32630.64, 26439.59, -12422.52, 6481.20, -721.27, 35594.57, -2574.90, -187500.02, 0.00, 0.00, 0.00
101, 32544.25, 26459.19, -12402.60, 6514.95, -692.30, 35311.42, -2553.60, -187500.02, 0.00, 0.00, 0.00
102, 32601.27, 26407.56, -12452.65, 6474.90, -707.75, 35626.69, -2630.06, -187500.02, 0.00, 0.00, 0.00
103, 32697.76, 26385.63, -12486.27, 6436.32, -745.36, 35960.96, -2650.67, -187500.02, 0.05, 0.91, 0.39
104, 32648.68, 26433.71, -12437.14, 6472.15, -714.70, 35659.68, -2594.72, -187500.02, 0.00, 0.00, 0.00
105, 32553.62, 26458.63, -12397.89, 6513.63, -686.60, 35337.17, -2543.99, -187500.02, 0.00, 0.00, 0.00
106, 32584.19, 26424.03, -12429.96, 6499.73, -701.22, 35550.02, -2589.58, -187500.02, 0.00, 0.00, 0.00
107, 32701.32, 26390.50, -12483.72, 6450.85, -750.10, 35976.74, -2642.13, -187500.02, 0.00, 0.00, 0.00
108, 32667.63, 26424.34, -12452.27, 6470.65, -739.33, 35732.44, -2612.87, -187500.02, 0.00, 0.00, 0.00
109, 32557.30, 26452.24, -12409.62, 6505.39, -707.63, 35350.29, -2591.62, -187500.02, 0.00, 0.00, 0.00
110, 32550.29, 26426.87, -12426.76, 6499.48, -706.27, 35443.88, -2602.17, -187500.02, 0.00, 0.00, 0.00
111, 32677.98, 26388.78, -12481.82, 6453.37, -740.80, 35948.22, -2612.05, -187500.02, 0.00, 0.00, 0.00
112, 32678.52, 26423.11, -12453.92, 6466.14, -730.16, 35812.61, -2564.57, -187500.02, 0.05, 0.91, 0.40
113, 32572.95, 26456.22, -12406.98, 6506.68, -698.04, 35392.51, -2544.63, -187500.02, 0.00, 0.00, 0.00
114, 32540.56, 26442.85, -12415.83, 6513.90, -696.23, 35373.07, -2561.04, -187500.02, 0.00, 0.00, 0.00
115, 32664.26, 26398.77, -12477.84, 6465.35, -742.73, 35882.62, -2620.18, -187500.02, 0.00, 0.00, 0.00
116, 32681.29, 26406.37, -12481.91, 6446.65, -764.92, 35858.30, -2631.16, -187500.02, 0.00, 0.00, 0.00
117, 32579.19, 26443.65, -12429.63, 6487.86, -718.14, 35446.56, -2555.94, -187500.02, 0.00, 0.00, 0.00
118, 32514.41, 26437.64, -12417.60, 6502.01, -705.89, 35324.85, -2553.66, -187500.02, 0.00, 0.00, 0.00
119, 32627.60, 26392.40, -12479.07, 6459.88, -742.84, 35807.14, -2633.46, -187500.02, 0.00, 0.00, 0.00
120, 32682.25, 26394.48, -12498.65, 6435.83, -764.97, 35925.55, -2648.59, -187500.02, 0.00, 0.00, 0.00
121, 32596.26, 26439.50, -12440.42, 6474.56, -725.96, 35526.33, -2575.97, -187500.02, 0.00, 0.00, 0.00
122, 32514.68, 26440.75, -12417.71, 6495.62, -704.10, 35304.07, -2551.74, -187500.02, 0.06, 0.92, 0.40
123, 32600.00, 26390.66, -12472.83, 6458.33, -737.21, 35710.71, -2605.05, -187500.02, 0.00, 0.00, 0.00
124, 32690.99, 26389.23, -12492.43, 6433.06, -764.43, 35956.56, -2627.00, -187500.02, 0.00, 0.00, 0.00
125, 32611.93, 26422.31, -12453.07, 6457.55, -745.34, 35580.42, -2595.44, -187500.02, 0.00, 0.00, 0.00
126, 32524.74, 26449.76, -12413.20, 6495.33, -713.96, 35289.96, -2573.74, -187500.02, 0.00, 0.00, 0.00
127, 32586.45, 26414.98, -12456.96, 6474.81, -736.85, 35608.47, -2623.40, -187500.02, 0.00, 0.00, 0.00
128, 32696.11, 26398.59, -12498.80, 6435.74, -782.80, 35981.75, -2694.95, -187500.02, 0.00, 0.00, 0.00
129, 32647.83, 26440.41, -12453.79, 6462.16, -752.47, 35677.94, -2604.78, -187500.02, 0.00, 0.00, 0.00
130, 32547.36, 26463.48, -12415.88, 6499.19, -727.37, 35337.46, -2540.66, -187500.02, 0.00, 0.00, 0.00
131, 32576.86, 26435.70, -12444.87, 6493.52, -731.28, 35524.59, -2567.52, -187500.02, 0.00, 0.00, 0.00
132, 32696.38, 26394.46, -12503.01, 6440.52, -778.67, 35971.85, -2619.89, -187500.02, 0.05, 0.91, 0.40
133, 32669.13, 26428.32, -12464.18, 6463.21, -768.16, 35754.03, -2588.20, -187500.02, 0.00, 0.00, 0.00
134, 32566.29, 26460.66, -12422.36, 6493.32, -731.13, 35377.42, -2550.16, -187500.02, 0.00, 0.00, 0.00
135, 32557.84, 26441.91, -12440.78, 6484.53, -732.62, 35433.30, -2586.01, -187500.02, 0.00, 0.00, 0.00
136, 32690.90, 26407.04, -12495.83, 6439.22, -777.37, 35923.81, -2662.79, -187500.02, 0.00, 0.00, 0.00
137, 32697.23, 26432.99, -12478.06, 6442.93, -784.37, 35823.79, -2618.10, -187500.02, 0.00, 0.00, 0.00
138, 32597.96, 26471.37, -12422.29, 6494.50, -735.77, 35427.07, -2545.91, -187500.02, 0.00, 0.00, 0.00
139, 32558.42, 26456.33, -12424.49, 6494.43, -725.22, 35370.96, -2572.37, -187500.02, 0.00, 0.00, 0.00
140, 32683.46, 26409.39, -12483.92, 6439.02, -769.06, 35870.91, -2649.22, -187500.02, 0.00, 0.00, 0.00
141, 32719.35, 26425.84, -12482.26, 6429.61, -780.72, 35885.52, -2638.51, -187500.02, 0.00, 0.00, 0.00
142, 32617.03, 26458.38, -12434.54, 6465.26, -744.42, 35463.46, -2587.13, -187500.02, 0.05, 0.91, 0.39
143, 32541.43, 26444.86, -12430.79, 6473.71, -735.42, 35301.63, -2593.70, -187500.02, 0.00, 0.00, 0.00
144, 32644.86, 26397.01, -12491.85, 6435.31, -767.65, 35780.98, -2628.61, -187500.02, 0.00, 0.00, 0.00
145, 32707.69, 26399.44, -12500.73, 6417.36, -793.55, 35942.61, -2640.61, -187500.02, 0.00, 0.00, 0.00
146, 32626.35, 26443.32, -12438.95, 6451.67, -755.96, 35540.75, -2600.67, -187500.02, 0.00, 0.00, 0.00
147, 32553.50, 26462.30, -12409.55, 6487.77, -723.01, 35306.84, -2535.85, -187500.02, 0.00, 0.00, 0.00
148, 32622.28, 26401.66, -12477.24, 6443.65, -760.52, 35691.29, -2607.35, -187500.02, 0.00, 0.00, 0.00
149, 32712.00, 26383.06, -12505.69, 6404.94, -791.97, 35961.18, -2665.65, -187500.02, 0.00, 0.00, 0.00
150, 32653.13, 26429.98, -12449.09, 6441.88, -757.66, 35617.26, -2594.37, -187500.02, 0.00, 0.00, 0.00
151, 32549.88, 26438.00, -12424.49, 6461.91, -738.81, 35302.79, -2537.97, -187500.02, 0.00, 0.00, 0.00
152, 32597.74, 26400.38, -12466.89, 6441.66, -750.06, 35575.91, -2602.50, -187500.02, 0.05, 0.92, 0.38
153, 32709.09, 26379.37, -12509.29, 6402.84, -788.46, 35973.21, -2657.58, -187500.02, 0.00, 0.00, 0.00
154, 32672.88, 26425.19, -12463.04, 6439.38, -771.40, 35710.35, -2590.59, -187500.02, 0.00, 0.00, 0.00
155, 32576.28, 26455.21, -12413.87, 6481.07, -726.63, 35353.48, -2513.86, -187500.02, 0.00, 0.00, 0.00
156, 32598.36, 26436.68, -12433.74, 6481.29, -719.21, 35513.39, -2541.66, -187500.02, 0.00, 0.00, 0.00
157, 32720.67, 26403.91, -12491.96, 6435.74, -770.82, 35977.43, -2620.09, -187500.02, 0.00, 0.00, 0.00
158, 32706.70, 26440.39, -12466.10, 6447.74, -772.16, 35784.54, -2597.32, -187500.02, 0.00, 0.00, 0.00
159, 32603.95, 26471.51, -12423.14, 6487.41, -743.11, 35396.00, -2556.19, -187500.02, 0.00, 0.00, 0.00
160, 32586.45, 26450.58, -12434.43, 6488.42, -748.54, 35429.28, -2600.74, -187500.02, 0.00, 0.00, 0.00
161, 32717.41, 26407.31, -12484.23, 6439.96, -793.64, 35945.71, -2654.63, -187500.02, 0.05, 0.92, 0.38
162, 32731.31, 26433.98, -12477.44, 6435.07, -789.15, 35859.42, -2631.67, -187500.02, 0.00, 0.00, 0.00
163, 32622.12, 26466.83, -12436.33, 6469.56, -763.18, 35425.30, -2618.22, -187500.02, 0.00, 0.00, 0.00
164, 32566.40, 26447.54, -12443.98, 6468.80, -759.94, 35341.10, -2633.15, -187500.02, 0.00, 0.00, 0.00
165, 32687.66, 26401.68, -12501.17, 6426.86, -789.49, 35848.82, -2689.56, -187500.02, 0.00, 0.00, 0.00
166, 32726.91, 26412.52, -12504.48, 6417.83, -809.49, 35909.60, -2650.40, -187500.02, 0.00, 0.00, 0.00
167, 32629.03, 26450.14, -12454.70, 6448.75, -769.01, 35487.57, -2557.84, -187500.02, 0.00, 0.00, 0.00
168, 32567.05, 26460.53, -12429.94, 6477.83, -734.72, 35312.89, -2511.22, -187500.02, 0.00, 0.00, 0.00
169, 32665.71, 26409.95, -12488.77, 6443.23, -772.48, 35774.95, -2617.70, -187500.02, 0.00, 0.00, 0.00
170, 32732.74, 26403.47, -12505.93, 6408.13, -803.81, 35943.06, -2645.91, -187500.02, 0.00, 0.00, 0.00
171, 32649.24, 26442.54, -12455.35, 6435.42, -767.47, 35547.48, -2586.34, -187500.02, 0.05, 0.91, 0.39
172, 32556.30, 26448.77, -12441.79, 6459.41, -745.01, 35299.98, -2560.44, -187500.02, 0.00, 0.00, 0.00
173, 32629.01, 26405.03, -12486.94, 6436.94, -770.44, 35672.42, -2625.12, -187500.02, 0.00, 0.00, 0.00
174, 32729.59, 26398.59, -12500.53, 6408.47, -797.49, 35975.67, -2657.20, -187500.02, 0.00, 0.00, 0.00
175, 32665.58, 26438.45, -12464.03, 6437.48, -769.30, 35636.68, -2593.47, -187500.02, 0.00, 0.00, 0.00
176, 32557.84, 26447.05, -12440.76, 6460.01, -740.69, 35316.18, -2557.35, -187500.02, 0.00, 0.00, 0.00
177, 32599.26, 26409.84, -12477.10, 6438.87, -759.67, 35570.77, -2584.78, -187500.02, 0.00, 0.00, 0.00
178, 32718.71, 26385.16, -12519.46, 6399.44, -801.49, 35972.18, -2644.90, -187500.02, 0.00, 0.00, 0.00
179, 32686.43, 26426.80, -12478.51, 6428.94, -775.09, 35719.14, -2608.94, -187500.02, 0.00, 0.00, 0.00
180, 32579.48, 26448.88, -12442.25, 6462.27, -749.43, 35347.92, -2575.75, -187500.02, 0.00, 0.00, 0.00
181, 32586.14, 26419.87, -12465.52, 6455.38, -750.53, 35476.71, -2593.05, -187500.02, 0.05, 0.91, 0.39
182, 32712.25, 26382.08, -12516.95, 6405.96, -784.14, 35955.71, -2667.73, -187500.02, 0.00, 0.00, 0.00
183, 32702.79, 26414.98, -12491.54, 6414.48, -785.66, 35784.05, -2658.90, -187500.02, 0.00, 0.00, 0.00
184, 32591.84, 26440.97, -12448.89, 6442.73, -748.36, 35378.16, -2575.46, -187500.02, 0.00, 0.00, 0.00
185, 32565.17, 26421.30, -12460.11, 6440.99, -746.79, 35390.34, -2547.14, -187500.02, 0.00, 0.00, 0.00
186, 32692.35, 26382.12, -12516.64, 6402.46, -786.11, 35908.52, -2669.27, -187500.02, 0.00, 0.00, 0.00
187, 32716.78, 26409.39, -12504.95, 6406.19, -793.02, 35861.88, -2652.08, -187500.02, 0.00, 0.00, 0.00
188, 32614.57, 26444.55, -12456.72, 6444.07, -759.45, 35446.65, -2563.97, -187500.02, 0.00, 0.00, 0.00
189, 32561.21, 26433.26, -12447.64, 6451.45, -753.23, 35338.84, -2558.67, -187500.02, 0.00, 0.00, 0.00
190, 32682.74, 26383.46, -12510.74, 6402.34, -791.18, 35825.80, -2653.02, -187500.02, 0.00, 0.00, 0.00
191, 32735.43, 26395.80, -12520.37, 6389.69, -809.69, 35909.33, -2651.65, -187500.02, 0.05, 0.90, 0.39
192, 32644.39, 26439.12, -12466.51, 6439.16, -772.50, 35513.55, -2571.95, -187500.02, 0.00, 0.00, 0.00
193, 32567.81, 26438.51, -12452.36, 6470.11, -750.59, 35328.36, -2546.11, -187500.02, 0.00, 0.00, 0.00
194, 32663.92, 26387.08, -12504.04, 6432.07, -775.69, 35759.01, -2634.96, -187500.02, 0.00, 0.00, 0.00
195, 32744.16, 26386.93, -12512.73, 6396.49, -792.95, 35953.43, -2638.02, -187500.02, 0.00, 0.00, 0.00
196, 32666.25, 26424.57, -12472.50, 6427.85, -768.14, 35577.38, -2584.89, -187500.02, 0.00, 0.00, 0.00
197, 32575.50, 26431.12, -12454.75, 6444.97, -759.89, 35311.57, -2570.72, -187500.02, 0.00, 0.00, 0.00
198, 32647.47, 26392.69, -12495.18, 6417.10, -769.93, 35650.50, -2627.02, -187500.02, 0.00, 0.00, 0.00
199, 32750.22, 26373.38, -12530.25, 6376.73, -799.54, 35975.54, -2651.56, -187500.02, 0.00, 0.00, 0.00
200, 32695.46, 26413.48, -12487.90, 6407.71, -775.16, 35662.68, -2591.55, -187500.02, 0.00, 0.00, 0.00
201, 32590.61, 26430.15, -12455.80, 6443.31, -750.26, 35331.31, -2589.52, -187500.02, 0.05, 0.91, 0.40
202, 32621.43, 26392.07, -12496.50, 6422.97, -774.62, 35552.37, -2652.68, -187500.02, 0.00, 0.00, 0.00
203, 32754.11, 26377.29, -12531.68, 6388.22, -801.71, 35988.52, -2629.26, -187500.02, 0.00, 0.00, 0.00
204, 32726.87, 26419.98, -12487.05, 6412.67, -776.63, 35743.34, -2570.54, -187500.02, 0.00, 0.00, 0.00
205, 32612.63, 26440.08, -12452.13, 6442.15, -750.35, 35354.96, -2588.49, -187500.02, 0.00, 0.00, 0.00
206, 32611.75, 26408.99, -12477.77, 6431.45, -761.39, 35455.54, -2616.74, -187500.02, 0.00, 0.00, 0.00
207, 32744.05, 26372.02, -12516.46, 6388.28, -796.21, 35955.04, -2632.19, -187500.02, 0.00, 0.00, 0.00
208, 32737.37, 26395.15, -12502.74, 6391.01, -801.73, 35805.13, -2602.55, -187500.02, 0.00, 0.00, 0.00
209, 32641.39, 26436.03, -12455.33, 6435.02, -767.83, 35387.23, -2567.28, -187500.02, 0.00, 0.00, 0.00
210, 32610.70, 26417.28, -12467.94, 6431.31, -769.88, 35367.59, -2594.61, -187500.02, 0.05, 0.92, 0.41
211, 32732.90, 26368.15, -12530.25, 6385.00, -805.87, 35882.24, -2656.93, -187500.02, 0.00, 0.00, 0.00
212, 32765.49, 26396.81, -12511.66, 6392.49, -805.51, 35874.06, -2622.22, -187500.02, 0.00, 0.00, 0.00
213, 32674.20, 26442.07, -12454.84, 6444.70, -762.66, 35477.09, -2535.98, -187500.02, 0.00, 0.00, 0.00
214, 32620.13, 26436.17, -12449.72, 6458.22, -748.20, 35354.13, -2545.46, -187500.02, 0.00, 0.00, 0.00
215, 32731.13, 26381.05, -12516.64, 6406.70, -792.57, 35822.43, -2647.65, -187500.02, 0.00, 0.00, 0.00
216, 32793.27, 26391.64, -12523.86, 6392.35, -816.42, 35921.06, -2663.17, -187500.02, 0.00, 0.00, 0.00
217, 32710.57, 26436.57, -12471.09, 6431.36, -781.10, 35519.31, -2585.11, -187500.02, 0.00, 0.00, 0.00
218, 32633.30, 26441.24, -12451.67, 6453.46, -751.78, 35301.25, -2561.53, -187500.02, 0.00, 0.00, 0.00
219, 32729.41, 26400.05, -12500.44, 6426.19, -769.70, 35716.10, -2615.67, -187500.02, 0.00, 0.00, 0.00
220, 32807.69, 26386.66, -12538.23, 6387.32, -813.29, 35953.56, -2651.23, -187500.02, 0.04, 0.90, 0.40
221, 32746.11, 26441.96, -12487.11, 6429.50, -776.88, 35592.71, -2609.70, -187500.02, 0.00, 0.00, 0.00
222, 32648.48, 26446.83, -12453.63, 6450.20, -755.53, 35300.15, -2560.64, -187500.02, 0.00, 0.00, 0.00
223, 32702.10, 26394.59, -12496.99, 6418.04, -777.39, 35612.59, -2617.64, -187500.02, 0.00, 0.00, 0.00
224, 32815.04, 26381.07, -12537.74, 6384.57, -813.11, 35969.95, -2674.74, -187500.02, 0.00, 0.00, 0.00
225, 32759.50, 26414.58, -12500.88, 6414.12, -799.43, 35670.07, -2619.76, -187500.02, 0.00, 0.00, 0.00
226, 32654.96, 26434.58, -12462.13, 6437.55, -765.99, 35322.44, -2580.20, -187500.02, 0.00, 0.00, 0.00
227, 32673.55, 26398.28, -12495.54, 6420.29, -773.75, 35510.55, -2632.19, -187500.02, 0.00, 0.00, 0.00
228, 32798.25, 26370.81, -12542.23, 6378.76, -812.40, 35968.43, -2653.38, -187500.02, 0.00, 0.00, 0.00
229, 32779.73, 26409.59, -12505.51, 6398.54, -795.21, 35744.55, -2611.40, -187500.02, 0.00, 0.00, 0.00
230, 32678.76, 26444.77, -12458.82, 6437.82, -766.71, 35346.64, -2591.77, -187500.02, 0.05, 0.90, 0.39
231, 32669.69, 26422.64, -12484.14, 6440.07, -776.68, 35413.72, -2604.13, -187500.02, 0.00, 0.00, 0.00
232, 32803.96, 26388.60, -12541.23, 6398.57, -821.85, 35912.55, -2673.20, -187500.02, 0.00, 0.00, 0.00
233, 32811.40, 26420.90, -12518.03, 6407.53, -815.97, 35808.10, -2607.62, -187500.02, 0.00, 0.00, 0.00
234, 32700.49, 26449.29, -12475.51, 6447.79, -786.65, 35411.00, -2560.08, -187500.02, 0.00, 0.00, 0.00
235, 32652.54, 26422.24, -12488.01, 6438.06, -785.55, 35355.86, -2577.40, -187500.02, 0.00, 0.00, 0.00
236, 32779.19, 26373.56, -12548.18, 6389.89, -823.06, 35870.10, -2661.74, -187500.02, 0.00, 0.00, 0.00
237, 32817.14, 26391.66, -12534.43, 6390.23, -831.86, 35894.64, -2648.50, -187500.02, 0.00, 0.00, 0.00
238, 32721.63, 26432.01, -12470.64, 6432.07, -794.87, 35475.57, -2592.38, -187500.02, 0.00, 0.00, 0.00
239, 32667.21, 26436.93, -12459.40, 6456.21, -766.22, 35330.06, -2558.29, -187500.02, 0.00, 0.00, 0.00
240, 32772.75, 26384.45, -12524.06, 6408.60, -801.24, 35797.77, -2636.88, -187500.02, 0.05, 0.91, 0.40
241, 32833.68, 26385.85, -12540.40, 6382.34, -828.40, 35927.12, -2665.38, -187500.02, 0.00, 0.00, 0.00
242, 32747.27, 26424.52, -12487.36, 6421.61, -796.30, 35524.25, -2632.28, -187500.02, 0.00, 0.00, 0.00
243, 32653.26, 26415.58, -12477.39, 6437.10, -791.36, 35288.78, -2609.21, -187500.02, 0.00, 0.00, 0.00
244, 32732.70, 26366.88, -12529.18, 6406.84, -821.85, 35690.66, -2637.51, -187500.02, 0.00, 0.00, 0.00
245, 32829.46, 26362.83, -12545.27, 6380.66, -835.87, 35972.47, -2648.84, -187500.02, 0.00, 0.00, 0.00
246, 32764.77, 26408.45, -12490.29, 6419.09, -802.54, 35614.06, -2610.91, -187500.02, 0.00, 0.00, 0.00
247, 32664.99, 26420.30, -12462.55, 6442.60, -786.83, 35303.82, -2555.45, -187500.02, 0.00, 0.00, 0.00
248, 32712.29, 26373.54, -12501.69, 6410.44, -791.77, 35582.10, -2601.30, -187500.02, 0.00, 0.00, 0.00
249, 32818.62, 26340.26, -12546.62, 6363.38, -834.10, 35957.94, -2706.26, -187500.02, 0.05, 0.91, 0.39
250, 32772.71, 26377.49, -12505.71, 6386.56, -817.22, 35667.08, -2625.12, -187500.02, 0.00, 0.00, 0.00
251, 32673.09, 26409.12, -12461.28, 6429.37, -778.33, 35305.38, -2532.18, -187500.02, 0.00, 0.00, 0.00
252, 32685.13, 26369.40, -12494.83, 6415.46, -792.28, 35474.88, -2588.15, -187500.02, 0.00, 0.00, 0.00
253, 32815.87, 26335.49, -12545.74, 6374.34, -829.52, 35957.77, -2638.76, -187500.02, 0.00, 0.00, 0.00
254, 32796.73, 26366.83, -12522.47, 6389.07, -829.29, 35764.33, -2631.85, -187500.02, 0.00, 0.00, 0.00
255, 32686.43, 26392.65, -12484.03, 6427.69, -800.53, 35360.97, -2575.12, -187500.02, 0.00, 0.00, 0.00
0, 32667.81, 26365.74, -12490.36, 6420.78, -797.24, 35396.85, -2586.32, -187500.02, 0.00, 0.00, 0.00
1, 32800.20, 26328.39, -12535.95, 6375.75, -828.89, 35896.39, -2668.66, -187500.02, 0.00, 0.00, 0.00
2, 32808.70, 26348.50, -12530.59, 6376.26, -826.93, 35816.79, -2646.36, -187500.02, 0.00, 0.00, 0.00
3, 32707.82, 26389.77, -12475.09, 6427.87, -786.89, 35416.88, -2579.21, -187500.02, 0.05, 0.92, 0.39
4, 32658.15, 26372.69, -12480.97, 6425.41, -786.27, 35340.59, -2605.25, -187500.02, 0.00, 0.00, 0.00
5, 32774.45, 26320.65, -12544.04, 6377.15, -828.60, 35848.26, -2653.62, -187500.02, 0.00, 0.00, 0.00
6, 32819.63, 26343.29, -12536.06, 6378.49, -835.31, 35896.74, -2620.23, -187500.02, 0.00, 0.00, 0.00
7, 32725.30, 26384.91, -12484.59, 6421.97, -793.06, 35493.88, -2541.48, -187500.02, 0.00, 0.00, 0.00
8, 32658.31, 26386.79, -12471.18, 6442.53, -774.64, 35327.67, -2536.79, -187500.02, 0.00, 0.00, 0.00
9, 32754.65, 26329.86, -12530.97, 6389.00, -817.14, 35775.71, -2643.88, -187500.02, 0.00, 0.00, 0.00
10, 32826.17, 26330.85, -12542.39, 6360.95, -845.57, 35937.74, -2658.14, -187500.02, 0.00, 0.00, 0.00
11, 32746.49, 26371.50, -12492.26, 6395.08, -812.71, 35543.21, -2591.39, -187500.02, 0.00, 0.00, 0.00
12, 32659.03, 26381.12, -12471.51, 6424.58, -798.78, 35296.71, -2581.45, -187500.02, 0.00, 0.00, 0.00
13, 32735.98, 26344.39, -12521.02, 6404.36, -818.74, 35671.35, -2610.93, -187500.02, 0.05, 0.92, 0.39
14, 32832.75, 26330.82, -12549.63, 6366.31, -841.81, 35978.46, -2630.29, -187500.02, 0.00, 0.00, 0.00
15, 32761.64, 26367.03, -12493.40, 6393.60, -811.35, 35634.04, -2590.54, -187500.02, 0.00, 0.00, 0.00
16, 32658.20, 26378.32, -12473.82, 6425.08, -796.03, 35304.20, -2577.47, -187500.02, 0.00, 0.00, 0.00
17, 32707.06, 26341.33, -12514.63, 6410.77, -805.24, 35560.91, -2599.15, -187500.02, 0.00, 0.00, 0.00
18, 32824.47, 26317.59, -12553.32, 6358.91, -846.04, 35962.35, -2646.13, -187500.02, 0.00, 0.00, 0.00
19, 32783.35, 26358.45, -12512.08, 6387.86, -823.89, 35694.91, -2610.37, -187500.02, 0.00, 0.00, 0.00
20, 32671.83, 26378.37, -12477.79, 6424.58, -792.95, 35332.41, -2561.64, -187500.02, 0.00, 0.00, 0.00
21, 32678.12, 26343.63, -12503.27, 6407.28, -803.19, 35456.04, -2603.04, -187500.02, 0.00, 0.00, 0.00
22, 32804.47, 26302.21, -12560.05, 6355.94, -850.51, 35938.88, -2670.27, -187500.02, 0.00, 0.00, 0.00
23, 32796.67, 26338.42, -12530.86, 6374.85, -841.81, 35777.03, -2624.25, -187500.02, 0.04, 0.92, 0.39
24, 32687.26, 26370.39, -12485.75, 6406.84, -807.30, 35373.33, -2571.97, -187500.02, 0.00, 0.00, 0.00
25, 32664.99, 26355.57, -12495.23, 6401.29, -808.42, 35391.50, -2608.72, -187500.02, 0.00, 0.00, 0.00
26, 32791.82, 26310.15, -12554.33, 6357.13, -845.41, 35896.21, -2653.15, -187500.02, 0.00, 0.00, 0.00
27, 32808.56, 26324.92, -12543.28, 6348.97, -848.18, 35831.68, -2626.87, -187500.02, 0.00, 0.00, 0.00
28, 32708.49, 26362.90, -12500.24, 6389.85, -825.72, 35427.60, -2618.22, -187500.02, 0.00, 0.00, 0.00
29, 32651.67, 26356.60, -12500.84, 6410.73, -812.62, 35343.79, -2582.45, -187500.02, 0.00, 0.00, 0.00
30, 32762.74, 26307.09, -12558.42, 6368.82, -842.46, 35833.18, -2641.91, -187500.02, 0.00, 0.00, 0.00
31, 32809.63, 26321.99, -12557.03, 6365.91, -855.85, 35898.89, -2636.72, -187500.02, 0.00, 0.00, 0.00
32, 32722.42, 26370.83, -12511.97, 6418.91, -821.69, 35513.03, -2569.42, -187500.02, 0.00, 0.00, 0.00
33, 32644.21, 26371.39, -12499.30, 6440.27, -801.82, 35330.17, -2549.89, -187500.02, 0.04, 0.91, 0.39
34, 32739.67, 26325.95, -12545.85, 6408.67, -828.45, 35770.99, -2627.25, -187500.02, 0.00, 0.00, 0.00
35, 32815.18, 26325.19, -12575.34, 6389.54, -856.63, 35978.84, -2636.90, -187500.02, 0.00, 0.00, 0.00
36, 32736.83, 26366.07, -12533.41, 6419.53, -829.41, 35593.16, -2584.67, -187500.02, 0.00, 0.00, 0.00
37, 32652.39, 26381.72, -12509.76, 6440.12, -805.49, 35320.80, -2555.05, -187500.02, 0.00, 0.00, 0.00
38, 32724.74, 26341.55, -12551.80, 6413.79, -820.91, 35668.29, -2612.32, -187500.02, 0.00, 0.00, 0.00
39, 32828.30, 26328.59, -12580.14, 6380.89, -853.57, 35992.57, -2662.50, -187500.02, 0.00, 0.00, 0.00
40, 32778.68, 26375.97, -12531.46, 6410.77, -829.27, 35657.47, -2611.82, -187500.02, 0.00, 0.00, 0.00
41, 32677.31, 26392.49, -12499.47, 6441.39, -799.12, 35322.55, -2547.99, -187500.02, 0.00, 0.00, 0.00
42, 32708.38, 26352.88, -12536.44, 6418.28, -807.66, 35548.62, -2585.94, -187500.02, 0.04, 0.91, 0.40
43, 32825.17, 26317.88, -12589.87, 6367.54, -855.71, 35974.04, -2660.77, -187500.02, 0.00, 0.00, 0.00
44, 32797.12, 26357.31, -12555.47, 6388.15, -851.13, 35719.79, -2630.71, -187500.02, 0.00, 0.00, 0.00
45, 32702.75, 26394.75, -12507.28, 6431.65, -814.52, 35344.66, -2565.49, -187500.02, 0.00, 0.00, 0.00
46, 32713.25, 26375.88, -12524.60, 6432.54, -812.80, 35459.43, -2553.82, -187500.02, 0.00, 0.00, 0.00
47, 32846.40, 26343.68, -12578.56, 6387.64, -847.73, 35946.14, -2612.11, -187500.02, 0.00, 0.00, 0.00
48, 32836.63, 26367.17, -12564.94, 6375.86, -855.42, 35789.95, -2620.21, -187500.02, 0.00, 0.00, 0.00
49, 32728.29, 26401.46, -12511.63, 6413.74, -824.58, 35372.93, -2579.21, -187500.02, 0.00, 0.00, 0.00
50, 32705.54, 26394.32, -12504.55, 6429.75, -807.99, 35376.75, -2580.20, -187500.02, 0.00, 0.00, 0.00
51, 32834.98, 26344.30, -12570.15, 6382.61, -841.86, 35896.95, -2637.84, -187500.02, 0.00, 0.00, 0.00
52, 32859.10, 26360.89, -12566.73, 6375.05, -857.52, 35862.57, -2643.54, -187500.02, 0.04, 0.91, 0.39
53, 32759.43, 26400.07, -12518.05, 6417.05, -825.85, 35448.66, -2567.90, -187500.02, 0.00, 0.00, 0.00
54, 32704.80, 26395.46, -12513.53, 6434.04, -818.16, 35335.60, -2562.76, -187500.02, 0.00, 0.00, 0.00
55, 32828.16, 26356.15, -12565.75, 6398.25, -852.50, 35827.12, -2622.24, -187500.02, 0.00, 0.00, 0.00
56, 32882.50, 26366.70, -12569.82, 6382.96, -865.15, 35918.09, -2637.28, -187500.02, 0.00, 0.00, 0.00
57, 32790.72, 26408.79, -12516.06, 6423.31, -833.23, 35500.67, -2587.17, -187500.02, 0.00, 0.00, 0.00
58, 32711.08, 26411.89, -12510.14, 6445.42, -827.71, 35314.35, -2564.42, -187500.02, 0.00, 0.00, 0.00
59, 32802.73, 26368.02, -12564.05, 6411.73, -850.57, 35744.04, -2618.71, -187500.02, 0.00, 0.00, 0.00
60, 32885.36, 26361.22, -12588.21, 6380.95, -885.37, 35969.79, -2651.72, -187500.02, 0.00, 0.00, 0.00
61, 32813.34, 26406.26, -12538.39, 6418.59, -858.08, 35594.86, -2600.58, -187500.02, 0.00, 0.00, 0.00
62, 32718.91, 26416.47, -12517.89, 6441.53, -840.25, 35313.83, -2560.62, -187500.02, 0.05, 0.91, 0.39
63, 32779.93, 26376.29, -12564.38, 6415.71, -863.34, 35634.76, -2624.23, -187500.02, 0.00, 0.00, 0.00
64, 32888.87, 26360.55, -12596.03, 6377.98, -897.24, 35977.10, -2654.14, -187500.02, 0.00, 0.00, 0.00
65, 32836.79, 26401.03, -12551.73, 6404.49, -874.78, 35653.80, -2627.22, -187500.02, 0.00, 0.00, 0.00
66, 32729.50, 26414.24, -12521.54, 6435.98, -850.98, 35324.25, -2580.87, -187500.02, 0.00, 0.00, 0.00
67, 32761.80, 26384.36, -12548.29, 6430.22, -859.74, 35541.82, -2600.42, -187500.02, 0.00, 0.00, 0.00
68, 32888.27, 26355.99, -12591.54, 6388.11, -889.89, 35988.70, -2642.29, -187500.02, 0.00, 0.00, 0.00
69, 32863.97, 26394.86, -12552.99, 6405.32, -867.92, 35753.09, -2617.41, -187500.02, 0.00, 0.00, 0.00
70, 32752.14, 26418.49, -12516.91, 6431.00, -851.67, 35357.29, -2587.01, -187500.02, 0.00, 0.00, 0.00
71, 32745.26, 26392.25, -12534.84, 6420.34, -849.23, 35431.49, -2579.23, -187500.02, 0.00, 0.00, 0.00
72, 32876.46, 26352.10, -12588.10, 6375.07, -886.78, 35954.95, -2621.57, -187500.02, 0.05, 0.91, 0.39
73, 32883.82, 26386.93, -12561.57, 6388.71, -878.96, 35833.40, -2624.05, -187500.02, 0.00, 0.00, 0.00
74, 32777.25, 26419.22, -12517.85, 6420.29, -842.33, 35409.99, -2592.96, -187500.02, 0.00, 0.00, 0.00
75, 32742.38, 26408.72, -12513.31, 6424.29, -840.63, 35368.97, -2577.47, -187500.02, 0.00, 0.00, 0.00
76, 32868.38, 26366.03, -12574.67, 6382.18, -880.59, 35882.13, -2651.16, -187500.02, 0.00, 0.00, 0.00
77, 32894.75, 26376.29, -12577.77, 6369.55, -895.10, 35865.47, -2677.05, -187500.02, 0.00, 0.00, 0.00
78, 32797.23, 26410.35, -12525.83, 6411.42, -861.01, 35458.45, -2592.00, -187500.02, 0.00, 0.00, 0.00
79, 32733.21, 26403.09, -12520.08, 6428.76, -853.61, 35335.11, -2595.51, -187500.02, 0.00, 0.00, 0.00
80, 32845.42, 26359.03, -12572.68, 6394.70, -878.65, 35811.76, -2625.86, -187500.02, 0.00, 0.00, 0.00
81, 32907.45, 26367.53, -12575.40, 6372.97, -879.43, 35940.24, -2606.97, -187500.02, 0.06, 0.91, 0.39
82, 32818.30, 26406.10, -12529.85, 6405.12, -851.78, 35536.32, -2592.49, -187500.02, 0.00, 0.00, 0.00
83, 32738.91, 26413.35, -12511.52, 6429.12, -845.07, 35303.39, -2574.21, -187500.02, 0.00, 0.00, 0.00
84, 32825.82, 26365.80, -12569.23, 6392.67, -874.15, 35707.27, -2619.89, -187500.02, 0.00, 0.00, 0.00
85, 32917.66, 26357.67, -12588.55, 6358.80, -883.21, 35967.58, -2656.19, -187500.02, 0.00, 0.00, 0.00
86, 32853.49, 26405.08, -12533.32, 6398.79, -847.85, 35606.13, -2597.32, -187500.02, 0.00, 0.00, 0.00
87, 32761.42, 26426.22, -12507.50, 6435.40, -831.84, 35313.54, -2558.74, -187500.02, 0.00, 0.00, 0.00
88, 32822.82, 26394.68, -12544.69, 6424.27, -845.81, 35607.18, -2635.49, -187500.02, 0.00, 0.00, 0.00
89, 32935.59, 26371.48, -12583.67, 6383.86, -883.54, 35981.93, -2664.01, -187500.02, 0.00, 0.00, 0.00
90, 32898.32, 26422.55, -12536.56, 6423.56, -856.00, 35694.91, -2581.58, -187500.02, 0.00, 0.00, 0.00
91, 32792.09, 26441.17, -12492.95, 6455.50, -837.43, 35348.32, -2558.54, -187500.02, 0.05, 0.91, 0.39
92, 32812.56, 26407.20, -12524.22, 6436.32, -846.73, 35513.88, -2620.03, -187500.02, 0.00, 0.00, 0.00
93, 32928.86, 26361.94, -12588.79, 6380.26, -890.07, 35964.38, -2708.38, -187500.02, 0.00, 0.00, 0.00
94, 32900.70, 26389.41, -12564.09, 6391.24, -887.14, 35755.86, -2649.64, -187500.02, 0.00, 0.00, 0.00
95, 32786.45, 26414.38, -12520.22, 6419.11, -844.18, 35363.34, -2603.22, -187500.02, 0.00, 0.00, 0.00
96, 32763.70, 26384.45, -12540.07, 6405.83, -844.45, 35408.18, -2617.03, -187500.02, 0.00, 0.00, 0.00
97, 32881.74, 26329.37, -12605.91, 6342.17, -886.18, 35898.22, -2672.08, -187500.02, 0.00, 0.00, 0.00
98, 32900.67, 26364.13, -12577.35, 6352.14, -880.84, 35799.67, -2646.20, -187500.02, 0.00, 0.00, 0.00
99, 32803.38, 26407.31, -12527.95, 6402.46, -845.61, 35406.73, -2588.47, -187500.02, 0.00, 0.00, 0.00
100, 32757.33, 26392.69, -12533.63, 6407.26, -837.12, 35346.42, -2573.16, -187500.02, 0.00, 0.00, 0.00
101, 32882.07, 26347.90, -12592.77, 6359.67, -876.21, 35841.16, -2649.44, -187500.02, 0.04, 0.91, 0.40
102, 32918.60, 26361.06, -12585.53, 6346.40, -883.25, 35856.18, -2663.64, -187500.02, 0.00, 0.00, 0.00
103, 32819.58, 26397.83, -12536.89, 6392.84, -850.13, 35457.38, -2601.92, -187500.02, 0.00, 0.00, 0.00
104, 32757.33, 26404.34, -12520.37, 6422.42, -830.21, 35308.85, -2573.29, -187500.02, 0.00, 0.00, 0.00
105, 32860.57, 26352.77, -12582.18, 6374.96, -862.80, 35779.35, -2620.94, -187500.02, 0.00, 0.00, 0.00
106, 32930.11, 26356.37, -12597.91, 6350.31, -891.75, 35935.28, -2632.63, -187500.02, 0.00, 0.00, 0.00
107, 32847.16, 26396.94, -12552.58, 6383.28, -859.22, 35543.23, -2597.09, -187500.02, 0.00, 0.00, 0.00
108, 32764.48, 26406.55, -12528.13, 6408.22, -839.29, 35294.25, -2581.65, -187500.02, 0.00, 0.00, 0.00
109, 32846.40, 26362.07, -12577.84, 6375.81, -862.71, 35674.30, -2626.42, -187500.02, 0.00, 0.00, 0.00
110, 32944.19, 26353.87, -12608.24, 6343.47, -897.62, 35960.74, -2652.08, -187500.02, 0.00, 0.00, 0.00
111, 32881.67, 26397.21, -12556.85, 6376.95, -872.08, 35613.26, -2608.65, -187500.02, 0.04, 0.91, 0.40
112, 32784.80, 26416.07, -12525.07, 6412.40, -847.27, 35307.13, -2575.19, -187500.02, 0.00, 0.00, 0.00
113, 32830.93, 26379.19, -12563.22, 6395.06, -858.71, 35573.87, -2636.41, -187500.02, 0.00, 0.00, 0.00
114, 32943.63, 26353.09, -12610.05, 6348.48, -901.20, 35961.86, -2676.46, -187500.02, 0.00, 0.00, 0.00
115, 32901.45, 26395.15, -12566.04, 6376.89, -874.04, 35679.11, -2605.03, -187500.02, 0.00, 0.00, 0.00
116, 32794.55, 26418.33, -12523.06, 6411.13, -845.30, 35319.98, -2542.82, -187500.02, 0.00, 0.00, 0.00
117, 32811.69, 26390.77, -12552.05, 6393.56, -847.44, 35468.29, -2595.22, -187500.02, 0.00, 0.00, 0.00
118, 32936.55, 26349.46, -12617.74, 6336.34, -899.57, 35937.54, -2663.61, -187500.02, 0.00, 0.00, 0.00
119, 32919.63, 26380.20, -12591.54, 6350.56, -899.84, 35752.46, -2638.20, -187500.02, 0.00, 0.00, 0.00
120, 32816.00, 26417.64, -12539.48, 6399.51, -853.88, 35364.64, -2568.24, -187500.02, 0.00, 0.00, 0.00
121, 32800.09, 26401.75, -12549.14, 6405.03, -842.33, 35395.73, -2580.69, -187500.02, 0.04, 0.91, 0.40
122, 32929.62, 26357.20, -12611.14, 6357.55, -884.59, 35897.26, -2647.36, -187500.02, 0.00, 0.00, 0.00
123, 32945.60, 26381.16, -12594.51, 6363.45, -888.79, 35832.04, -2641.93, -187500.02, 0.00, 0.00, 0.00
124, 32847.92, 26421.37, -12542.28, 6415.82, -849.17, 35440.25, -2584.53, -187500.02, 0.00, 0.00, 0.00
125, 32798.75, 26406.66, -12548.58, 6417.10, -842.86, 35346.64, -2590.84, -187500.02, 0.00, 0.00, 0.00
126, 32918.62, 26351.57, -12616.17, 6361.82, -888.53, 35838.90, -2634.87, -187500.02, 0.00, 0.00, 0.00
127, 32974.54, 26373.00, -12604.64, 6361.57, -890.54, 35908.16, -2615.51, -187500.02, 0.00, 0.00, 0.00
128, 32882.52, 26414.17, -12551.33, 6404.58, -850.10, 35498.86, -2567.68, -187500.02, 0.00, 0.00, 0.00
129, 32810.32, 26415.42, -12536.24, 6420.47, -832.92, 35306.99, -2563.36, -187500.02, 0.00, 0.00, 0.00
130, 32907.15, 26368.53, -12591.47, 6381.60, -856.79, 35746.92, -2620.27, -187500.02, 0.04, 0.91, 0.39
131, 32976.20, 26365.65, -12612.89, 6353.08, -887.07, 35930.05, -2667.05, -187500.02, 0.00, 0.00, 0.00
132, 32898.28, 26409.30, -12562.04, 6396.38, -860.23, 35560.64, -2590.01, -187500.02, 0.00, 0.00, 0.00
133, 32815.22, 26423.07, -12533.63, 6432.25, -831.06, 35313.99, -2548.97, -187500.02, 0.00, 0.00, 0.00
134, 32884.69, 26374.25, -12583.07, 6400.62, -857.84, 35663.57, -2605.34, -187500.02, 0.00, 0.00, 0.00
135, 32983.20, 26356.17, -12613.78, 6360.01, -899.28, 35971.06, -2673.94, -187500.02, 0.00, 0.00, 0.00
136, 32930.89, 26406.24, -12561.88, 6401.00, -870.78, 35648.68, -2616.43, -187500.02, 0.00, 0.00, 0.00
137, 32831.09, 26426.00, -12529.18, 6434.91, -847.44, 35325.39, -2573.89, -187500.02, 0.00, 0.00, 0.00
138, 32865.94, 26386.26, -12566.98, 6415.15, -846.42, 35567.93, -2573.40, -187500.02, 0.00, 0.00, 0.00
139, 32982.14, 26356.93, -12608.33, 6364.23, -879.90, 35979.29, -2636.77, -187500.02, 0.00, 0.00, 0.00
140, 32948.66, 26394.86, -12563.29, 6389.11, -873.39, 35732.68, -2613.84, -187500.02, 0.04, 0.92, 0.40
141, 32847.65, 26425.86, -12530.14, 6435.00, -843.69, 35366.16, -2555.83, -187500.02, 0.00, 0.00, 0.00
142, 32852.28, 26393.52, -12560.43, 6426.71, -849.72, 35473.78, -2593.83, -187500.02, 0.00, 0.00, 0.00
143, 32982.03, 26352.79, -12613.42, 6374.99, -891.90, 35950.99, -2671.08, -187500.02, 0.00, 0.00, 0.00
144, 32976.40, 26385.85, -12586.13, 6389.07, -887.01, 35804.70, -2633.82, -187500.02, 0.00, 0.00, 0.00
145, 32867.25, 26416.95, -12542.59, 6430.73, -859.89, 35411.62, -2557.42, -187500.02, 0.00, 0.00, 0.00
146, 32839.47, 26397.86, -12551.80, 6428.32, -845.54, 35401.16, -2582.59, -187500.02, 0.00, 0.00, 0.00
147, 32962.36, 26343.61, -12617.58, 6369.84, -884.26, 35911.07, -2662.20, -187500.02, 0.00, 0.00, 0.00
148, 32985.09, 26368.49, -12599.99, 6379.03, -887.65, 35860.55, -2663.08, -187500.02, 0.00, 0.00, 0.00
149, 32888.31, 26409.88, -12547.75, 6429.39, -856.34, 35444.64, -2593.76, -187500.02, 0.00, 0.00, 0.00
150, 32840.95, 26408.36, -12541.56, 6435.83, -845.16, 35347.47, -2569.33, -187500.02, 0.04, 0.91, 0.39
151, 32951.86, 26353.18, -12603.86, 6378.90, -884.75, 35824.91, -2665.09, -187500.02, 0.00, 0.00, 0.00
152, 33002.42, 26360.66, -12606.07, 6365.53, -905.89, 35920.21, -2642.29, -187500.02, 0.00, 0.00, 0.00
153, 32914.24, 26408.65, -12554.91, 6413.03, -871.14, 35529.71, -2582.39, -187500.02, 0.00, 0.00, 0.00
154, 32841.93, 26414.58, -12539.15, 6437.15, -850.06, 35323.33, -2562.54, -187500.02, 0.00, 0.00, 0.00
155, 32935.76, 26364.42, -12597.98, 6395.46, -882.76, 35744.77, -2648.21, -187500.02, 0.00, 0.00, 0.00
156, 33019.25, 26365.38, -12619.95, 6363.92, -915.73, 35956.27, -2675.59, -187500.02, 0.00, 0.00, 0.00
157, 32952.04, 26414.87, -12565.01, 6404.31, -880.21, 35589.52, -2581.36, -187500.02, 0.00, 0.00, 0.00
158, 32856.08, 26420.32, -12545.94, 6427.06, -858.17, 35310.43, -2529.10, -187500.02, 0.00, 0.00, 0.00
159, 32914.30, 26371.50, -12582.40, 6391.32, -880.01, 35630.67, -2619.13, -187500.02, 0.00, 0.00, 0.00
160, 33020.07, 26352.62, -12616.80, 6357.37, -917.56, 35978.53, -2673.51, -187500.02, 0.05, 0.90, 0.39
161, 32960.69, 26384.80, -12584.61, 6378.36, -904.98, 35665.74, -2635.45, -187500.02, 0.00, 0.00, 0.00
162, 32858.98, 26404.47, -12548.69, 6411.91, -874.94, 35329.75, -2567.81, -187500.02, 0.00, 0.00, 0.00
163, 32894.61, 26371.82, -12574.71, 6396.80, -871.56, 35531.56, -2588.24, -187500.02, 0.00, 0.00, 0.00
164, 33021.13, 26344.64, -12624.80, 6351.67, -906.12, 35962.68, -2652.17, -187500.02, 0.00, 0.00, 0.00
165, 32994.23, 26383.28, -12598.94, 6376.21, -894.65, 35735.81, -2612.25, -187500.02, 0.00, 0.00, 0.00
166, 32889.41, 26408.90, -12559.20, 6413.50, -864.16, 35357.84, -2562.09, -187500.02, 0.00, 0.00, 0.00
167, 32888.91, 26384.09, -12575.47, 6412.80, -862.91, 35449.78, -2585.29, -187500.02, 0.00, 0.00, 0.00
168, 33014.06, 26339.54, -12636.94, 6358.65, -915.21, 35941.78, -2665.89, -187500.02, 0.00, 0.00, 0.00
169, 33009.43, 26361.51, -12617.27, 6358.80, -920.96, 35816.68, -2642.78, -187500.02, 0.04, 0.91, 0.39
170, 32902.28, 26392.74, -12567.98, 6396.35, -880.90, 35408.85, -2590.81, -187500.02, 0.00, 0.00, 0.00
171, 32865.38, 26372.06, -12576.61, 6395.91, -871.14, 35366.61, -2607.06, -187500.02, 0.00, 0.00, 0.00
172, 32990.48, 26323.16, -12640.92, 6347.87, -916.76, 35872.22, -2658.78, -187500.02, 0.00, 0.00, 0.00
173, 33030.65, 26352.24, -12623.55, 6354.78, -911.82, 35883.87, -2616.47, -187500.02, 0.00, 0.00, 0.00
174, 32938.13, 26396.61, -12567.09, 6400.22, -862.15, 35478.59, -2564.57, -187500.02, 0.00, 0.00, 0.00
175, 32872.80, 26386.30, -12565.35, 6406.59, -854.15, 35334.66, -2574.07, -187500.02, 0.00, 0.00, 0.00
176, 32978.46, 26329.97, -12629.43, 6350.00, -898.29, 35798.38, -2637.28, -187500.02, 0.00, 0.00, 0.00
177, 33044.84, 26342.94, -12635.42, 6337.32, -918.59, 35922.79, -2659.88, -187500.02, 0.00, 0.00, 0.00
178, 32959.79, 26384.51, -12580.88, 6378.03, -891.41, 35522.53, -2602.39, -187500.02, 0.00, 0.00, 0.00
179, 32884.45, 26397.07, -12545.54, 6408.51, -874.53, 35309.45, -2576.04, -187500.02, 0.05, 0.90, 0.39
180, 32973.38, 26349.33, -12607.90, 6375.86, -901.02, 35730.67, -2604.29, -187500.02, 0.00, 0.00, 0.00
181, 33067.37, 26349.69, -12627.60, 6350.42, -919.62, 35976.65, -2634.69, -187500.02, 0.00, 0.00, 0.00
182, 32993.81, 26386.03, -12591.16, 6378.14, -900.75, 35617.48, -2603.44, -187500.02, 0.00, 0.00, 0.00
183, 32899.71, 26401.99, -12562.04, 6408.16, -877.51, 35324.72, -2555.23, -187500.02, 0.00, 0.00, 0.00
184, 32959.34, 26364.26, -12602.79, 6382.56, -892.89, 35630.87, -2610.66, -187500.02, 0.00, 0.00, 0.00
185, 33068.11, 26341.46, -12644.74, 6336.21, -929.70, 35987.94, -2671.57, -187500.02, 0.00, 0.00, 0.00
186, 33019.09, 26383.28, -12597.49, 6364.35, -906.30, 35690.08, -2617.55, -187500.02, 0.00, 0.00, 0.00
187, 32914.24, 26404.36, -12561.34, 6399.04, -878.33, 35334.98, -2594.68, -187500.02, 0.00, 0.00, 0.00
188, 32940.95, 26370.95, -12588.88, 6393.96, -884.17, 35510.98, -2616.36, -187500.02, 0.00, 0.00, 0.00
189, 33068.93, 26340.03, -12638.73, 6342.04, -927.80, 35966.37, -2677.11, -187500.02, 0.05, 0.90, 0.39
190, 33048.26, 26374.72, -12608.69, 6352.19, -926.10, 35750.34, -2646.13, -187500.02, 0.00, 0.00, 0.00
191, 32944.39, 26406.42, -12561.48, 6395.19, -885.71, 35371.77, -2579.35, -187500.02, 0.00, 0.00, 0.00
192, 32929.75, 26379.95, -12575.47, 6393.25, -875.18, 35446.22, -2572.86, -187500.02, 0.00, 0.00, 0.00
193, 33059.37, 26337.62, -12628.85, 6346.11, -917.29, 35948.42, -2640.64, -187500.02, 0.00, 0.00, 0.00
194, 33059.26, 26359.05, -12616.13, 6342.78, -926.19, 35837.02, -2655.43, -187500.02, 0.00, 0.00, 0.00
195, 32946.38, 26388.18, -12570.42, 6381.11, -888.06, 35425.64, -2587.08, -187500.02, 0.00, 0.00, 0.00
196, 32908.65, 26372.51, -12576.70, 6387.23, -883.10, 35377.87, -2568.98, -187500.02, 0.00, 0.00, 0.00
197, 33038.07, 26330.42, -12622.97, 6339.27, -910.25, 35880.20, -2642.74, -187500.02, 0.00, 0.00, 0.00
198, 33070.63, 26346.74, -12619.79, 6328.11, -929.54, 35887.18, -2661.15, -187500.02, 0.00, 0.00, 0.00
199, 32974.59, 26389.27, -12574.87, 6371.10, -894.05, 35471.34, -2599.02, -187500.02, 0.05, 0.91, 0.39
200, 32907.89, 26384.65, -12568.45, 6386.99, -881.15, 35322.30, -2590.66, -187500.02, 0.00, 0.00, 0.00
201, 33018.15, 26341.84, -12623.44, 6352.28, -915.73, 35789.75, -2638.27, -187500.02, 0.00, 0.00, 0.00
202, 33095.73, 26358.25, -12625.99, 6341.30, -935.24, 35945.27, -2638.69, -187500.02, 0.00, 0.00, 0.00
203, 33016.72, 26407.20, -12572.99, 6388.11, -903.90, 35554.56, -2585.29, -187500.02, 0.00, 0.00, 0.00
204, 32931.25, 26415.02, -12553.34, 6407.71, -887.90, 35314.59, -2572.08, -187500.02, 0.00, 0.00, 0.00
205, 33011.71, 26369.96, -12600.95, 6369.40, -905.45, 35689.32, -2611.53, -187500.02, 0.00, 0.00, 0.00
206, 33099.60, 26350.31, -12631.57, 6332.65, -937.25, 35976.00, -2662.90, -187500.02, 0.00, 0.00, 0.00
207, 33032.84, 26386.97, -12581.86, 6364.28, -914.83, 35632.10, -2606.01, -187500.02, 0.00, 0.00, 0.00
208, 32930.02, 26402.33, -12552.78, 6391.32, -889.85, 35315.04, -2566.05, -187500.02, 0.00, 0.00, 0.00
209, 32970.18, 26353.96, -12609.89, 6361.15, -915.33, 35579.19, -2633.01, -187500.02, 0.04, 0.92, 0.39
210, 33082.39, 26329.37, -12654.37, 6321.05, -949.03, 35976.23, -2675.55, -187500.02, 0.00, 0.00, 0.00
211, 33046.34, 26376.11, -12591.27, 6350.20, -917.02, 35697.70, -2628.95, -187500.02, 0.00, 0.00, 0.00
212, 32943.12, 26399.82, -12553.66, 6390.10, -891.01, 35349.98, -2578.09, -187500.02, 0.00, 0.00, 0.00
213, 32959.93, 26368.46, -12586.85, 6377.13, -885.20, 35502.64, -2588.26, -187500.02, 0.00, 0.00, 0.00
214, 33083.22, 26331.40, -12639.96, 6327.58, -920.13, 35965.70, -2627.38, -187500.02, 0.00, 0.00, 0.00
215, 33059.66, 26359.57, -12621.29, 6333.34, -929.18, 35774.12, -2627.58, -187500.02, 0.00, 0.00, 0.00
216, 32957.40, 26396.54, -12570.75, 6373.09, -892.04, 35370.11, -2597.99, -187500.02, 0.00, 0.00, 0.00
217, 32937.66, 26372.24, -12587.97, 6372.42, -897.44, 35394.75, -2608.87, -187500.02, 0.00, 0.00, 0.00
218, 33069.07, 26328.63, -12644.76, 6329.92, -931.75, 35911.79, -2643.05, -187500.02, 0.04, 0.92, 0.39
219, 33082.12, 26349.67, -12627.10, 6327.20, -935.38, 35842.14, -2624.14, -187500.02, 0.00, 0.00, 0.00
220, 32975.26, 26384.20, -12581.71, 6364.26, -900.86, 35433.53, -2605.39, -187500.02, 0.00, 0.00, 0.00
221, 32923.80, 26370.39, -12585.73, 6366.11, -894.34, 35347.76, -2618.37, -187500.02, 0.00, 0.00, 0.00
222, 33048.82, 26325.04, -12645.59, 6318.39, -932.02, 35836.98, -2654.69, -187500.02, 0.00, 0.00, 0.00
223, 33099.18, 26346.96, -12638.50, 6314.99, -939.20, 35888.77, -2639.94, -187500.02, 0.00, 0.00, 0.00
224, 33006.11, 26388.36, -12585.51, 6359.90, -905.29, 35496.76, -2587.08, -187500.02, 0.00, 0.00, 0.00
225, 32929.21, 26378.61, -12581.71, 6366.74, -895.86, 35309.56, -2600.76, -187500.02, 0.00, 0.00, 0.00
226, 33027.18, 26328.10, -12637.97, 6326.93, -926.99, 35753.31, -2657.02, -187500.02, 0.00, 0.00, 0.00
227, 33102.33, 26335.34, -12652.63, 6310.95, -948.21, 35941.78, -2646.02, -187500.02, 0.00, 0.00, 0.00
228, 33017.91, 26373.02, -12602.65, 6341.97, -923.17, 35557.73, -2593.96, -187500.02, 0.05, 0.91, 0.40
229, 32931.63, 26384.54, -12573.10, 6365.13, -907.41, 35290.00, -2584.40, -187500.02, 0.00, 0.00, 0.00
230, 33007.38, 26339.27, -12632.87, 6329.03, -929.81, 35659.12, -2648.03, -187500.02, 0.00, 0.00, 0.00
231, 33107.16, 26328.54, -12659.74, 6291.99, -953.73, 35972.74, -2660.46, -187500.02, 0.00, 0.00, 0.00
232, 33045.69, 26372.29, -12612.71, 6328.67, -931.06, 35639.14, -2638.36, -187500.02, 0.00, 0.00, 0.00
233, 32941.89, 26386.86, -12584.37, 6354.33, -903.37, 35315.93, -2618.93, -187500.02, 0.00, 0.00, 0.00
234, 32990.23, 26354.92, -12605.71, 6341.32, -894.43, 35554.58, -2614.08, -187500.02, 0.00, 0.00, 0.00
235, 33109.57, 26328.81, -12646.64, 6301.36, -931.31, 35961.65, -2640.03, -187500.02, 0.00, 0.00, 0.00
236, 33066.63, 26359.63, -12621.90, 6314.90, -933.32, 35718.55, -2602.61, -187500.02, 0.00, 0.00, 0.00
237, 32956.95, 26381.38, -12585.42, 6350.67, -908.69, 35354.00, -2570.25, -187500.02, 0.00, 0.00, 0.00
238, 32967.32, 26355.41, -12603.90, 6346.80, -910.43, 35470.38, -2616.52, -187500.02, 0.04, 0.91, 0.40
239, 33096.76, 26320.52, -12657.26, 6296.91, -945.48, 35945.96, -2692.60, -187500.02, 0.00, 0.00, 0.00
240, 33090.95, 26360.06, -12625.07, 6313.00, -932.43, 35780.18, -2638.62, -187500.02, 0.00, 0.00, 0.00
241, 32983.08, 26389.63, -12576.34, 6354.33, -907.55, 35389.94, -2598.66, -187500.02, 0.00, 0.00, 0.00
242, 32958.27, 26372.91, -12587.83, 6357.55, -909.96, 35396.85, -2636.03, -187500.02, 0.00, 0.00, 0.00
243, 33088.45, 26332.68, -12653.84, 6308.11, -946.69, 35904.70, -2692.67, -187500.02, 0.00, 0.00, 0.00
244, 33108.66, 26354.76, -12629.56, 6308.11, -948.65, 35859.08, -2639.43, -187500.02, 0.00, 0.00, 0.00
245, 33006.33, 26392.38, -12581.13, 6346.00, -913.11, 35431.94, -2581.65, -187500.02, 0.00, 0.00, 0.00
246, 32952.64, 26385.74, -12579.09, 6360.05, -898.96, 35322.97, -2583.21, -187500.02, 0.00, 0.00, 0.00
247, 33065.29, 26330.42, -12640.60, 6311.57, -935.22, 35824.75, -2658.83, -187500.02, 0.00, 0.00, 0.00
248, 33107.31, 26339.65, -12643.26, 6295.41, -951.94, 35906.07, -2675.37, -187500.02, 0.04, 0.91, 0.40
249, 33009.19, 26381.61, -12591.12, 6331.58, -919.51, 35503.35, -2602.99, -187500.02, 0.00, 0.00, 0.00
250, 32925.55, 26379.33, -12581.28, 6343.11, -910.07, 35302.81, -2593.23, -187500.02, 0.00, 0.00, 0.00
251, 33020.21, 26335.85, -12633.92, 6310.21, -937.68, 35736.95, -2670.81, -187500.02, 0.00, 0.00, 0.00
252, 33097.41, 26337.37, -12645.70, 6291.03, -958.80, 35956.91, -2690.93, -187500.02, 0.00, 0.00, 0.00
253, 33018.73, 26382.05, -12595.48, 6329.81, -931.96, 35582.55, -2641.06, -187500.02, 0.00, 0.00, 0.00
254, 32926.27, 26397.74, -12568.41, 6360.90, -905.40, 35305.99, -2602.06, -187500.02, 0.00, 0.00, 0.00
255, 32986.28, 26349.67, -12618.57, 6325.95, -924.87, 35638.47, -2666.41, -187500.02, 0.00, 0.00, 0.00
0, 33088.49, 26333.73, -12654.13, 6288.53, -957.33, 35973.48, -2696.67, -187500.02, 0.00, 0.00, 0.00
1, 33031.50, 26372.51, -12613.89, 6317.30, -934.12, 35657.20, -2625.37, -187500.02, 0.05, 0.91, 0.40
2, 32928.30, 26391.93, -12583.27, 6345.95, -910.32, 35320.32, -2580.33, -187500.02, 0.00, 0.00, 0.00
3, 32964.33, 26361.78, -12603.77, 6336.59, -918.90, 35522.93, -2633.86, -187500.02, 0.00, 0.00, 0.00
4, 33087.87, 26334.13, -12649.66, 6284.17, -961.42, 35953.14, -2688.91, -187500.02, 0.00, 0.00, 0.00
5, 33053.36, 26364.37, -12627.95, 6292.35, -963.32, 35723.00, -2652.26, -187500.02, 0.00, 0.00, 0.00
6, 32943.74, 26390.46, -12585.95, 6332.05, -929.30, 35343.27, -2586.90, -187500.02, 0.00, 0.00, 0.00
7, 32944.57, 26367.26, -12602.23, 6336.59, -922.84, 35441.33, -2615.94, -187500.02, 0.00, 0.00, 0.00
8, 33078.28, 26329.15, -12655.09, 6294.01, -967.63, 35939.68, -2668.49, -187500.02, 0.00, 0.00, 0.00
9, 33075.48, 26361.15, -12630.90, 6303.33, -956.03, 35807.14, -2648.37, -187500.02, 0.00, 0.00, 0.00
0, 32398.27, 25633.20, -13337.55, 5608.86, -1635.57, 36038.59, -3351.06, 0.00, 0.05, 0.91, 0.40
1, 32593.00, 25769.77, -13213.52, 5723.23, -1517.33, 36152.22, -3203.79, 0.00, 0.00, 0.00, 0.00
2, 32599.37, 25910.99, -13064.55, 5859.53, -1386.59, 35717.84, -3042.77, 0.00, 0.00, 0.00, 0.00
3, 32578.83, 26001.96, -12962.98, 5964.74, -1295.15, 35413.12, -2948.02, 0.00, 0.00, 0.00, 0.00
4, 32705.03, 26026.30, -12948.90, 6000.68, -1261.67, 35720.84, -2987.38, 0.00, 0.00, 0.00, 0.00
5, 32851.83, 26068.06, -12936.12, 6017.49, -1248.55, 36025.58, -2975.44, 0.00, 0.05, 0.92, 0.40
6, 32834.02, 26153.73, -12852.12, 6093.64, -1183.01, 35695.54, -2822.71, 0.00, 0.00, 0.00, 0.00
7, 32757.69, 26197.50, -12789.94, 6141.95, -1129.77, 35347.29, -2794.35, 0.00, 0.00, 0.00, 0.00
8, 32814.95, 26182.99, -12785.78, 6146.08, -1109.27, 35561.76, -2832.46, 0.00, 0.00, 0.00, 0.00
9, 32952.64, 26175.43, -12819.37, 6124.47, -1133.21, 35985.75, -2862.32, 0.00, 0.00, 0.00, 0.00
10, 32935.72, 26229.57, -12774.96, 6156.25, -1109.76, 35730.54, -2795.04, 0.00, 0.00, 0.00, 0.00
11, 32835.36, 26261.35, -12727.89, 6193.56, -1068.70, 35350.02, -2745.11, 0.00, 0.00, 0.00, 0.00
12, 32844.34, 26246.40, -12734.84, 6191.05, -1049.44, 35443.11, -2749.60, 0.00, 0.00, 0.00, 0.00
13, 32981.14, 26216.61, -12780.39, 6148.70, -1079.16, 35926.67, -2812.41, 0.00, 0.00, 0.00, 0.00
14, 32981.32, 26250.58, -12749.39, 6163.85, -1071.39, 35780.65, -2782.23, 0.00, 0.00, 0.00, 0.00
15, 32878.03, 26287.28, -12696.66, 6206.43, -1030.46, 35375.23, -2731.25, 0.00, 0.04, 0.92, 0.40
16, 32853.00, 26275.35, -12698.20, 6217.16, -1013.90, 35360.32, -2684.65, 0.00, 0.00, 0.00, 0.00
17, 32991.06, 26240.70, -12747.24, 6177.82, -1045.75, 35870.41, -2746.07, 0.00, 0.00, 0.00, 0.00
18, 33017.28, 26264.95, -12732.76, 6178.67, -1049.50, 35847.04, -2730.33, 0.00, 0.00, 0.00, 0.00
19, 32922.33, 26309.10, -12673.53, 6231.58, -1001.49, 35438.89, -2661.69, 0.00, 0.00, 0.00, 0.00
20, 32871.17, 26310.48, -12664.86, 6248.65, -986.74, 35323.82, -2658.45, 0.00, 0.00, 0.00, 0.00
21, 32988.89, 26267.79, -12719.06, 6210.52, -1020.78, 35809.30, -2747.70, 0.00, 0.00, 0.00, 0.00
22, 33042.16, 26275.77, -12723.64, 6195.19, -1040.34, 35903.18, -2768.24, 0.00, 0.00, 0.00, 0.00
23, 32951.25, 26318.73, -12668.59, 6237.12, -1001.63, 35506.75, -2660.33, 0.00, 0.00, 0.00, 0.00
24, 32877.70, 26331.49, -12648.90, 6270.25, -980.84, 35306.19, -2627.54, 0.00, 0.00, 0.00, 0.00
25, 32976.22, 26293.29, -12701.89, 6229.68, -1005.78, 35714.38, -2726.18, 0.00, 0.04, 0.92, 0.39
26, 33059.95, 26291.08, -12724.11, 6196.86, -1037.32, 35931.05, -2748.53, 0.00, 0.00, 0.00, 0.00
27, 32983.98, 26328.99, -12668.68, 6231.20, -1006.25, 35565.34, -2656.86, 0.00, 0.00, 0.00, 0.00
28, 32888.82, 26339.09, -12651.80, 6255.45, -990.23, 35289.34, -2627.51, 0.00, 0.00, 0.00, 0.00
29, 32952.53, 26303.73, -12697.06, 6232.87, -1007.33, 35603.87, -2715.45, 0.00, 0.00, 0.00, 0.00
30, 33066.61, 26294.52, -12726.12, 6205.56, -1031.38, 35954.59, -2734.60, 0.00, 0.00, 0.00, 0.00
31, 33018.69, 26336.97, -12680.30, 6237.95, -1000.20, 35658.03, -2649.04, 0.00, 0.00, 0.00, 0.00
32, 32915.11, 26357.47, -12644.69, 6267.18, -966.13, 35311.26, -2611.15, 0.00, 0.00, 0.00, 0.00
33, 32945.11, 26327.85, -12672.92, 6255.38, -978.81, 35495.22, -2671.15, 0.00, 0.00, 0.00, 0.00
34, 33068.82, 26299.35, -12721.45, 6217.23, -1020.98, 35943.06, -2723.49, 0.00, 0.04, 0.91, 0.39
35, 33037.69, 26333.60, -12689.00, 6239.74, -1013.36, 35724.19, -2691.19, 0.00, 0.00, 0.00, 0.00
36, 32930.64, 26363.68, -12649.90, 6281.76, -982.00, 35350.87, -2649.67, 0.00, 0.00, 0.00, 0.00
37, 32928.16, 26342.56, -12670.00, 6276.79, -981.15, 35433.13, -2641.82, 0.00, 0.00, 0.00, 0.00
38, 33063.59, 26307.85, -12718.05, 6232.43, -1018.03, 35928.71, -2720.03, 0.00, 0.00, 0.00, 0.00
39, 33063.46, 26332.68, -12696.04, 6236.78, -1016.74, 35799.89, -2705.92, 0.00, 0.00, 0.00, 0.00
40, 32955.37, 26363.35, -12650.77, 6274.81, -982.18, 35391.77, -2650.92, 0.00, 0.00, 0.00, 0.00
41, 32917.93, 26351.65, -12654.48, 6282.38, -976.79, 35357.06, -2629.77, 0.00, 0.00, 0.00, 0.00
42, 33043.05, 26306.86, -12710.34, 6241.08, -1006.88, 35869.32, -2698.41, 0.00, 0.00, 0.00, 0.00
43, 33071.15, 26320.12, -12707.19, 6231.80, -1018.81, 35867.64, -2695.82, 0.00, 0.00, 0.00, 0.00
44, 32972.62, 26356.28, -12657.26, 6271.72, -990.94, 35459.68, -2645.46, 0.00, 0.04, 0.91, 0.39
45, 32905.57, 26347.70, -12654.89, 6280.64, -973.13, 35314.26, -2653.87, 0.00, 0.00, 0.00, 0.00
46, 33015.98, 26300.09, -12709.56, 6240.29, -994.36, 35784.98, -2715.51, 0.00, 0.00, 0.00, 0.00
47, 33078.97, 26307.55, -12704.78, 6225.59, -1018.41, 35924.66, -2716.59, 0.00, 0.00, 0.00, 0.00
48, 32992.34, 26348.91, -12663.60, 6260.72, -992.71, 35532.19, -2662.61, 0.00, 0.00, 0.00, 0.00
49, 32917.19, 26360.37, -12642.55, 6284.82, -967.99, 35296.76, -2616.07, 0.00, 0.00, 0.00, 0.00
50, 33003.63, 26312.99, -12687.57, 6251.43, -988.68, 35674.30, -2697.14, 0.00, 0.00, 0.00, 0.00
51, 33092.00, 26298.55, -12711.71, 6217.90, -1016.65, 35948.06, -2702.71, 0.00, 0.00, 0.00, 0.00
52, 33021.37, 26337.57, -12661.19, 6246.84, -980.39, 35600.88, -2644.97, 0.00, 0.00, 0.00, 0.00
53, 32917.05, 26345.66, -12637.12, 6266.85, -962.42, 35288.78, -2661.47, 0.00, 0.00, 0.00, 0.00
54, 32972.71, 26309.52, -12673.13, 6248.14, -969.98, 35575.95, -2678.57, 0.00, 0.05, 0.92, 0.39
55, 33090.93, 26295.73, -12703.95, 6221.43, -1000.55, 35966.84, -2683.64, 0.00, 0.00, 0.00, 0.00
56, 33041.60, 26336.05, -12666.98, 6249.53, -986.23, 35673.09, -2644.12, 0.00, 0.00, 0.00, 0.00
57, 32942.13, 26365.65, -12626.63, 6288.28, -954.06, 35312.20, -2617.21, 0.00, 0.00, 0.00, 0.00
58, 32963.28, 26330.98, -12657.64, 6274.85, -962.47, 35493.54, -2670.43, 0.00, 0.00, 0.00, 0.00
59, 33094.06, 26302.91, -12706.09, 6228.38, -1001.83, 35953.34, -2719.04, 0.00, 0.00, 0.00, 0.00
60, 33073.59, 26340.59, -12676.59, 6244.47, -999.39, 35744.30, -2687.06, 0.00, 0.00, 0.00, 0.00
61, 32971.37, 26374.01, -12631.01, 6291.39, -964.32, 35367.97, -2659.14, 0.00, 0.00, 0.00, 0.00
62, 32966.16, 26357.98, -12639.84, 6293.69, -958.82, 35420.76, -2629.48, 0.00, 0.00, 0.00, 0.00
63, 33099.36, 26319.02, -12698.70, 6245.70, -999.15, 35917.20, -2705.79, 0.00, 0.00, 0.00, 0.00
64, 33109.48, 26349.76, -12673.86, 6250.73, -991.01, 35819.41, -2673.18, 0.00, 0.05, 0.91, 0.39
65, 33001.21, 26383.24, -12627.37, 6285.27, -955.45, 35426.04, -2619.76, 0.00, 0.00, 0.00, 0.00
66, 32963.57, 26379.04, -12624.58, 6306.25, -938.24, 35380.31, -2606.24, 0.00, 0.00, 0.00, 0.00
67, 33083.15, 26328.95, -12689.84, 6263.03, -976.23, 35878.13, -2688.27, 0.00, 0.00, 0.00, 0.00
68, 33115.43, 26338.31, -12688.33, 6233.70, -996.82, 35903.70, -2686.37, 0.00, 0.00, 0.00, 0.00
69, 33016.34, 26374.12, -12632.18, 6266.11, -971.43, 35483.41, -2640.34, 0.00, 0.00, 0.00, 0.00
70, 32951.68, 26374.57, -12625.87, 6286.47, -954.44, 35306.84, -2633.86, 0.00, 0.00, 0.00, 0.00
71, 33055.61, 26326.35, -12681.91, 6245.88, -981.60, 35759.73, -2730.29, 0.00, 0.00, 0.00, 0.00
72, 33124.93, 26332.70, -12691.86, 6226.95, -1004.58, 35933.47, -2698.44, 0.00, 0.00, 0.00, 0.00
73, 33040.37, 26378.05, -12647.67, 6265.66, -968.21, 35543.09, -2650.22, 0.00, 0.00, 0.00, 0.00
74, 32952.71, 26385.96, -12625.14, 6288.08, -946.04, 35288.26, -2635.09, 0.00, 0.05, 0.91, 0.39
75, 33030.94, 26339.54, -12674.13, 6260.01, -969.33, 35668.87, -2655.68, 0.00, 0.00, 0.00, 0.00
76, 33127.77, 26329.66, -12700.37, 6225.94, -1002.59, 35957.50, -2692.98, 0.00, 0.00, 0.00, 0.00
77, 33059.46, 26367.70, -12653.19, 6252.32, -977.91, 35598.68, -2665.53, 0.00, 0.00, 0.00, 0.00
78, 32953.02, 26376.58, -12629.38, 6277.06, -959.96, 35290.79, -2658.67, 0.00, 0.00, 0.00, 0.00
79, 32997.97, 26337.86, -12669.01, 6256.32, -977.80, 35569.98, -2689.50, 0.00, 0.00, 0.00, 0.00
80, 33114.42, 26314.42, -12710.48, 6218.32, -1019.89, 35968.27, -2720.99, 0.00, 0.00, 0.00, 0.00
81, 33069.61, 26348.30, -12675.92, 6242.71, -1002.50, 35694.91, -2678.36, 0.00, 0.00, 0.00, 0.00
82, 32965.31, 26373.36, -12633.56, 6286.16, -971.38, 35330.15, -2634.31, 0.00, 0.00, 0.00, 0.00
83, 32980.63, 26347.47, -12654.91, 6280.80, -972.77, 35471.64, -2642.31, 0.00, 0.04, 0.91, 0.39
84, 33113.84, 26318.69, -12702.61, 6236.49, -1006.41, 35943.44, -2700.92, 0.00, 0.00, 0.00, 0.00
85, 33092.25, 26343.56, -12686.38, 6237.16, -1008.96, 35765.32, -2690.21, 0.00, 0.00, 0.00, 0.00
86, 32984.45, 26374.70, -12642.44, 6274.22, -974.76, 35366.34, -2625.06, 0.00, 0.00, 0.00, 0.00
87, 32963.59, 26353.76, -12652.41, 6277.24, -967.88, 35393.63, -2634.73, 0.00, 0.00, 0.00, 0.00
88, 33094.73, 26314.10, -12707.35, 6231.89, -1005.52, 35898.60, -2695.93, 0.00, 0.00, 0.00, 0.00
89, 33102.30, 26333.91, -12691.95, 6235.31, -1010.66, 35826.36, -2708.38, 0.00, 0.00, 0.00, 0.00
90, 32985.05, 26355.30, -12649.66, 6271.54, -979.95, 35414.66, -2646.13, 0.00, 0.00, 0.00, 0.00
91, 32931.47, 26342.85, -12647.42, 6280.86, -965.93, 35329.66, -2610.66, 0.00, 0.00, 0.00, 0.00
92, 33038.25, 26282.99, -12713.83, 6228.00, -1014.95, 35816.14, -2713.37, 0.00, 0.00, 0.00, 0.00
93, 33071.50, 26284.69, -12715.68, 6214.08, -1027.67, 35869.92, -2716.27, 0.00, 0.05, 0.91, 0.39
94, 32967.66, 26317.30, -12664.88, 6256.23, -991.97, 35479.97, -2658.76, 0.00, 0.00, 0.00, 0.00
95, 32879.26, 26301.03, -12657.95, 6264.84, -978.60, 35297.94, -2635.40, 0.00, 0.00, 0.00, 0.00
96, 32961.96, 26238.33, -12709.04, 6229.07, -997.67, 35722.63, -2706.28, 0.00, 0.00, 0.00, 0.00
97, 33015.65, 26211.91, -12732.31, 6203.95, -1031.29, 35922.61, -2723.58, 0.00, 0.00, 0.00, 0.00
98, 32914.48, 26233.30, -12693.42, 6238.46, -1011.22, 35547.48, -2662.47, 0.00, 0.00, 0.00, 0.00
99, 32804.52, 26220.85, -12673.06, 6262.04, -993.20, 35289.89, -2599.62, 0.00, 0.00, 0.00, 0.00
100, 32861.51, 26162.13, -12714.39, 6236.56, -1004.87, 35638.61, -2646.02, 0.00, 0.00, 0.00, 0.00
101, 32945.20, 26130.17, -12748.56, 6194.43, -1034.75, 35945.76, -2714.55, 0.00, 0.00, 0.00, 0.00
102, 32868.20, 26155.41, -12714.54, 6222.03, -1014.59, 35621.66, -2703.38, 0.00, 0.00, 0.00, 0.00
103, 32746.85, 26157.11, -12678.31, 6251.72, -988.48, 35304.94, -2643.23, 0.00, 0.05, 0.91, 0.39
104, 32782.18, 26119.55, -12710.92, 6232.20, -1001.07, 35537.30, -2678.16, 0.00, 0.00, 0.00, 0.00
105, 32900.36, 26089.80, -12760.52, 6186.54, -1035.31, 35952.69, -2701.41, 0.00, 0.00, 0.00, 0.00
106, 32854.63, 26114.79, -12723.51, 6201.58, -1020.49, 35693.43, -2663.81, 0.00, 0.00, 0.00, 0.00
107, 32741.91, 26138.46, -12686.96, 6240.90, -993.20, 35318.30, -2624.85, 0.00, 0.00, 0.00, 0.00
108, 32739.29, 26108.98, -12717.96, 6237.50, -1007.17, 35434.87, -2670.65, 0.00, 0.00, 0.00, 0.00
109, 32871.68, 26074.76, -12767.56, 6192.84, -1050.35, 35924.08, -2740.37, 0.00, 0.00, 0.00, 0.00
110, 32864.35, 26105.18, -12742.26, 6194.52, -1040.90, 35772.67, -2697.41, 0.00, 0.00, 0.00, 0.00
111, 32752.26, 26129.97, -12702.16, 6227.26, -1008.64, 35365.67, -2636.37, 0.00, 0.00, 0.00, 0.00
112, 32723.96, 26115.13, -12710.56, 6225.18, -1006.21, 35344.84, -2659.21, 0.00, 0.00, 0.00, 0.00
113, 32855.43, 26078.40, -12768.37, 6178.87, -1043.00, 35872.67, -2725.86, 0.00, 0.05, 0.92, 0.39
114, 32881.70, 26113.10, -12751.47, 6186.36, -1039.42, 35848.82, -2697.72, 0.00, 0.00, 0.00, 0.00
115, 32783.66, 26159.97, -12704.53, 6221.41, -1016.47, 35416.72, -2645.98, 0.00, 0.00, 0.00, 0.00
116, 32736.19, 26161.02, -12694.94, 6234.82, -1005.63, 35299.35, -2638.71, 0.00, 0.00, 0.00, 0.00
117, 32855.03, 26117.25, -12749.64, 6196.89, -1028.98, 35799.09, -2702.75, 0.00, 0.00, 0.00, 0.00
118, 32911.80, 26133.17, -12754.96, 6174.80, -1048.54, 35882.95, -2706.64, 0.00, 0.00, 0.00, 0.00
119, 32827.52, 26182.72, -12702.18, 6208.85, -1018.68, 35470.59, -2665.80, 0.00, 0.00, 0.00, 0.00
120, 32754.45, 26190.46, -12684.32, 6229.83, -1001.89, 35260.84, -2657.31, 0.00, 0.00, 0.00, 0.00
121, 32853.15, 26151.50, -12740.23, 6196.33, -1028.63, 35686.86, -2690.68, 0.00, 0.00, 0.00, 0.00
122, 32942.71, 26160.91, -12758.84, 6168.95, -1052.05, 35915.07, -2706.17, 0.00, 0.05, 0.92, 0.39
123, 32871.61, 26207.44, -12714.10, 6199.77, -1028.20, 35545.22, -2665.80, 0.00, 0.00, 0.00, 0.00
124, 32785.05, 26224.29, -12675.74, 6226.08, -1002.01, 35259.63, -2643.14, 0.00, 0.00, 0.00, 0.00
125, 32851.61, 26183.64, -12726.57, 6199.14, -1028.72, 35584.56, -2719.00, 0.00, 0.00, 0.00, 0.00
126, 32968.13, 26180.17, -12760.28, 6170.56, -1055.83, 35936.08, -2713.99, 0.00, 0.00, 0.00, 0.00
127, 32921.50, 26229.53, -12713.00, 6200.93, -1032.43, 35616.23, -2686.34, 0.00, 0.00, 0.00, 0.00
128, 32820.74, 26249.44, -12678.27, 6230.55, -1003.21, 35269.89, -2652.12, 0.00, 0.00, 0.00, 0.00
129, 32858.20, 26220.41, -12708.44, 6217.63, -1005.54, 35477.40, -2667.48, 0.00, 0.00, 0.00, 0.00
130, 32986.55, 26196.53, -12755.85, 6173.86, -1046.37, 35908.55, -2730.98, 0.00, 0.00, 0.00, 0.00
131, 32962.70, 26239.43, -12723.19, 6192.46, -1035.42, 35658.34, -2694.46, 0.00, 0.00, 0.00, 0.00
132, 32857.67, 26270.43, -12684.41, 6235.20, -1007.12, 35289.29, -2641.89, 0.00, 0.05, 0.92, 0.38
133, 32855.92, 26247.61, -12703.95, 6231.84, -1008.94, 35386.03, -2686.93, 0.00, 0.00, 0.00, 0.00
134, 32987.75, 26209.07, -12760.01, 6181.89, -1048.83, 35870.88, -2761.36, 0.00, 0.00, 0.00, 0.00
135, 32987.08, 26238.96, -12737.79, 6185.80, -1047.40, 35744.82, -2700.54, 0.00, 0.00, 0.00, 0.00
136, 32883.86, 26275.10, -12685.55, 6218.55, -1005.67, 35330.91, -2626.62, 0.00, 0.00, 0.00, 0.00
137, 32856.66, 26269.54, -12682.92, 6229.79, -993.71, 35290.90, -2654.58, 0.00, 0.00, 0.00, 0.00
138, 32992.36, 26232.19, -12735.60, 6191.12, -1023.75, 35811.05, -2722.76, 0.00, 0.00, 0.00, 0.00
139, 33022.87, 26247.25, -12733.70, 6177.78, -1040.41, 35798.69, -2731.36, 0.00, 0.00, 0.00, 0.00
140, 32921.08, 26281.38, -12689.15, 6211.88, -1007.26, 35380.31, -2657.20, 0.00, 0.00, 0.00, 0.00
141, 32858.94, 26278.88, -12684.26, 6225.74, -996.51, 35249.59, -2643.16, 0.00, 0.00, 0.00, 0.00
142, 32975.44, 26238.02, -12742.21, 6189.22, -1026.21, 35722.22, -2708.72, 0.00, 0.04, 0.91, 0.39
143, 33040.71, 26250.00, -12743.13, 6176.48, -1039.20, 35847.73, -2698.84, 0.00, 0.00, 0.00, 0.00
144, 32946.20, 26283.55, -12692.93, 6206.14, -1019.19, 35453.38, -2672.44, 0.00, 0.00, 0.00, 0.00
145, 32867.30, 26290.95, -12681.93, 6228.60, -1001.22, 35223.29, -2642.85, 0.00, 0.00, 0.00, 0.00
146, 32960.06, 26248.05, -12735.13, 6198.76, -1016.13, 35626.54, -2697.48, 0.00, 0.00, 0.00, 0.00
147, 33049.49, 26242.82, -12759.13, 6168.54, -1048.65, 35874.75, -2727.74, 0.00, 0.00, 0.00, 0.00
148, 32974.61, 26281.61, -12715.77, 6193.74, -1023.17, 35510.37, -2674.19, 0.00, 0.00, 0.00, 0.00
149, 32878.72, 26295.51, -12687.99, 6224.00, -999.08, 35234.17, -2653.58, 0.00, 0.00, 0.00, 0.00
150, 32945.20, 26267.81, -12718.34, 6216.78, -1003.39, 35546.47, -2699.15, 0.00, 0.00, 0.00, 0.00
151, 33058.99, 26250.89, -12757.28, 6176.35, -1047.58, 35912.52, -2744.82, 0.00, 0.00, 0.00, 0.00
152, 33010.46, 26288.67, -12717.38, 6199.99, -1036.61, 35613.35, -2678.10, 0.00, 0.05, 0.91, 0.40
153, 32907.87, 26314.02, -12676.39, 6239.67, -996.60, 35268.35, -2625.70, 0.00, 0.00, 0.00, 0.00
154, 32933.73, 26288.98, -12700.06, 6228.96, -997.54, 35447.96, -2661.74, 0.00, 0.00, 0.00, 0.00
155, 33059.70, 26256.77, -12751.38, 6180.01, -1041.90, 35907.36, -2718.93, 0.00, 0.00, 0.00, 0.00
156, 33037.29, 26291.10, -12721.05, 6196.77, -1032.34, 35699.69, -2688.18, 0.00, 0.00, 0.00, 0.00
157, 32929.89, 26321.28, -12676.28, 6240.25, -996.06, 35317.97, -2637.04, 0.00, 0.00, 0.00, 0.00
158, 32918.06, 26299.80, -12692.79, 6237.19, -999.55, 35370.41, -2671.91, 0.00, 0.00, 0.00, 0.00
159, 33055.64, 26267.23, -12743.31, 6197.96, -1027.11, 35875.24, -2719.16, 0.00, 0.00, 0.00, 0.00
160, 33055.90, 26284.27, -12735.40, 6196.77, -1034.55, 35773.23, -2685.79, 0.00, 0.00, 0.00, 0.00
161, 32950.07, 26314.44, -12687.12, 6229.74, -1003.33, 35355.79, -2655.03, 0.00, 0.00, 0.00, 0.00
162, 32908.50, 26302.91, -12691.30, 6233.28, -998.39, 35304.36, -2654.92, 0.00, 0.04, 0.91, 0.39
163, 33032.97, 26260.06, -12750.71, 6193.13, -1039.83, 35816.66, -2739.23, 0.00, 0.00, 0.00, 0.00
164, 33069.50, 26276.53, -12746.22, 6182.85, -1058.13, 35830.16, -2723.81, 0.00, 0.00, 0.00, 0.00
165, 32975.57, 26321.55, -12692.28, 6222.93, -1017.18, 35415.11, -2663.41, 0.00, 0.00, 0.00, 0.00
166, 32906.59, 26317.64, -12684.28, 6236.54, -1009.76, 35259.90, -2650.49, 0.00, 0.00, 0.00, 0.00
167, 33019.88, 26280.29, -12736.18, 6203.08, -1029.83, 35725.04, -2682.10, 0.00, 0.00, 0.00, 0.00
168, 33085.90, 26282.39, -12756.39, 6172.61, -1055.18, 35877.43, -2729.66, 0.00, 0.00, 0.00, 0.00
169, 32991.26, 26309.77, -12698.20, 6203.03, -1026.26, 35484.42, -2676.98, 0.00, 0.00, 0.00, 0.00
170, 32897.09, 26303.71, -12672.79, 6222.52, -1008.62, 35239.11, -2670.72, 0.00, 0.00, 0.00, 0.00
171, 32980.80, 26257.35, -12723.57, 6192.30, -1027.38, 35620.50, -2721.75, 0.00, 0.04, 0.92, 0.39
172, 33080.83, 26249.60, -12743.60, 6167.20, -1046.87, 35920.68, -2709.79, 0.00, 0.00, 0.00, 0.00
173, 33012.88, 26284.82, -12694.38, 6197.02, -1023.42, 35570.43, -2640.37, 0.00, 0.00, 0.00, 0.00
174, 32908.14, 26290.59, -12669.53, 6215.15, -1010.79, 35247.56, -2645.71, 0.00, 0.00, 0.00, 0.00
175, 32954.47, 26248.90, -12710.01, 6187.88, -1017.97, 35516.52, -2698.59, 0.00, 0.00, 0.00, 0.00
176, 33073.07, 26232.95, -12749.97, 6145.59, -1055.23, 35904.68, -2736.19, 0.00, 0.00, 0.00, 0.00
177, 33037.49, 26282.57, -12709.00, 6174.80, -1036.00, 35621.10, -2690.90, 0.00, 0.00, 0.00, 0.00
178, 32933.17, 26308.05, -12676.61, 6211.01, -1012.69, 35274.16, -2645.55, 0.00, 0.00, 0.00, 0.00
179, 32953.38, 26284.11, -12699.70, 6205.20, -1014.79, 35432.68, -2643.23, 0.00, 0.00, 0.00, 0.00
180, 33082.59, 26253.58, -12750.95, 6161.21, -1057.48, 35901.08, -2711.02, 0.00, 0.00, 0.00, 0.00
181, 33068.42, 26288.18, -12722.93, 6176.81, -1054.26, 35713.86, -2693.45, 0.00, 0.05, 0.91, 0.39
182, 32960.80, 26318.24, -12677.73, 6215.71, -1016.80, 35312.87, -2649.44, 0.00, 0.00, 0.00, 0.00
183, 32939.56, 26294.50, -12694.05, 6212.02, -1016.91, 35340.18, -2700.85, 0.00, 0.00, 0.00, 0.00
184, 33068.02, 26252.64, -12752.90, 6160.41, -1057.37, 35847.64, -2729.21, 0.00, 0.00, 0.00, 0.00
185, 33082.73, 26279.15, -12737.83, 6160.88, -1063.67, 35775.78, -2690.30, 0.00, 0.00, 0.00, 0.00
186, 32985.96, 26322.46, -12683.65, 6211.35, -1021.70, 35380.31, -2642.24, 0.00, 0.00, 0.00, 0.00
187, 32937.89, 26311.42, -12686.34, 6218.72, -1009.20, 35295.91, -2662.34, 0.00, 0.00, 0.00, 0.00
188, 33055.68, 26260.59, -12753.77, 6169.06, -1053.48, 35793.08, -2720.12, 0.00, 0.00, 0.00, 0.00
189, 33099.04, 26277.60, -12754.37, 6159.20, -1064.21, 35835.63, -2713.14, 0.00, 0.00, 0.00, 0.00
190, 33007.02, 26324.14, -12703.81, 6202.25, -1026.10, 35422.11, -2647.92, 0.00, 0.00, 0.00, 0.00
191, 32934.42, 26323.29, -12681.06, 6212.24, -1006.77, 35252.97, -2637.98, 0.00, 0.05, 0.92, 0.39
192, 33037.20, 26279.62, -12729.12, 6176.50, -1031.06, 35698.11, -2704.90, 0.00, 0.00, 0.00, 0.00
193, 33104.59, 26273.71, -12762.71, 6148.58, -1072.01, 35890.73, -2731.61, 0.00, 0.00, 0.00, 0.00
194, 33017.08, 26309.70, -12719.84, 6178.63, -1051.14, 35503.69, -2681.85, 0.00, 0.00, 0.00, 0.00
195, 32923.54, 26316.47, -12695.77, 6200.40, -1021.32, 35234.64, -2679.39, 0.00, 0.00, 0.00, 0.00
196, 32999.38, 26275.32, -12733.77, 6175.43, -1021.70, 35591.24, -2662.67, 0.00, 0.00, 0.00, 0.00
197, 33101.77, 26264.80, -12761.86, 6148.34, -1059.16, 35928.10, -2703.02, 0.00, 0.00, 0.00, 0.00
198, 33038.09, 26305.37, -12723.08, 6174.20, -1045.97, 35587.30, -2686.37, 0.00, 0.00, 0.00, 0.00
199, 32938.22, 26325.17, -12690.85, 6202.94, -1025.12, 35249.57, -2660.75, 0.00, 0.00, 0.00, 0.00
200, 32980.51, 26289.83, -12726.50, 6183.86, -1039.71, 35495.84, -2689.67, 0.00, 0.00, 0.00, 0.00
201, 33101.99, 26265.00, -12768.99, 6142.08, -1075.19, 35912.75, -2751.43, 0.00, 0.05, 0.91, 0.39
202, 33063.75, 26300.76, -12730.46, 6163.38, -1051.67, 35649.87, -2681.85, 0.00, 0.00, 0.00, 0.00
203, 32956.91, 26328.32, -12690.63, 6204.13, -1025.65, 35285.60, -2618.53, 0.00, 0.00, 0.00, 0.00
204, 32961.29, 26299.38, -12715.04, 6194.61, -1030.75, 35406.97, -2662.16, 0.00, 0.00, 0.00, 0.00
205, 33096.11, 26267.99, -12765.26, 6151.83, -1067.21, 35891.87, -2729.57, 0.00, 0.00, 0.00, 0.00
206, 33088.38, 26300.34, -12743.74, 6165.24, -1069.29, 35737.06, -2706.55, 0.00, 0.00, 0.00, 0.00
207, 32983.33, 26333.84, -12699.57, 6203.79, -1037.95, 35344.86, -2657.58, 0.00, 0.00, 0.00, 0.00
208, 32964.57, 26328.43, -12703.52, 6214.10, -1033.88, 35346.55, -2679.95, 0.00, 0.00, 0.00, 0.00
209, 33102.89, 26297.14, -12757.01, 6181.11, -1075.79, 35864.13, -2751.41, 0.00, 0.00, 0.00, 0.00
210, 33127.30, 26319.98, -12738.91, 6181.62, -1073.17, 35822.43, -2723.27, 0.00, 0.05, 0.91, 0.39
211, 33017.62, 26346.60, -12697.67, 6213.07, -1047.49, 35407.00, -2666.79, 0.00, 0.00, 0.00, 0.00
212, 32955.84, 26332.03, -12704.78, 6219.33, -1044.99, 35297.76, -2696.63, 0.00, 0.00, 0.00, 0.00
213, 33071.66, 26283.06, -12763.38, 6174.47, -1074.36, 35788.92, -2764.96, 0.00, 0.00, 0.00, 0.00
214, 33115.81, 26288.40, -12756.79, 6156.77, -1077.85, 35867.38, -2688.65, 0.00, 0.00, 0.00, 0.00
215, 33014.73, 26321.41, -12720.04, 6189.78, -1050.17, 35458.96, -2640.61, 0.00, 0.00, 0.00, 0.00
216, 32932.88, 26319.47, -12710.01, 6199.44, -1034.71, 35250.18, -2648.95, 0.00, 0.00, 0.00, 0.00
217, 33026.85, 26273.60, -12758.15, 6159.40, -1050.62, 35675.80, -2719.63, 0.00, 0.00, 0.00, 0.00
218, 33104.65, 26271.10, -12776.06, 6134.73, -1075.90, 35886.71, -2751.12, 0.00, 0.00, 0.00, 0.00
219, 33026.73, 26310.68, -12729.90, 6169.77, -1049.08, 35517.75, -2685.38, 0.00, 0.00, 0.00, 0.00
220, 32930.62, 26320.47, -12707.55, 6193.76, -1029.88, 35250.49, -2648.75, 0.00, 0.04, 0.91, 0.39
221, 32995.31, 26281.94, -12750.46, 6167.58, -1048.90, 35579.17, -2702.77, 0.00, 0.00, 0.00, 0.00
222, 33105.57, 26271.66, -12784.24, 6133.03, -1086.70, 35918.54, -2726.85, 0.00, 0.00, 0.00, 0.00
223, 33051.50, 26313.59, -12742.04, 6161.44, -1064.68, 35607.27, -2679.55, 0.00, 0.00, 0.00, 0.00
224, 32952.41, 26337.19, -12703.19, 6195.90, -1022.91, 35272.35, -2627.81, 0.00, 0.00, 0.00, 0.00
225, 32988.11, 26308.40, -12731.53, 6184.71, -1023.20, 35489.45, -2675.70, 0.00, 0.00, 0.00, 0.00
226, 33108.66, 26278.14, -12779.05, 6136.89, -1070.67, 35919.41, -2758.29, 0.00, 0.00, 0.00, 0.00
227, 33073.05, 26310.55, -12751.27, 6152.41, -1065.73, 35677.34, -2716.99, 0.00, 0.00, 0.00, 0.00
228, 32959.23, 26332.90, -12710.34, 6187.70, -1036.81, 35294.52, -2687.57, 0.00, 0.00, 0.00, 0.00
229, 32957.00, 26311.11, -12725.83, 6186.45, -1027.13, 35392.54, -2672.26, 0.00, 0.00, 0.00, 0.00
230, 33095.87, 26281.58, -12778.89, 6144.63, -1056.88, 35892.70, -2701.70, 0.00, 0.05, 0.92, 0.39
231, 33092.00, 26307.91, -12749.14, 6149.75, -1049.57, 35757.94, -2673.36, 0.00, 0.00, 0.00, 0.00
232, 32983.66, 26340.28, -12697.69, 6191.21, -1020.51, 35352.25, -2632.23, 0.00, 0.00, 0.00, 0.00
233, 32950.45, 26325.75, -12714.54, 6199.64, -1018.73, 35325.72, -2620.83, 0.00, 0.00, 0.00, 0.00
234, 33086.08, 26292.94, -12765.51, 6169.68, -1049.62, 35853.20, -2688.91, 0.00, 0.00, 0.00, 0.00
235, 33115.56, 26318.13, -12754.15, 6163.05, -1055.99, 35841.65, -2682.19, 0.00, 0.00, 0.00, 0.00
236, 33005.08, 26345.75, -12712.93, 6186.69, -1024.29, 35418.33, -2644.46, 0.00, 0.00, 0.00, 0.00
237, 32944.41, 26347.43, -12707.01, 6206.12, -1020.33, 35296.06, -2650.18, 0.00, 0.00, 0.00, 0.00
238, 33062.25, 26310.64, -12761.59, 6173.95, -1056.23, 35794.20, -2722.24, 0.00, 0.00, 0.00, 0.00
239, 33120.77, 26320.14, -12765.01, 6152.94, -1065.26, 35902.67, -2690.90, 0.00, 0.00, 0.00, 0.00
240, 33031.36, 26363.95, -12713.60, 6193.18, -1029.28, 35492.63, -2634.62, 0.00, 0.05, 0.92, 0.39
241, 32946.70, 26365.04, -12705.07, 6213.76, -1019.84, 35272.06, -2653.67, 0.00, 0.00, 0.00, 0.00
242, 33037.20, 26320.32, -12757.39, 6182.47, -1051.00, 35686.59, -2741.89, 0.00, 0.00, 0.00, 0.00
243, 33129.06, 26321.66, -12772.75, 6162.73, -1066.33, 35941.96, -2709.61, 0.00, 0.00, 0.00, 0.00
244, 33059.23, 26366.16, -12722.41, 6198.00, -1026.93, 35575.30, -2654.81, 0.00, 0.00, 0.00, 0.00
245, 32963.52, 26379.62, -12694.38, 6230.75, -999.48, 35283.43, -2651.45, 0.00, 0.00, 0.00, 0.00
246, 33013.95, 26335.25, -12739.38, 6205.96, -1017.47, 35593.77, -2674.74, 0.00, 0.00, 0.00, 0.00
247, 33122.02, 26317.86, -12766.60, 6160.32, -1035.82, 35948.89, -2696.60, 0.00, 0.00, 0.00, 0.00
248, 33070.34, 26358.83, -12724.47, 6188.82, -1015.06, 35645.67, -2650.31, 0.00, 0.00, 0.00, 0.00
249, 32960.17, 26376.69, -12697.51, 6225.88, -996.35, 35311.20, -2641.40, 0.00, 0.00, 0.00, 0.00
250, 32982.48, 26342.18, -12727.04, 6209.60, -1004.22, 35499.08, -2646.96, 0.00, 0.05, 0.92, 0.39
251, 33114.18, 26314.75, -12776.12, 6164.90, -1041.79, 35948.76, -2669.45, 0.00, 0.00, 0.00, 0.00
252, 33094.28, 26353.80, -12743.80, 6185.67, -1033.57, 35737.36, -2663.34, 0.00, 0.00, 0.00, 0.00
253, 32991.35, 26389.21, -12685.46, 6233.25, -999.28, 35355.92, -2610.66, 0.00, 0.00, 0.00, 0.00
254, 32989.79, 26372.17, -12701.24, 6235.53, -998.16, 35429.08, -2636.52, 0.00, 0.00, 0.00, 0.00
255, 33122.25, 26335.92, -12765.30, 6184.66, -1037.52, 35932.42, -2710.28, 0.00, 0.00, 0.00, 0.00
0, 33117.89, 26356.42, -12750.31, 6174.04, -1044.63, 35806.29, -2701.61, 0.00, 0.00, 0.00, 0.00
1, 33011.58, 26394.01, -12699.99, 6219.77, -1006.63, 35390.21, -2650.58, 0.00, 0.00, 0.00, 0.00
2, 32976.71, 26386.79, -12696.44, 6239.04, -988.55, 35367.30, -2615.58, 0.00, 0.00, 0.00, 0.00
3, 33105.70, 26342.40, -12751.65, 6194.70, -1012.44, 35889.17, -2665.96, 0.00, 0.05, 0.92, 0.39
4, 33140.48, 26361.42, -12748.90, 6184.39, -1025.45, 35892.72, -2666.00, 0.00, 0.00, 0.00, 0.00
5, 33034.40, 26392.92, -12711.10, 6219.84, -1010.14, 35470.45, -2633.75, 0.00, 0.00, 0.00, 0.00
6, 32977.72, 26401.97, -12698.79, 6242.42, -999.55, 35326.68, -2635.18, 0.00, 0.00, 0.00, 0.00
7, 33097.48, 26366.92, -12746.86, 6201.49, -1020.65, 35799.11, -2694.48, 0.00, 0.00, 0.00, 0.00
8, 33164.58, 26375.46, -12753.14, 6183.81, -1024.92, 35950.90, -2713.52, 0.00, 0.00, 0.00, 0.00
9, 33078.52, 26417.41, -12707.41, 6217.70, -1001.76, 35562.68, -2660.33, 0.00, 0.00, 0.00, 0.00
10, 33001.21, 26430.60, -12688.50, 6240.65, -985.51, 35332.81, -2630.44, 0.00, 0.00, 0.00, 0.00
11, 33079.93, 26375.42, -12739.42, 6204.75, -1009.56, 35726.42, -2695.02, 0.00, 0.00, 0.00, 0.00
12, 33169.05, 26357.64, -12768.97, 6165.86, -1041.12, 36001.64, -2699.84, 0.00, 0.00, 0.00, 0.00
13, 33108.70, 26405.30, -12723.22, 6195.21, -1019.33, 35647.48, -2657.82, 0.00, 0.05, 0.91, 0.40
14, 33016.16, 26424.50, -12691.59, 6225.77, -992.22, 35336.09, -2626.08, 0.00, 0.00, 0.00, 0.00
15, 33076.42, 26394.39, -12729.14, 6208.00, -1003.50, 35609.59, -2664.37, 0.00, 0.00, 0.00, 0.00
16, 33192.77, 26371.39, -12775.38, 6163.90, -1041.70, 35996.37, -2718.69, 0.00, 0.00, 0.00, 0.00
17, 33152.02, 26413.62, -12734.15, 6196.44, -1021.61, 35723.07, -2685.36, 0.00, 0.00, 0.00, 0.00
18, 33045.76, 26435.03, -12702.52, 6231.40, -1001.29, 35373.07, -2658.78, 0.00, 0.00, 0.00, 0.00
19, 33063.88, 26409.17, -12724.42, 6219.37, -999.01, 35536.72, -2650.20, 0.00, 0.00, 0.00, 0.00
20, 33200.92, 26386.43, -12769.33, 6174.92, -1030.66, 36009.33, -2688.33, 0.00, 0.00, 0.00, 0.00
21, 33187.18, 26425.86, -12744.85, 6190.36, -1026.75, 35812.12, -2677.72, 0.00, 0.00, 0.00, 0.00
22, 33078.21, 26453.40, -12709.83, 6227.89, -1004.98, 35416.65, -2650.27, 0.00, 0.00, 0.00, 0.00
23, 33065.79, 26438.67, -12708.89, 6228.69, -1004.42, 35442.33, -2663.84, 0.00, 0.05, 0.91, 0.40
24, 33201.44, 26405.21, -12760.52, 6185.76, -1021.30, 35951.06, -2667.21, 0.00, 0.00, 0.00, 0.00
25, 33214.04, 26431.14, -12755.40, 6189.85, -1027.82, 35889.73, -2669.00, 0.00, 0.00, 0.00, 0.00
26, 33110.27, 26468.00, -12706.90, 6230.35, -998.21, 35476.31, -2625.46, 0.00, 0.00, 0.00, 0.00
27, 33062.34, 26454.34, -12708.46, 6236.34, -993.78, 35402.55, -2634.40, 0.00, 0.00, 0.00, 0.00
28, 33183.73, 26404.09, -12771.65, 6184.75, -1033.90, 35894.57, -2738.36, 0.00, 0.00, 0.00, 0.00
29, 33224.55, 26418.17, -12774.49, 6165.04, -1046.67, 35925.38, -2734.20, 0.00, 0.00, 0.00, 0.00
30, 33131.97, 26461.31, -12725.09, 6207.64, -1013.41, 35515.60, -2672.98, 0.00, 0.00, 0.00, 0.00
31, 33057.49, 26455.52, -12716.89, 6221.45, -999.21, 35356.66, -2623.25, 0.00, 0.00, 0.00, 0.00
32, 33165.54, 26417.50, -12766.76, 6188.42, -1025.88, 35813.21, -2688.00, 0.00, 0.00, 0.00, 0.00
33, 33244.51, 26427.12, -12780.24, 6171.65, -1051.67, 35988.74, -2704.83, 0.00, 0.05, 0.91, 0.40
34, 33168.27, 26472.87, -12728.25, 6210.43, -1017.41, 35602.82, -2644.84, 0.00, 0.00, 0.00, 0.00
35, 33083.06, 26483.38, -12705.11, 6231.00, -1000.29, 35346.85, -2627.87, 0.00, 0.00, 0.00, 0.00
36, 33163.68, 26447.68, -12752.21, 6212.31, -1022.28, 35709.13, -2687.48, 0.00, 0.00, 0.00, 0.00
37, 33263.95, 26437.11, -12782.20, 6181.51, -1052.23, 36017.89, -2694.03, 0.00, 0.00, 0.00, 0.00
38, 33204.59, 26482.86, -12736.96, 6200.78, -1027.24, 35683.08, -2628.48, 0.00, 0.00, 0.00, 0.00
39, 33104.03, 26499.40, -12710.41, 6224.76, -997.13, 35360.26, -2618.66, 0.00, 0.00, 0.00, 0.00
40, 33147.01, 26464.60, -12750.75, 6198.41, -1010.21, 35605.50, -2684.38, 0.00, 0.00, 0.00, 0.00
41, 33269.00, 26446.43, -12801.18, 6151.85, -1059.45, 36001.91, -2755.21, 0.00, 0.00, 0.00, 0.00
42, 33236.57, 26488.27, -12766.29, 6171.56, -1053.50, 35727.79, -2709.43, 0.00, 0.00, 0.00, 0.00
43, 33143.75, 26524.84, -12713.38, 6215.08, -1025.88, 35376.08, -2657.18, 0.00, 0.05, 0.91, 0.39
44, 33153.36, 26498.82, -12738.93, 6215.26, -1022.77, 35529.06, -2653.06, 0.00, 0.00, 0.00, 0.00
45, 33267.24, 26452.30, -12799.82, 6173.19, -1058.00, 36013.42, -2704.65, 0.00, 0.00, 0.00, 0.00
46, 33243.48, 26475.48, -12784.17, 6177.33, -1071.25, 35833.73, -2704.96, 0.00, 0.00, 0.00, 0.00
47, 33129.17, 26500.03, -12745.10, 6208.93, -1044.18, 35427.38, -2643.97, 0.00, 0.00, 0.00, 0.00
48, 33102.95, 26481.74, -12750.15, 6221.16, -1027.04, 35449.26, -2602.23, 0.00, 0.00, 0.00, 0.00
49, 33232.53, 26449.58, -12805.69, 6179.77, -1066.63, 35969.86, -2685.45, 0.00, 0.00, 0.00, 0.00
50, 33247.19, 26475.01, -12797.31, 6176.41, -1072.15, 35908.34, -2693.27, 0.00, 0.00, 0.00, 0.00
51, 33146.00, 26506.69, -12750.17, 6214.54, -1038.06, 35484.45, -2649.78, 0.00, 0.00, 0.00, 0.00
52, 33097.34, 26496.90, -12752.52, 6224.13, -1031.13, 35391.48, -2664.31, 0.00, 0.05, 0.90, 0.39
53, 33217.08, 26453.87, -12811.21, 6181.40, -1068.35, 35893.39, -2725.19, 0.00, 0.00, 0.00, 0.00
54, 33274.79, 26477.79, -12810.50, 6167.67, -1088.13, 35965.48, -2727.78, 0.00, 0.00, 0.00, 0.00
55, 33196.45, 26531.79, -12760.70, 6207.55, -1052.03, 35558.70, -2628.59, 0.00, 0.00, 0.00, 0.00
56, 33123.34, 26538.43, -12752.34, 6220.78, -1037.48, 35364.41, -2646.65, 0.00, 0.00, 0.00, 0.00
57, 33235.03, 26503.58, -12805.83, 6185.44, -1071.59, 35803.11, -2742.83, 0.00, 0.00, 0.00, 0.00
58, 33331.34, 26516.01, -12821.45, 6165.13, -1100.64, 36018.43, -2736.99, 0.00, 0.00, 0.00, 0.00
59, 33263.02, 26567.48, -12773.17, 6201.36, -1071.05, 35638.47, -2634.85, 0.00, 0.00, 0.00, 0.00
60, 33173.18, 26578.86, -12752.72, 6222.46, -1051.72, 35366.14, -2646.49, 0.00, 0.00, 0.00, 0.00
61, 33255.55, 26552.06, -12786.07, 6200.11, -1051.20, 35704.70, -2735.12, 0.00, 0.00, 0.00, 0.00
62, 33357.70, 26533.40, -12827.24, 6142.88, -1094.72, 36022.56, -2746.00, 0.00, 0.05, 0.91, 0.38
63, 33306.64, 26577.83, -12781.49, 6172.28, -1072.32, 35700.16, -2663.10, 0.00, 0.00, 0.00, 0.00
64, 33218.56, 26610.58, -12739.15, 6223.15, -1036.41, 35395.89, -2623.00, 0.00, 0.00, 0.00, 0.00
65, 33258.30, 26579.15, -12775.16, 6208.78, -1049.17, 35639.32, -2659.28, 0.00, 0.00, 0.00, 0.00
66, 33371.22, 26541.71, -12834.84, 6148.83, -1102.54, 36059.58, -2735.70, 0.00, 0.00, 0.00, 0.00
67, 33340.40, 26582.01, -12795.79, 6166.85, -1089.20, 35808.07, -2687.22, 0.00, 0.00, 0.00, 0.00
68, 33228.37, 26607.96, -12756.92, 6197.33, -1054.47, 35425.21, -2649.29, 0.00, 0.00, 0.00, 0.00
69, 33233.49, 26592.58, -12774.11, 6199.84, -1046.15, 35540.28, -2656.19, 0.00, 0.00, 0.00, 0.00
70, 33369.23, 26562.07, -12829.59, 6159.38, -1089.27, 36046.30, -2725.10, 0.00, 0.00, 0.00, 0.00
71, 33364.38, 26587.60, -12801.83, 6155.20, -1101.14, 35887.49, -2736.35, 0.00, 0.00, 0.00, 0.00
72, 33260.36, 26621.51, -12760.77, 6190.45, -1072.57, 35472.64, -2675.77, 0.00, 0.05, 0.91, 0.38
73, 33237.45, 26615.88, -12769.57, 6199.28, -1056.25, 35462.96, -2668.35, 0.00, 0.00, 0.00, 0.00
74, 33373.25, 26576.65, -12827.38, 6148.58, -1086.94, 35983.94, -2716.32, 0.00, 0.00, 0.00, 0.00
75, 33410.63, 26608.03, -12814.05, 6148.38, -1088.11, 35958.43, -2714.62, 0.00, 0.00, 0.00, 0.00
76, 33318.45, 26653.58, -12764.90, 6188.55, -1065.75, 35538.51, -2689.38, 0.00, 0.00, 0.00, 0.00
77, 33265.95, 26650.21, -12759.34, 6199.52, -1054.38, 35417.75, -2682.92, 0.00, 0.00, 0.00, 0.00
78, 33391.54, 26612.34, -12810.77, 6163.40, -1078.83, 35909.93, -2706.80, 0.00, 0.00, 0.00, 0.00
79, 33454.08, 26623.34, -12819.89, 6141.88, -1099.80, 36012.59, -2705.88, 0.00, 0.00, 0.00, 0.00
80, 33368.43, 26668.33, -12773.53, 6178.89, -1071.56, 35600.47, -2683.30, 0.00, 0.00, 0.00, 0.00
81, 33291.94, 26675.73, -12761.88, 6200.49, -1056.32, 35405.00, -2664.82, 0.00, 0.00, 0.00, 0.00
82, 33390.55, 26640.66, -12811.71, 6171.83, -1072.82, 35836.30, -2707.33, 0.00, 0.05, 0.91, 0.38
83, 33481.79, 26639.28, -12832.34, 6143.82, -1107.35, 36087.07, -2746.49, 0.00, 0.00, 0.00, 0.00
84, 33416.66, 26683.89, -12783.66, 6175.18, -1080.15, 35714.24, -2657.94, 0.00, 0.00, 0.00, 0.00
85, 33328.55, 26700.59, -12758.55, 6201.27, -1052.36, 35423.51, -2640.88, 0.00, 0.00, 0.00, 0.00
86, 33393.46, 26663.80, -12801.27, 6171.12, -1066.49, 35728.79, -2703.76, 0.00, 0.00, 0.00, 0.00
87, 33508.64, 26651.08, -12840.16, 6134.79, -1110.88, 36086.69, -2748.39, 0.00, 0.00, 0.00, 0.00
88, 33466.35, 26697.04, -12798.18, 6167.27, -1090.88, 35791.04, -2702.48, 0.00, 0.00, 0.00, 0.00
89, 33376.12, 26726.67, -12756.92, 6204.37, -1056.01, 35448.82, -2659.23, 0.00, 0.00, 0.00, 0.00
90, 33410.22, 26698.55, -12789.47, 6184.73, -1067.27, 35648.44, -2699.98, 0.00, 0.00, 0.00, 0.00
91, 33542.43, 26674.10, -12840.09, 6138.64, -1112.85, 36102.16, -2768.08, 0.00, 0.00, 0.00, 0.00
92, 33528.49, 26716.84, -12801.83, 6158.38, -1091.64, 35868.47, -2708.34, 0.00, 0.05, 0.92, 0.39
93, 33431.32, 26749.87, -12759.47, 6198.81, -1056.52, 35486.21, -2658.76, 0.00, 0.00, 0.00, 0.00
94, 33432.71, 26732.91, -12779.77, 6198.05, -1058.91, 35568.69, -2679.62, 0.00, 0.00, 0.00, 0.00
95, 33569.21, 26696.79, -12843.36, 6147.49, -1109.59, 36071.40, -2754.00, 0.00, 0.00, 0.00, 0.00
96, 33582.02, 26731.77, -12820.76, 6149.66, -1104.53, 35948.11, -2725.33, 0.00, 0.00, 0.00, 0.00
97, 33480.86, 26763.58, -12772.70, 6184.79, -1063.81, 35539.12, -2673.36, 0.00, 0.00, 0.00, 0.00
98, 33435.71, 26735.99, -12777.11, 6184.26, -1053.68, 35500.02, -2661.24, 0.00, 0.00, 0.00, 0.00
99, 33565.68, 26688.05, -12836.47, 6131.87, -1094.86, 35994.98, -2757.07, 0.00, 0.00, 0.00, 0.00
100, 33611.57, 26710.45, -12830.08, 6134.79, -1106.39, 36008.55, -2737.55, 0.00, 0.00, 0.00, 0.00
101, 33521.69, 26753.76, -12777.20, 6182.96, -1066.22, 35618.38, -2687.10, 0.00, 0.05, 0.92, 0.39
102, 33459.87, 26746.86, -12779.63, 6186.00, -1055.58, 35473.45, -2699.69, 0.00, 0.00, 0.00, 0.00
103, 33575.18, 26701.37, -12835.38, 6143.35, -1079.19, 35936.11, -2703.22, 0.00, 0.00, 0.00, 0.00
104, 33648.67, 26711.59, -12833.61, 6130.79, -1098.97, 36088.75, -2720.59, 0.00, 0.00, 0.00, 0.00
105, 33573.32, 26757.41, -12785.78, 6167.38, -1071.92, 35693.66, -2672.75, 0.00, 0.00, 0.00, 0.00
106, 33499.25, 26767.20, -12771.76, 6184.41, -1045.59, 35451.54, -2643.94, 0.00, 0.00, 0.00, 0.00
107, 33595.74, 26733.02, -12816.96, 6163.87, -1058.82, 35857.45, -2717.86, 0.00, 0.00, 0.00, 0.00
108, 33692.41, 26726.72, -12847.04, 6132.07, -1097.63, 36134.14, -2764.49, 0.00, 0.00, 0.00, 0.00
109, 33629.32, 26768.02, -12802.68, 6157.59, -1074.69, 35772.69, -2706.33, 0.00, 0.00, 0.00, 0.00
110, 33544.02, 26792.88, -12767.85, 6189.24, -1043.85, 35467.68, -2665.49, 0.00, 0.00, 0.00, 0.00
111, 33609.40, 26762.84, -12800.89, 6169.80, -1046.40, 35759.13, -2718.80, 0.00, 0.05, 0.91, 0.39
112, 33733.45, 26749.70, -12839.89, 6131.42, -1081.98, 36143.20, -2775.06, 0.00, 0.00, 0.00, 0.00
113, 33697.36, 26794.26, -12801.20, 6159.58, -1065.31, 35853.70, -2718.40, 0.00, 0.00, 0.00, 0.00
114, 33594.09, 26811.77, -12769.80, 6184.19, -1044.25, 35502.19, -2687.75, 0.00, 0.00, 0.00, 0.00
115, 33624.33, 26788.21, -12789.73, 6173.04, -1039.27, 35673.38, -2696.80, 0.00, 0.00, 0.00, 0.00
116, 33765.75, 26768.78, -12839.51, 6133.27, -1077.85, 36139.17, -2778.90, 0.00, 0.00, 0.00, 0.00
117, 33750.55, 26799.70, -12815.42, 6143.20, -1077.22, 35932.84, -2764.11, 0.00, 0.00, 0.00, 0.00
118, 33651.85, 26829.33, -12771.07, 6179.16, -1036.03, 35538.94, -2665.91, 0.00, 0.00, 0.00, 0.00
119, 33644.31, 26809.06, -12789.78, 6174.51, -1038.24, 35583.71, -2688.07, 0.00, 0.00, 0.00, 0.00
120, 33783.07, 26770.30, -12849.50, 6123.30, -1078.74, 36085.28, -2784.74, 0.00, 0.00, 0.00, 0.00
121, 33809.65, 26807.36, -12825.50, 6138.62, -1068.44, 36006.29, -2744.86, 0.00, 0.05, 0.91, 0.38
122, 33715.62, 26846.32, -12776.30, 6184.17, -1036.54, 35610.08, -2675.53, 0.00, 0.00, 0.00, 0.00
123, 33678.38, 26836.31, -12781.71, 6188.39, -1030.44, 35537.20, -2700.45, 0.00, 0.00, 0.00, 0.00
124, 33813.36, 26796.99, -12836.20, 6146.42, -1063.07, 36042.95, -2766.65, 0.00, 0.00, 0.00, 0.00
125, 33864.81, 26819.66, -12832.52, 6143.56, -1077.13, 36085.17, -2772.67, 0.00, 0.00, 0.00, 0.00
126, 33774.09, 26861.88, -12788.68, 6173.51, -1048.01, 35671.39, -2715.63, 0.00, 0.00, 0.00, 0.00
127, 33719.93, 26874.48, -12772.32, 6191.12, -1024.63, 35513.77, -2683.57, 0.00, 0.00, 0.00, 0.00
128, 33836.85, 26837.52, -12824.18, 6151.42, -1047.09, 35969.61, -2758.90, 0.00, 0.00, 0.00, 0.00
129, 33913.99, 26841.61, -12842.71, 6122.77, -1074.56, 36128.89, -2790.28, 0.00, 0.00, 0.00, 0.00
130, 33842.82, 26888.79, -12798.94, 6164.86, -1044.72, 35750.56, -2727.96, 0.00, 0.00, 0.00, 0.00
131, 33767.29, 26902.45, -12777.13, 6191.14, -1026.10, 35510.08, -2690.73, 0.00, 0.05, 0.91, 0.38
132, 33855.16, 26862.64, -12820.74, 6164.66, -1038.73, 35892.68, -2755.72, 0.00, 0.00, 0.00, 0.00
133, 33969.18, 26865.25, -12838.86, 6142.55, -1060.21, 36193.95, -2771.77, 0.00, 0.00, 0.00, 0.00
134, 33913.43, 26910.92, -12798.36, 6174.24, -1029.77, 35855.10, -2701.50, 0.00, 0.00, 0.00, 0.00
135, 33810.86, 26926.38, -12776.12, 6199.73, -999.03, 35545.82, -2670.90, 0.00, 0.00, 0.00, 0.00
136, 33865.57, 26896.68, -12807.35, 6179.63, -1004.13, 35805.77, -2740.23, 0.00, 0.00, 0.00, 0.00
137, 33993.11, 26878.17, -12845.37, 6141.39, -1034.13, 36211.48, -2779.95, 0.00, 0.00, 0.00, 0.00
138, 33958.96, 26912.75, -12814.41, 6160.79, -1019.87, 35942.52, -2762.54, 0.00, 0.00, 0.00, 0.00
139, 33862.22, 26940.58, -12781.53, 6195.52, -990.99, 35579.13, -2716.65, 0.00, 0.00, 0.00, 0.00
140, 33879.57, 26913.09, -12803.95, 6184.97, -992.91, 35735.25, -2712.05, 0.00, 0.05, 0.92, 0.38
141, 34016.87, 26879.87, -12846.58, 6139.11, -1027.80, 36222.43, -2759.81, 0.00, 0.00, 0.00, 0.00
142, 34012.98, 26918.56, -12824.31, 6160.14, -1015.91, 36049.81, -2723.98, 0.00, 0.00, 0.00, 0.00
143, 33914.48, 26959.06, -12779.43, 6203.84, -982.78, 35656.04, -2690.35, 0.00, 0.00, 0.00, 0.00
144, 33898.81, 26942.23, -12793.49, 6201.42, -982.90, 35679.98, -2729.10, 0.00, 0.00, 0.00, 0.00
145, 34039.27, 26905.64, -12849.44, 6158.26, -1017.81, 36195.43, -2763.82, 0.00, 0.00, 0.00, 0.00
146, 34060.64, 26926.38, -12840.05, 6154.89, -1017.76, 36137.63, -2732.08, 0.00, 0.00, 0.00, 0.00
147, 33965.96, 26965.68, -12784.55, 6196.66, -981.69, 35727.03, -2696.00, 0.00, 0.00, 0.00, 0.00
148, 33925.39, 26962.44, -12780.73, 6209.63, -969.19, 35645.49, -2673.87, 0.00, 0.00, 0.00, 0.00
149, 34054.47, 26921.38, -12837.03, 6167.67, -1004.58, 36153.45, -2731.34, 0.00, 0.00, 0.00, 0.00
150, 34107.75, 26932.82, -12839.09, 6150.40, -1013.20, 36223.97, -2749.13, 0.00, 0.05, 0.92, 0.38
151, 34025.70, 26978.80, -12790.92, 6191.05, -976.50, 35817.46, -2706.44, 0.00, 0.00, 0.00, 0.00
152, 33962.76, 26982.15, -12776.95, 6211.50, -960.86, 35639.68, -2689.27, 0.00, 0.00, 0.00, 0.00
153, 34076.06, 26945.83, -12827.31, 6178.09, -987.97, 36087.09, -2755.08, 0.00, 0.00, 0.00, 0.00
154, 34174.27, 26964.90, -12834.91, 6168.99, -1010.77, 36293.67, -2760.75, 0.00, 0.00, 0.00, 0.00
