%OpenBCI Raw EEG Data
%
%Sample Rate = 250.0 Hz
%First Column = SampleIndex
%Other Columns = EEG data in microvolts followed by Accel Data (in G) interleaved with Aux Data
0, 28396.50, 20697.65, -20896.73, -14929.91, -27367.12, -1697.48, -41963.41, 0.00, 0.13, 0.78, 0.60
1, 28511.10, 20791.79, -20922.89, -14922.72, -27378.00, -1601.48, -42007.26, 0.00, 0.00, 0.00, 0.00
2, 28524.71, 20812.56, -20927.96, -14938.25, -27384.46, -1649.72, -42055.57, 0.00, 0.00, 0.00, 0.00
3, 28411.70, 20729.28, -20909.50, -14951.55, -27381.82, -1752.40, -42070.25, 0.00, 0.00, 0.00, 0.00
4, 28375.85, 20691.03, -20895.97, -14935.52, -27379.32, -1736.82, -42007.42, 0.00, 0.00, 0.00, 0.00
5, 28482.56, 20770.49, -20924.29, -14927.01, -27377.11, -1641.42, -42027.09, 0.00, 0.00, 0.00, 0.00
6, 28532.65, 20826.35, -20924.63, -14936.82, -27386.74, -1645.62, -42029.75, 0.00, 0.15, 0.77, 0.60
7, 28437.14, 20752.72, -20905.18, -14941.04, -27384.82, -1715.74, -42007.78, 0.00, 0.00, 0.00, 0.00
8, 28371.43, 20685.85, -20898.01, -14929.89, -27372.95, -1742.45, -42007.31, 0.00, 0.00, 0.00, 0.00
9, 28469.71, 20758.33, -20910.48, -14911.99, -27378.43, -1641.62, -42024.77, 0.00, 0.00, 0.00, 0.00
10, 28555.96, 20834.64, -20917.12, -14928.89, -27382.21, -1632.55, -42028.90, 0.00, 0.00, 0.00, 0.00
11, 28468.10, 20766.18, -20913.72, -14956.11, -27382.21, -1732.46, -42025.43, 0.00, 0.00, 0.00, 0.00
12, 28383.12, 20695.35, -20897.49, -14950.59, -27372.08, -1758.95, -42012.70, 0.00, 0.00, 0.00, 0.00
13, 28447.47, 20742.55, -20913.74, -14937.98, -27379.16, -1671.51, -42033.75, 0.00, 0.00, 0.00, 0.00
14, 28547.94, 20828.25, -20931.96, -14940.60, -27393.49, -1624.17, -42071.84, 0.00, 0.00, 0.00, 0.00
15, 28495.99, 20798.90, -20913.54, -14943.21, -27386.05, -1695.04, -42062.65, 0.00, 0.00, 0.00, 0.00
16, 28409.02, 20724.74, -20885.85, -14924.86, -27377.55, -1732.35, -42002.66, 0.00, 0.15, 0.77, 0.59
17, 28461.97, 20757.28, -20874.12, -14892.01, -27368.46, -1639.32, -42006.86, 0.00, 0.00, 0.00, 0.00
18, 28570.54, 20844.25, -20905.79, -14908.10, -27391.48, -1590.91, -42088.22, 0.00, 0.00, 0.00, 0.00
19, 28525.83, 20819.29, -20906.95, -14932.13, -27395.35, -1672.22, -42061.76, 0.00, 0.00, 0.00, 0.00
20, 28406.29, 20715.57, -20889.78, -14936.15, -27384.13, -1736.26, -41998.97, 0.00, 0.00, 0.00, 0.00
21, 28402.79, 20705.27, -20888.31, -14917.40, -27379.34, -1688.79, -42027.71, 0.00, 0.00, 0.00, 0.00
22, 28506.27, 20786.34, -20917.21, -14928.08, -27391.44, -1612.99, -42064.06, 0.00, 0.00, 0.00, 0.00
23, 28488.39, 20780.35, -20919.80, -14947.46, -27396.35, -1666.99, -42047.72, 0.00, 0.00, 0.00, 0.00
24, 28356.70, 20669.69, -20908.20, -14969.68, -27377.71, -1777.48, -42047.47, 0.00, 0.00, 0.00, 0.00
25, 28324.29, 20629.81, -20899.19, -14950.50, -27386.96, -1726.14, -41998.73, 0.00, 0.00, 0.00, 0.00
26, 28433.59, 20713.12, -20918.71, -14935.21, -27393.60, -1611.76, -42046.29, 0.00, 0.15, 0.77, 0.60
27, 28453.35, 20735.51, -20925.93, -14951.95, -27392.73, -1656.09, -42053.60, 0.00, 0.00, 0.00, 0.00
28, 28325.94, 20633.16, -20908.96, -14963.91, -27386.12, -1738.34, -42006.13, 0.00, 0.00, 0.00, 0.00
29, 28259.49, 20570.42, -20897.09, -14954.90, -27377.69, -1733.36, -42009.97, 0.00, 0.00, 0.00, 0.00
30, 28357.68, 20639.78, -20921.37, -14953.79, -27391.66, -1656.24, -42079.04, 0.00, 0.00, 0.00, 0.00
31, 28392.62, 20672.99, -20933.95, -14968.23, -27399.46, -1658.97, -42076.64, 0.00, 0.00, 0.00, 0.00
32, 28285.77, 20589.96, -20914.95, -14971.89, -27392.40, -1735.26, -42028.81, 0.00, 0.00, 0.00, 0.00
33, 28208.86, 20511.05, -20894.23, -14964.58, -27378.96, -1753.65, -41978.25, 0.00, 0.00, 0.00, 0.00
34, 28278.69, 20552.96, -20910.37, -14957.97, -27381.89, -1660.56, -42021.48, 0.00, 0.00, 0.00, 0.00
35, 28348.74, 20609.45, -20935.43, -14980.67, -27397.61, -1638.83, -42069.94, 0.00, 0.00, 0.00, 0.00
36, 28264.63, 20555.63, -20923.67, -14992.43, -27395.71, -1725.51, -42017.39, 0.00, 0.15, 0.78, 0.61
37, 28166.95, 20479.43, -20892.11, -14937.54, -27382.92, -1744.20, -41996.78, 0.00, 0.00, 0.00, 0.00
38, 28212.10, 20497.22, -20912.47, -14952.09, -27386.81, -1669.63, -42004.87, 0.00, 0.00, 0.00, 0.00
39, 28311.41, 20567.25, -20937.66, -15004.39, -27394.01, -1642.54, -42032.10, 0.00, 0.00, 0.00, 0.00
40, 28251.40, 20526.25, -20918.55, -15011.92, -27394.72, -1733.91, -42041.66, 0.00, 0.00, 0.00, 0.00
41, 28147.17, 20442.30, -20901.96, -14996.79, -27375.46, -1803.63, -42005.68, 0.00, 0.00, 0.00, 0.00
42, 28177.32, 20464.34, -20913.83, -14979.22, -27380.10, -1724.91, -42027.47, 0.00, 0.00, 0.00, 0.00
43, 28301.38, 20566.46, -20933.73, -14969.25, -27394.83, -1614.35, -42050.74, 0.00, 0.00, 0.00, 0.00
44, 28275.94, 20563.58, -20923.85, -14972.47, -27401.54, -1678.44, -42031.74, 0.00, 0.00, 0.00, 0.00
45, 28169.52, 20477.66, -20896.78, -14966.59, -27371.07, -1735.77, -41987.32, 0.00, 0.00, 0.00, 0.00
46, 28174.84, 20468.14, -20892.44, -14957.70, -27374.20, -1709.62, -42011.04, 0.00, 0.15, 0.77, 0.60
47, 28295.74, 20566.31, -20922.15, -14969.99, -27391.06, -1632.44, -42064.02, 0.00, 0.00, 0.00, 0.00
48, 28312.13, 20591.70, -20918.30, -14978.40, -27391.48, -1664.33, -42028.52, 0.00, 0.00, 0.00, 0.00
49, 28213.85, 20515.10, -20895.75, -14964.92, -27377.62, -1725.80, -41994.81, 0.00, 0.00, 0.00, 0.00
50, 28185.86, 20492.01, -20894.59, -14959.11, -27379.79, -1719.68, -42028.70, 0.00, 0.00, 0.00, 0.00
51, 28307.77, 20592.53, -20919.76, -14958.57, -27388.73, -1640.17, -42063.14, 0.00, 0.00, 0.00, 0.00
52, 28353.70, 20641.34, -20919.96, -14964.51, -27390.36, -1657.90, -42038.54, 0.00, 0.00, 0.00, 0.00
53, 28256.47, 20567.31, -20902.66, -14970.04, -27386.79, -1741.38, -42047.68, 0.00, 0.00, 0.00, 0.00
54, 28216.04, 20529.88, -20882.59, -14951.73, -27371.32, -1727.52, -41983.04, 0.00, 0.00, 0.00, 0.00
55, 28330.48, 20614.28, -20899.37, -14935.64, -27377.44, -1618.91, -42015.02, 0.00, 0.15, 0.78, 0.60
56, 28395.45, 20674.98, -20920.25, -14951.86, -27400.13, -1634.36, -42053.46, 0.00, 0.00, 0.00, 0.00
57, 28316.71, 20623.71, -20887.57, -14951.01, -27391.66, -1707.09, -42003.73, 0.00, 0.00, 0.00, 0.00
58, 28254.84, 20568.74, -20869.51, -14935.79, -27356.79, -1720.39, -41989.81, 0.00, 0.00, 0.00, 0.00
59, 28345.83, 20632.74, -20888.51, -14923.97, -27358.18, -1647.64, -42013.86, 0.00, 0.00, 0.00, 0.00
60, 28427.51, 20702.65, -20909.32, -14947.30, -27381.36, -1648.73, -42049.64, 0.00, 0.00, 0.00, 0.00
61, 28362.04, 20660.97, -20890.01, -14954.75, -27368.66, -1715.65, -42003.57, 0.00, 0.00, 0.00, 0.00
62, 28277.75, 20593.13, -20870.83, -14931.10, -27356.16, -1704.92, -41971.86, 0.00, 0.00, 0.00, 0.00
63, 28328.82, 20630.73, -20885.36, -14920.84, -27369.35, -1648.24, -41997.65, 0.00, 0.00, 0.00, 0.00
64, 28439.93, 20722.53, -20907.24, -14924.57, -27376.59, -1604.81, -42036.39, 0.00, 0.00, 0.00, 0.00
65, 28399.25, 20694.27, -20894.23, -14936.62, -27372.57, -1669.09, -42008.11, 0.00, 0.15, 0.77, 0.60
66, 28303.90, 20613.65, -20866.58, -14935.70, -27358.24, -1733.11, -41983.28, 0.00, 0.00, 0.00, 0.00
67, 28330.75, 20631.17, -20871.19, -14903.16, -27356.23, -1672.22, -42006.21, 0.00, 0.00, 0.00, 0.00
68, 28453.55, 20733.50, -20897.07, -14912.66, -27370.78, -1596.45, -42049.24, 0.00, 0.00, 0.00, 0.00
69, 28435.62, 20726.95, -20894.79, -14939.10, -27372.88, -1661.47, -42016.54, 0.00, 0.00, 0.00, 0.00
70, 28327.04, 20634.55, -20877.69, -14941.65, -27365.73, -1740.40, -41997.16, 0.00, 0.00, 0.00, 0.00
71, 28314.81, 20618.46, -20878.38, -14931.57, -27368.97, -1712.75, -42008.36, 0.00, 0.00, 0.00, 0.00
72, 28440.04, 20720.69, -20900.15, -14918.96, -27386.16, -1611.69, -42060.10, 0.00, 0.00, 0.00, 0.00
73, 28458.04, 20745.01, -20898.59, -14930.00, -27383.88, -1653.40, -42039.36, 0.00, 0.00, 0.00, 0.00
74, 28352.72, 20664.79, -20874.72, -14939.26, -27363.50, -1734.99, -41994.90, 0.00, 0.00, 0.00, 0.00
75, 28322.47, 20632.74, -20864.35, -14927.48, -27353.55, -1719.83, -41988.91, 0.00, 0.15, 0.76, 0.60
76, 28436.76, 20717.25, -20893.98, -14925.06, -27367.79, -1638.25, -42007.58, 0.00, 0.00, 0.00, 0.00
77, 28480.81, 20762.60, -20900.76, -14931.05, -27379.23, -1643.57, -42033.59, 0.00, 0.00, 0.00, 0.00
78, 28378.18, 20689.60, -20877.13, -14938.81, -27374.54, -1733.65, -42013.43, 0.00, 0.00, 0.00, 0.00
79, 28317.00, 20638.97, -20857.73, -14933.54, -27367.43, -1753.20, -41998.84, 0.00, 0.00, 0.00, 0.00
80, 28417.87, 20716.29, -20878.38, -14912.03, -27366.98, -1624.37, -42032.10, 0.00, 0.00, 0.00, 0.00
81, 28487.99, 20773.02, -20903.02, -14919.54, -27370.98, -1603.76, -42018.77, 0.00, 0.00, 0.00, 0.00
82, 28396.97, 20701.65, -20892.60, -14933.65, -27377.60, -1701.79, -41993.20, 0.00, 0.00, 0.00, 0.00
83, 28321.98, 20636.07, -20867.92, -14918.31, -27364.30, -1724.71, -41981.36, 0.00, 0.00, 0.00, 0.00
84, 28397.62, 20687.54, -20878.94, -14904.75, -27356.52, -1638.45, -42000.40, 0.00, 0.00, 0.00, 0.00
85, 28484.39, 20759.81, -20902.55, -14922.29, -27377.49, -1612.59, -42032.36, 0.00, 0.15, 0.76, 0.61
86, 28418.48, 20714.79, -20887.48, -14938.50, -27381.27, -1701.97, -42021.03, 0.00, 0.00, 0.00, 0.00
87, 28323.95, 20637.57, -20867.45, -14930.00, -27366.29, -1740.42, -41992.02, 0.00, 0.00, 0.00, 0.00
88, 28367.25, 20667.58, -20883.86, -14915.86, -27370.43, -1665.34, -42001.05, 0.00, 0.00, 0.00, 0.00
89, 28480.10, 20757.82, -20909.30, -14922.40, -27382.54, -1609.71, -42039.54, 0.00, 0.00, 0.00, 0.00
90, 28437.59, 20726.97, -20904.24, -14947.84, -27382.58, -1711.00, -42051.88, 0.00, 0.00, 0.00, 0.00
91, 28327.79, 20638.46, -20882.81, -14947.24, -27381.00, -1767.55, -42015.13, 0.00, 0.00, 0.00, 0.00
92, 28342.44, 20648.92, -20882.32, -14922.61, -27382.85, -1684.70, -42014.24, 0.00, 0.00, 0.00, 0.00
94, 28468.03, 20758.38, -20900.04, -14916.82, -27388.13, -1645.45, -42025.86, 0.00, 0.15, 0.76, 0.60
95, 28355.71, 20660.48, -20882.12, -14923.48, -27388.11, -1728.44, -41988.27, 0.00, 0.00, 0.00, 0.00
96, 28334.54, 20638.39, -20868.75, -14925.89, -27372.41, -1708.25, -41975.14, 0.00, 0.00, 0.00, 0.00
97, 28453.03, 20733.37, -20883.57, -14922.25, -27367.36, -1627.72, -42032.48, 0.00, 0.00, 0.00, 0.00
98, 28472.70, 20754.80, -20903.11, -14937.94, -27385.15, -1649.80, -42027.69, 0.00, 0.00, 0.00, 0.00
99, 28370.11, 20672.84, -20881.47, -14936.49, -27370.63, -1711.72, -41979.41, 0.00, 0.00, 0.00, 0.00
100, 28326.61, 20631.51, -20865.06, -14925.09, -27364.99, -1714.00, -41973.49, 0.00, 0.00, 0.00, 0.00
101, 28439.80, 20719.15, -20885.45, -14912.37, -27374.78, -1608.57, -42006.70, 0.00, 0.00, 0.00, 0.00
102, 28485.08, 20766.92, -20905.92, -14925.31, -27382.65, -1619.61, -42021.32, 0.00, 0.00, 0.00, 0.00
103, 28379.25, 20689.67, -20891.21, -14922.54, -27379.12, -1719.34, -42009.41, 0.00, 0.00, 0.00, 0.00
104, 28309.06, 20624.60, -20880.96, -14936.58, -27379.46, -1744.02, -42042.94, 0.00, 0.15, 0.76, 0.60
105, 28396.57, 20685.53, -20899.62, -14956.11, -27394.92, -1668.09, -42099.93, 0.00, 0.00, 0.00, 0.00
106, 28482.29, 20752.68, -20907.84, -14951.51, -27387.19, -1639.10, -42019.98, 0.00, 0.00, 0.00, 0.00
107, 28405.94, 20700.46, -20885.63, -14945.74, -27373.71, -1688.70, -41973.00, 0.00, 0.00, 0.00, 0.00
108, 28326.43, 20631.13, -20865.29, -14934.05, -27366.63, -1706.80, -41957.78, 0.00, 0.00, 0.00, 0.00
109, 28385.06, 20667.63, -20886.70, -14931.17, -27381.00, -1643.19, -42006.01, 0.00, 0.00, 0.00, 0.00
110, 28478.94, 20742.64, -20913.43, -14945.69, -27401.72, -1618.47, -42054.45, 0.00, 0.00, 0.00, 0.00
111, 28421.99, 20706.32, -20896.18, -14959.96, -27398.92, -1712.30, -42031.89, 0.00, 0.00, 0.00, 0.00
112, 28322.34, 20628.51, -20881.20, -14950.32, -27381.13, -1755.60, -41977.58, 0.00, 0.00, 0.00, 0.00
113, 28359.11, 20650.84, -20896.38, -14943.08, -27380.66, -1697.53, -42019.76, 0.00, 0.00, 0.00, 0.00
114, 28484.32, 20756.95, -20909.03, -14934.43, -27381.00, -1605.24, -42040.63, 0.00, 0.15, 0.77, 0.60
115, 28448.83, 20738.06, -20905.29, -14939.28, -27386.34, -1680.87, -42019.38, 0.00, 0.00, 0.00, 0.00
116, 28347.82, 20653.19, -20877.67, -14944.06, -27373.87, -1747.39, -41978.77, 0.00, 0.00, 0.00, 0.00
117, 28357.79, 20660.39, -20874.00, -14943.64, -27378.47, -1694.24, -41991.04, 0.00, 0.00, 0.00, 0.00
118, 28481.44, 20762.04, -20906.79, -14933.22, -27386.16, -1613.04, -42018.42, 0.00, 0.00, 0.00, 0.00
119, 28477.26, 20767.36, -20910.88, -14955.93, -27387.41, -1688.58, -42033.15, 0.00, 0.00, 0.00, 0.00
120, 28371.94, 20674.83, -20891.50, -14958.61, -27385.47, -1752.73, -42006.05, 0.00, 0.00, 0.00, 0.00
121, 28359.54, 20644.58, -20888.29, -14943.73, -27388.17, -1723.07, -42018.39, 0.00, 0.00, 0.00, 0.00
122, 28478.60, 20744.05, -20915.91, -14940.31, -27407.39, -1635.75, -42085.59, 0.00, 0.00, 0.00, 0.00
123, 28509.63, 20779.59, -20914.37, -14947.62, -27406.95, -1648.42, -42025.32, 0.00, 0.00, 0.00, 0.00
124, 28388.01, 20680.35, -20887.64, -14948.80, -27389.74, -1725.89, -42007.11, 0.00, 0.15, 0.77, 0.60
125, 28323.19, 20622.81, -20881.54, -14940.00, -27384.13, -1730.90, -42045.78, 0.00, 0.00, 0.00, 0.00
126, 28416.64, 20690.29, -20911.42, -14918.76, -27395.57, -1648.04, -41982.92, 0.00, 0.00, 0.00, 0.00
127, 28459.42, 20739.83, -20918.39, -14949.79, -27396.71, -1646.07, -41989.92, 0.00, 0.00, 0.00, 0.00
128, 28362.31, 20659.38, -20904.29, -14968.02, -27384.73, -1727.66, -41997.27, 0.00, 0.00, 0.00, 0.00
129, 28282.00, 20582.74, -20889.72, -14955.08, -27378.96, -1746.14, -42004.61, 0.00, 0.00, 0.00, 0.00
130, 28361.79, 20642.66, -20908.31, -14967.78, -27392.33, -1666.50, -42021.48, 0.00, 0.00, 0.00, 0.00
131, 28456.27, 20731.67, -20915.87, -14969.12, -27399.68, -1642.14, -42048.91, 0.00, 0.00, 0.00, 0.00
132, 28376.37, 20678.78, -20915.73, -14982.89, -27404.13, -1738.65, -42041.42, 0.00, 0.00, 0.00, 0.00
133, 28290.38, 20590.83, -20900.13, -14972.00, -27399.62, -1772.47, -42006.68, 0.00, 0.00, 0.00, 0.00
134, 28355.38, 20634.93, -20902.72, -14950.84, -27395.30, -1674.41, -42014.57, 0.00, 0.15, 0.77, 0.60
135, 28470.22, 20729.45, -20916.78, -14952.78, -27402.75, -1615.61, -42036.23, 0.00, 0.00, 0.00, 0.00
136, 28426.48, 20702.21, -20907.08, -14964.18, -27401.47, -1691.00, -42014.86, 0.00, 0.00, 0.00, 0.00
137, 28324.62, 20620.78, -20884.84, -14962.77, -27390.12, -1752.31, -41990.57, 0.00, 0.00, 0.00, 0.00
138, 28342.53, 20633.59, -20893.14, -14955.78, -27394.74, -1706.35, -42025.68, 0.00, 0.00, 0.00, 0.00
139, 28456.07, 20726.95, -20920.43, -14961.94, -27411.29, -1646.23, -42072.22, 0.00, 0.00, 0.00, 0.00
140, 28442.77, 20721.23, -20908.92, -14964.51, -27403.28, -1676.81, -42039.63, 0.00, 0.00, 0.00, 0.00
141, 28332.58, 20628.16, -20886.68, -14962.48, -27393.92, -1740.64, -41995.89, 0.00, 0.00, 0.00, 0.00
142, 28327.44, 20620.89, -20889.45, -14949.54, -27394.12, -1702.47, -41988.36, 0.00, 0.00, 0.00, 0.00
143, 28448.29, 20719.53, -20915.55, -14951.10, -27408.29, -1625.78, -42035.38, 0.00, 0.15, 0.78, 0.60
144, 28458.53, 20735.94, -20916.98, -14962.84, -27417.68, -1676.36, -42063.86, 0.00, 0.00, 0.00, 0.00
145, 28349.52, 20646.60, -20898.81, -14967.62, -27411.55, -1748.87, -42007.13, 0.00, 0.00, 0.00, 0.00
146, 28322.65, 20615.39, -20879.97, -14952.89, -27382.81, -1724.12, -41984.11, 0.00, 0.00, 0.00, 0.00
147, 28434.12, 20704.60, -20902.95, -14947.13, -27393.94, -1629.44, -42017.07, 0.00, 0.00, 0.00, 0.00
148, 28469.04, 20743.76, -20921.72, -14956.42, -27412.65, -1644.26, -42054.49, 0.00, 0.00, 0.00, 0.00
149, 28366.53, 20661.17, -20907.13, -14968.43, -27401.49, -1745.51, -42002.48, 0.00, 0.00, 0.00, 0.00
150, 28324.87, 20620.89, -20883.21, -14945.47, -27384.84, -1726.69, -41966.61, 0.00, 0.00, 0.00, 0.00
151, 28433.41, 20707.13, -20899.93, -14932.15, -27395.57, -1628.88, -42018.39, 0.00, 0.00, 0.00, 0.00
152, 28503.88, 20767.85, -20911.55, -14934.70, -27404.47, -1613.39, -42012.29, 0.00, 0.00, 0.00, 0.00
153, 28415.93, 20699.97, -20893.40, -14945.05, -27399.37, -1702.58, -41973.73, 0.00, 0.14, 0.78, 0.60
154, 28336.51, 20631.22, -20881.40, -14944.53, -27392.31, -1737.00, -41975.37, 0.00, 0.00, 0.00, 0.00
155, 28420.55, 20691.32, -20896.06, -14933.00, -27399.64, -1670.64, -42046.29, 0.00, 0.00, 0.00, 0.00
156, 28505.38, 20767.25, -20914.55, -14938.94, -27420.98, -1642.81, -42089.81, 0.00, 0.00, 0.00, 0.00
157, 28438.91, 20718.81, -20888.53, -14935.08, -27407.69, -1678.15, -42013.81, 0.00, 0.00, 0.00, 0.00
158, 28351.60, 20643.58, -20870.45, -14909.80, -27388.06, -1704.83, -41937.86, 0.00, 0.00, 0.00, 0.00
159, 28399.86, 20685.82, -20892.85, -14928.37, -27405.76, -1655.95, -42025.05, 0.00, 0.00, 0.00, 0.00
160, 28500.66, 20768.70, -20918.93, -14948.04, -27429.99, -1627.86, -42103.13, 0.00, 0.00, 0.00, 0.00
161, 28453.19, 20728.92, -20898.39, -14955.31, -27398.59, -1696.65, -41995.48, 0.00, 0.00, 0.00, 0.00
162, 28350.42, 20644.16, -20874.12, -14949.65, -27375.90, -1742.72, -41957.04, 0.00, 0.00, 0.00, 0.00
163, 28377.75, 20661.64, -20874.27, -14934.59, -27392.08, -1681.23, -42021.19, 0.00, 0.15, 0.77, 0.60
164, 28499.14, 20756.25, -20901.76, -14941.74, -27405.45, -1616.70, -42022.33, 0.00, 0.00, 0.00, 0.00
165, 28479.25, 20746.04, -20904.38, -14954.32, -27400.04, -1673.50, -41997.92, 0.00, 0.00, 0.00, 0.00
166, 28367.83, 20656.05, -20881.87, -14951.01, -27395.15, -1747.77, -42001.99, 0.00, 0.00, 0.00, 0.00
167, 28362.64, 20648.94, -20875.10, -14935.82, -27391.95, -1694.17, -41993.25, 0.00, 0.00, 0.00, 0.00
168, 28479.59, 20745.32, -20905.38, -14925.35, -27407.91, -1612.43, -42009.57, 0.00, 0.00, 0.00, 0.00
169, 28495.03, 20769.58, -20905.34, -14931.01, -27412.18, -1663.82, -42020.63, 0.00, 0.00, 0.00, 0.00
170, 28391.27, 20685.53, -20873.80, -14959.28, -27389.42, -1729.94, -41969.36, 0.00, 0.00, 0.00, 0.00
171, 28354.95, 20642.64, -20857.53, -14945.09, -27380.46, -1708.50, -41963.14, 0.00, 0.00, 0.00, 0.00
172, 28463.02, 20716.65, -20890.72, -14949.49, -27405.09, -1635.43, -42023.43, 0.00, 0.00, 0.00, 0.00
173, 28497.13, 20755.43, -20903.73, -14965.10, -27418.57, -1666.26, -42050.09, 0.00, 0.15, 0.77, 0.61
174, 28397.38, 20681.51, -20875.88, -14960.42, -27406.23, -1740.11, -42022.17, 0.00, 0.00, 0.00, 0.00
175, 28342.05, 20636.78, -20869.42, -14933.89, -27397.58, -1729.06, -41996.22, 0.00, 0.00, 0.00, 0.00
176, 28441.92, 20708.35, -20899.75, -14944.91, -27405.00, -1637.04, -42027.56, 0.00, 0.00, 0.00, 0.00
177, 28503.12, 20764.30, -20919.80, -14960.16, -27418.19, -1652.38, -42086.99, 0.00, 0.00, 0.00, 0.00
178, 28413.51, 20695.48, -20896.06, -14960.00, -27407.78, -1730.76, -42036.84, 0.00, 0.00, 0.00, 0.00
179, 28341.65, 20631.82, -20870.78, -14943.06, -27389.31, -1737.04, -41952.23, 0.00, 0.00, 0.00, 0.00
180, 28423.35, 20694.23, -20883.84, -14930.34, -27400.69, -1650.88, -41993.03, 0.00, 0.00, 0.00, 0.00
181, 28515.71, 20773.71, -20900.54, -14930.85, -27417.92, -1612.63, -42049.24, 0.00, 0.00, 0.00, 0.00
182, 28458.46, 20734.88, -20875.57, -14929.45, -27399.17, -1695.74, -42006.91, 0.00, 0.15, 0.77, 0.61
183, 28370.96, 20657.28, -20863.54, -14925.06, -27403.95, -1748.06, -42035.29, 0.00, 0.00, 0.00, 0.00
184, 28419.71, 20693.33, -20880.46, -14912.68, -27421.50, -1663.98, -42055.03, 0.00, 0.00, 0.00, 0.00
185, 28531.20, 20781.51, -20891.28, -14911.85, -27413.23, -1595.56, -42021.30, 0.00, 0.00, 0.00, 0.00
186, 28472.63, 20751.52, -20888.24, -14933.74, -27410.21, -1672.22, -42013.61, 0.00, 0.00, 0.00, 0.00
187, 28368.30, 20671.81, -20872.44, -14932.46, -27398.10, -1731.14, -41975.41, 0.00, 0.00, 0.00, 0.00
188, 28383.36, 20674.63, -20879.46, -14923.30, -27405.72, -1679.20, -42017.01, 0.00, 0.00, 0.00, 0.00
189, 28488.66, 20758.33, -20910.32, -14938.74, -27425.99, -1624.12, -42061.76, 0.00, 0.00, 0.00, 0.00
190, 28458.26, 20741.70, -20911.84, -14967.84, -27421.95, -1710.62, -42055.97, 0.00, 0.00, 0.00, 0.00
191, 28353.07, 20656.39, -20885.13, -14963.08, -27404.94, -1768.92, -42022.39, 0.00, 0.00, 0.00, 0.00
192, 28350.97, 20648.59, -20875.77, -14940.78, -27397.40, -1716.41, -41989.76, 0.00, 0.15, 0.77, 0.60
193, 28468.72, 20740.38, -20902.72, -14936.53, -27411.46, -1613.26, -42025.17, 0.00, 0.00, 0.00, 0.00
194, 28479.88, 20759.99, -20901.18, -14951.46, -27419.62, -1658.77, -42046.67, 0.00, 0.00, 0.00, 0.00
195, 28382.04, 20680.91, -20872.04, -14952.29, -27399.15, -1736.95, -42005.63, 0.00, 0.00, 0.00, 0.00
196, 28347.76, 20636.13, -20868.41, -14938.03, -27388.11, -1720.61, -41999.17, 0.00, 0.00, 0.00, 0.00
197, 28444.70, 20715.19, -20899.30, -14928.57, -27405.27, -1639.99, -42040.07, 0.00, 0.00, 0.00, 0.00
198, 28480.28, 20750.98, -20909.18, -14960.63, -27418.32, -1674.50, -42056.86, 0.00, 0.00, 0.00, 0.00
199, 28388.23, 20676.39, -20886.12, -14942.50, -27401.70, -1756.87, -42010.55, 0.00, 0.00, 0.00, 0.00
200, 28330.63, 20620.89, -20873.27, -14958.59, -27397.90, -1763.75, -42002.70, 0.00, 0.00, 0.00, 0.00
201, 28417.74, 20686.63, -20898.41, -14972.58, -27417.36, -1669.23, -42072.89, 0.00, 0.00, 0.00, 0.00
202, 28490.16, 20752.99, -20907.80, -14966.17, -27422.77, -1638.41, -42042.80, 0.00, 0.15, 0.77, 0.61
203, 28411.70, 20704.62, -20887.28, -14968.49, -27407.95, -1720.61, -42001.34, 0.00, 0.00, 0.00, 0.00
204, 28328.91, 20627.20, -20874.29, -14960.00, -27401.67, -1748.22, -42020.27, 0.00, 0.00, 0.00, 0.00
205, 28390.36, 20665.10, -20889.07, -14951.35, -27403.26, -1668.54, -42025.43, 0.00, 0.00, 0.00, 0.00
206, 28477.82, 20737.30, -20913.86, -14965.97, -27421.10, -1657.14, -42075.13, 0.00, 0.00, 0.00, 0.00
207, 28407.93, 20689.09, -20907.75, -14984.07, -27431.91, -1742.90, -42068.17, 0.00, 0.00, 0.00, 0.00
208, 28315.17, 20614.46, -20883.21, -14971.76, -27414.12, -1770.08, -42040.81, 0.00, 0.00, 0.00, 0.00
209, 28353.97, 20637.61, -20886.86, -14957.99, -27403.82, -1692.18, -42006.04, 0.00, 0.00, 0.00, 0.00
210, 28472.81, 20731.94, -20904.11, -14951.98, -27409.79, -1611.92, -41992.33, 0.00, 0.00, 0.00, 0.00
211, 28442.88, 20711.55, -20900.71, -14962.62, -27413.63, -1693.46, -42008.07, 0.00, 0.00, 0.00, 0.00
212, 28332.76, 20618.66, -20887.32, -14968.54, -27412.51, -1771.24, -42007.00, 0.00, 0.14, 0.77, 0.61
213, 28344.09, 20628.56, -20888.29, -14947.48, -27413.72, -1705.30, -42025.55, 0.00, 0.00, 0.00, 0.00
214, 28462.69, 20726.95, -20908.74, -14948.98, -27428.43, -1625.98, -42072.00, 0.00, 0.00, 0.00, 0.00
215, 28454.53, 20728.98, -20900.13, -14959.78, -27426.42, -1672.83, -42038.96, 0.00, 0.00, 0.00, 0.00
216, 28350.06, 20645.77, -20879.79, -14951.82, -27410.95, -1734.18, -42005.25, 0.00, 0.00, 0.00, 0.00
217, 28325.38, 20621.41, -20880.60, -14941.04, -27409.94, -1729.49, -42007.13, 0.00, 0.00, 0.00, 0.00
218, 28448.36, 20718.79, -20896.64, -14917.17, -27412.25, -1622.18, -42016.79, 0.00, 0.00, 0.00, 0.00
219, 28470.47, 20744.18, -20902.26, -14952.96, -27418.93, -1646.30, -42029.14, 0.00, 0.00, 0.00, 0.00
220, 28358.95, 20651.54, -20891.26, -14971.69, -27420.85, -1741.80, -42023.65, 0.00, 0.00, 0.00, 0.00
221, 28315.30, 20607.73, -20883.46, -14960.42, -27420.43, -1734.16, -42035.52, 0.00, 0.14, 0.78, 0.61
222, 28427.64, 20695.88, -20906.05, -14942.79, -27424.45, -1627.74, -42040.32, 0.00, 0.00, 0.00, 0.00
223, 28479.65, 20744.41, -20913.77, -14955.02, -27432.34, -1653.09, -42069.54, 0.00, 0.00, 0.00, 0.00
224, 28386.58, 20669.44, -20893.27, -14962.62, -27426.82, -1727.48, -42027.92, 0.00, 0.00, 0.00, 0.00
225, 28327.24, 20616.06, -20871.41, -14942.07, -27406.28, -1719.50, -41977.60, 0.00, 0.00, 0.00, 0.00
226, 28412.84, 20679.92, -20891.33, -14931.90, -27420.22, -1628.17, -42012.94, 0.00, 0.00, 0.00, 0.00
227, 28500.33, 20750.84, -20909.47, -14937.27, -27413.90, -1609.46, -42021.48, 0.00, 0.00, 0.00, 0.00
228, 28417.81, 20688.97, -20907.44, -14955.93, -27421.10, -1702.96, -42044.28, 0.00, 0.00, 0.00, 0.00
229, 28325.65, 20617.09, -20885.40, -14943.82, -27413.18, -1740.44, -42003.93, 0.00, 0.00, 0.00, 0.00
230, 28387.92, 20670.36, -20892.33, -14924.59, -27410.10, -1655.48, -42006.44, 0.00, 0.00, 0.00, 0.00
231, 28493.51, 20758.20, -20912.31, -14929.29, -27427.15, -1607.40, -42040.81, 0.00, 0.14, 0.78, 0.61
232, 28447.20, 20724.80, -20896.89, -14946.39, -27422.42, -1697.86, -42027.22, 0.00, 0.00, 0.00, 0.00
233, 28348.54, 20642.46, -20877.78, -14949.27, -27402.61, -1757.00, -42022.55, 0.00, 0.00, 0.00, 0.00
234, 28378.40, 20666.51, -20886.90, -14932.40, -27407.08, -1678.59, -42012.09, 0.00, 0.00, 0.00, 0.00
235, 28485.93, 20746.69, -20916.18, -14941.49, -27425.88, -1629.93, -42049.55, 0.00, 0.00, 0.00, 0.00
236, 28454.11, 20719.93, -20912.20, -14957.45, -27430.71, -1687.38, -42061.96, 0.00, 0.00, 0.00, 0.00
237, 28344.51, 20626.72, -20887.77, -14956.04, -27423.18, -1728.33, -42020.81, 0.00, 0.00, 0.00, 0.00
238, 28342.30, 20623.75, -20881.98, -14941.81, -27406.84, -1692.45, -41988.89, 0.00, 0.00, 0.00, 0.00
239, 28459.45, 20716.47, -20913.48, -14944.29, -27422.01, -1628.12, -42044.23, 0.00, 0.00, 0.00, 0.00
240, 28471.32, 20729.74, -20910.32, -14951.46, -27423.82, -1679.42, -42046.56, 0.00, 0.00, 0.00, 0.00
241, 28365.50, 20644.29, -20879.75, -14947.24, -27409.83, -1730.81, -41992.87, 0.00, 0.14, 0.77, 0.60
242, 28342.35, 20622.59, -20876.69, -14929.45, -27409.43, -1691.04, -42001.03, 0.00, 0.00, 0.00, 0.00
243, 28457.70, 20709.07, -20909.88, -14931.17, -27427.98, -1616.19, -42046.78, 0.00, 0.00, 0.00, 0.00
244, 28490.34, 20734.57, -20916.72, -14949.61, -27431.83, -1651.12, -42065.69, 0.00, 0.00, 0.00, 0.00
245, 28382.98, 20652.03, -20898.01, -14955.42, -27428.27, -1733.29, -42031.76, 0.00, 0.00, 0.00, 0.00
246, 28329.56, 20611.17, -20890.12, -14939.62, -27414.77, -1730.40, -42018.37, 0.00, 0.00, 0.00, 0.00
247, 28424.85, 20687.07, -20913.16, -14936.80, -27427.51, -1648.26, -42041.21, 0.00, 0.00, 0.00, 0.00
248, 28484.88, 20736.79, -20927.04, -14938.77, -27439.31, -1646.90, -42043.68, 0.00, 0.00, 0.00, 0.00
249, 28402.49, 20664.88, -20897.58, -14957.05, -27426.06, -1726.87, -42012.20, 0.00, 0.00, 0.00, 0.00
250, 28331.01, 20603.48, -20876.19, -14947.50, -27414.73, -1747.95, -42011.36, 0.00, 0.00, 0.00, 0.00
251, 28405.24, 20666.00, -20899.08, -14938.63, -27418.37, -1664.13, -42017.86, 0.00, 0.15, 0.77, 0.60
252, 28491.81, 20739.65, -20916.54, -14950.79, -27429.43, -1648.96, -42052.75, 0.00, 0.00, 0.00, 0.00
253, 28420.33, 20691.30, -20900.80, -14956.40, -27425.01, -1713.91, -42025.32, 0.00, 0.00, 0.00, 0.00
254, 28330.03, 20623.22, -20877.40, -14940.02, -27410.93, -1742.01, -42005.34, 0.00, 0.00, 0.00, 0.00
255, 28382.71, 20661.08, -20892.62, -14935.61, -27416.92, -1682.06, -42043.09, 0.00, 0.00, 0.00, 0.00
0, 28493.91, 20750.00, -20910.19, -14936.78, -27432.43, -1627.90, -42051.48, 0.00, 0.00, 0.00, 0.00
1, 28448.07, 20717.96, -20900.60, -14958.12, -27428.63, -1732.06, -42046.69, 0.00, 0.00, 0.00, 0.00
2, 28351.49, 20632.92, -20877.47, -14943.46, -27411.22, -1750.83, -41976.06, 0.00, 0.00, 0.00, 0.00
3, 28373.24, 20642.08, -20877.42, -14919.57, -27406.63, -1663.17, -41992.82, 0.00, 0.00, 0.00, 0.00
4, 28481.53, 20735.98, -20898.86, -14921.40, -27414.21, -1607.02, -42036.86, 0.00, 0.00, 0.00, 0.00
5, 28463.92, 20726.12, -20903.96, -14938.74, -27426.62, -1665.47, -42048.57, 0.00, 0.15, 0.78, 0.60
6, 28345.86, 20626.10, -20891.21, -14946.70, -27428.32, -1747.77, -42057.91, 0.00, 0.00, 0.00, 0.00
7, 28338.19, 20617.56, -20880.31, -14937.83, -27417.41, -1714.62, -42022.15, 0.00, 0.00, 0.00, 0.00
8, 28468.10, 20724.02, -20892.11, -14928.89, -27409.54, -1627.92, -42011.96, 0.00, 0.00, 0.00, 0.00
9, 28485.35, 20743.16, -20889.45, -14935.59, -27417.21, -1659.08, -42002.41, 0.00, 0.00, 0.00, 0.00
10, 28369.71, 20646.28, -20884.53, -14944.40, -27423.91, -1736.66, -42014.44, 0.00, 0.00, 0.00, 0.00
11, 28333.83, 20607.99, -20878.63, -14930.94, -27409.34, -1722.74, -41989.05, 0.00, 0.00, 0.00, 0.00
12, 28456.03, 20701.92, -20900.69, -14923.61, -27420.09, -1628.24, -42022.08, 0.00, 0.00, 0.00, 0.00
13, 28489.22, 20740.36, -20910.10, -14942.34, -27425.03, -1651.77, -42049.78, 0.00, 0.00, 0.00, 0.00
14, 28380.23, 20657.75, -20891.86, -14956.00, -27419.42, -1744.58, -42030.24, 0.00, 0.15, 0.77, 0.60
15, 28330.52, 20611.19, -20868.84, -14938.99, -27402.92, -1738.72, -41998.97, 0.00, 0.00, 0.00, 0.00
16, 28434.57, 20687.19, -20884.20, -14925.62, -27404.98, -1626.49, -42012.23, 0.00, 0.00, 0.00, 0.00
17, 28499.32, 20740.54, -20902.17, -14946.39, -27424.18, -1652.29, -42044.01, 0.00, 0.00, 0.00, 0.00
18, 28417.65, 20680.28, -20880.19, -14940.60, -27415.33, -1705.26, -41981.98, 0.00, 0.00, 0.00, 0.00
19, 28344.00, 20620.00, -20854.76, -14915.47, -27398.23, -1698.44, -41959.39, 0.00, 0.00, 0.00, 0.00
20, 28416.44, 20680.50, -20862.94, -14907.36, -27396.04, -1631.10, -42003.71, 0.00, 0.00, 0.00, 0.00
21, 28505.16, 20750.29, -20892.55, -14936.13, -27416.56, -1620.99, -42044.05, 0.00, 0.00, 0.00, 0.00
22, 28443.87, 20696.78, -20886.99, -14945.56, -27413.99, -1697.77, -42018.08, 0.00, 0.00, 0.00, 0.00
23, 28350.50, 20623.42, -20861.58, -14936.66, -27400.04, -1732.68, -42000.07, 0.00, 0.00, 0.00, 0.00
24, 28392.59, 20656.95, -20874.70, -14922.85, -27403.35, -1663.66, -42006.13, 0.00, 0.15, 0.77, 0.60
25, 28506.07, 20748.32, -20884.96, -14917.02, -27403.44, -1607.36, -42008.80, 0.00, 0.00, 0.00, 0.00
26, 28465.48, 20722.59, -20881.16, -14928.10, -27407.69, -1680.05, -41996.82, 0.00, 0.00, 0.00, 0.00
27, 28357.28, 20631.58, -20866.89, -14928.37, -27401.45, -1730.18, -41973.13, 0.00, 0.00, 0.00, 0.00
28, 28368.16, 20633.86, -20871.77, -14917.75, -27401.05, -1680.87, -42016.74, 0.00, 0.00, 0.00, 0.00
29, 28485.82, 20730.15, -20899.15, -14922.11, -27420.16, -1602.37, -42057.73, 0.00, 0.00, 0.00, 0.00
30, 28485.08, 20729.37, -20888.69, -14933.11, -27413.12, -1656.98, -41999.02, 0.00, 0.00, 0.00, 0.00
31, 28379.25, 20645.28, -20860.48, -14904.30, -27393.63, -1698.42, -41967.68, 0.00, 0.00, 0.00, 0.00
32, 28349.63, 20626.52, -20861.15, -14902.85, -27397.85, -1686.24, -42002.86, 0.00, 0.00, 0.00, 0.00
33, 28470.29, 20720.47, -20888.80, -14930.94, -27414.35, -1613.37, -42043.23, 0.00, 0.00, 0.00, 0.00
34, 28493.40, 20740.88, -20896.24, -14930.38, -27416.58, -1625.58, -42014.64, 0.00, 0.15, 0.78, 0.60
35, 28390.36, 20661.86, -20865.78, -14924.93, -27396.06, -1700.83, -41990.50, 0.00, 0.00, 0.00, 0.00
36, 28348.29, 20622.26, -20852.88, -14920.21, -27379.14, -1706.00, -41955.70, 0.00, 0.00, 0.00, 0.00
37, 28459.89, 20701.09, -20883.10, -14923.90, -27395.13, -1629.53, -42001.18, 0.00, 0.00, 0.00, 0.00
38, 28508.31, 20748.81, -20895.39, -14927.37, -27413.70, -1623.03, -42027.11, 0.00, 0.00, 0.00, 0.00
39, 28411.30, 20677.49, -20874.34, -14928.19, -27405.83, -1694.24, -41969.29, 0.00, 0.00, 0.00, 0.00
40, 28346.12, 20616.71, -20861.60, -14933.56, -27397.85, -1718.87, -41967.66, 0.00, 0.00, 0.00, 0.00
41, 28438.55, 20684.28, -20878.88, -14919.88, -27403.64, -1624.73, -42008.43, 0.00, 0.00, 0.00, 0.00
42, 28515.37, 20750.33, -20888.84, -14918.98, -27409.72, -1604.10, -42025.88, 0.00, 0.00, 0.00, 0.00
43, 28435.53, 20687.81, -20872.33, -14928.15, -27413.70, -1695.72, -42029.53, 0.00, 0.00, 0.00, 0.00
44, 28350.46, 20619.39, -20857.13, -14921.04, -27407.33, -1729.56, -41962.58, 0.00, 0.16, 0.78, 0.60
45, 28417.13, 20673.15, -20872.53, -14924.84, -27402.37, -1644.06, -41987.66, 0.00, 0.00, 0.00, 0.00
46, 28505.29, 20744.18, -20901.61, -14937.60, -27419.46, -1616.70, -42028.90, 0.00, 0.00, 0.00, 0.00
47, 28440.87, 20694.65, -20890.70, -14947.84, -27415.17, -1700.21, -42010.35, 0.00, 0.00, 0.00, 0.00
48, 28349.19, 20615.77, -20864.03, -14938.74, -27398.05, -1733.80, -41966.00, 0.00, 0.00, 0.00, 0.00
49, 28391.21, 20647.96, -20871.81, -14926.58, -27397.52, -1665.47, -41999.84, 0.00, 0.00, 0.00, 0.00
50, 28504.20, 20740.36, -20893.63, -14928.33, -27411.51, -1601.37, -42051.77, 0.00, 0.00, 0.00, 0.00
51, 28466.60, 20715.66, -20887.84, -14944.11, -27416.67, -1672.18, -42023.78, 0.00, 0.00, 0.00, 0.00
52, 28360.18, 20626.26, -20863.50, -14938.70, -27404.36, -1730.18, -41992.91, 0.00, 0.00, 0.00, 0.00
53, 28376.23, 20635.78, -20860.08, -14917.60, -27386.23, -1674.86, -41988.69, 0.00, 0.16, 0.78, 0.59
54, 28493.80, 20732.54, -20876.93, -14918.94, -27396.67, -1602.08, -41990.52, 0.00, 0.00, 0.00, 0.00
55, 28485.58, 20733.23, -20880.19, -14935.39, -27407.57, -1645.45, -41980.31, 0.00, 0.00, 0.00, 0.00
56, 28375.65, 20640.96, -20870.70, -14941.76, -27401.83, -1733.71, -42005.18, 0.00, 0.00, 0.00, 0.00
57, 28357.97, 20626.03, -20866.00, -14918.27, -27401.49, -1694.51, -41996.91, 0.00, 0.00, 0.00, 0.00
58, 28480.88, 20722.53, -20885.27, -14909.53, -27411.53, -1599.16, -42015.45, 0.00, 0.00, 0.00, 0.00
59, 28501.83, 20747.76, -20888.80, -14926.74, -27421.28, -1633.15, -42037.30, 0.00, 0.00, 0.00, 0.00
60, 28399.59, 20656.88, -20873.24, -14933.51, -27418.12, -1720.08, -42000.20, 0.00, 0.00, 0.00, 0.00
61, 28367.74, 20627.69, -20853.98, -14905.75, -27402.37, -1684.67, -41938.84, 0.00, 0.00, 0.00, 0.00
62, 28476.10, 20721.43, -20869.80, -14895.54, -27396.09, -1593.46, -41975.46, 0.00, 0.00, 0.00, 0.00
63, 28525.47, 20769.96, -20882.03, -14914.36, -27409.70, -1619.50, -42028.18, 0.00, 0.14, 0.77, 0.59
64, 28428.13, 20697.92, -20862.94, -14924.06, -27403.26, -1711.67, -42003.11, 0.00, 0.00, 0.00, 0.00
65, 28362.71, 20637.72, -20842.91, -14916.59, -27384.89, -1721.87, -41962.85, 0.00, 0.00, 0.00, 0.00
66, 28448.74, 20700.60, -20870.36, -14912.55, -27402.54, -1629.62, -41990.70, 0.00, 0.00, 0.00, 0.00
67, 28523.31, 20770.92, -20882.00, -14921.67, -27407.73, -1616.01, -42015.54, 0.00, 0.00, 0.00, 0.00
68, 28449.50, 20714.61, -20870.25, -14921.60, -27401.47, -1681.39, -41989.11, 0.00, 0.00, 0.00, 0.00
69, 28364.68, 20637.12, -20854.94, -14905.73, -27401.27, -1708.59, -41962.76, 0.00, 0.00, 0.00, 0.00
70, 28429.34, 20683.74, -20863.16, -14914.36, -27395.84, -1629.80, -41990.12, 0.00, 0.00, 0.00, 0.00
71, 28529.52, 20767.97, -20880.93, -14915.56, -27403.53, -1579.22, -42024.77, 0.00, 0.00, 0.00, 0.00
72, 28476.14, 20728.94, -20865.55, -14919.39, -27405.18, -1653.63, -41990.41, 0.00, 0.00, 0.00, 0.00
73, 28373.86, 20643.67, -20848.28, -14921.08, -27382.38, -1710.42, -41955.09, 0.00, 0.14, 0.78, 0.60
74, 28400.33, 20664.03, -20866.67, -14923.25, -27389.58, -1655.62, -41983.66, 0.00, 0.00, 0.00, 0.00
75, 28513.14, 20759.43, -20889.76, -14922.38, -27403.89, -1586.17, -42029.64, 0.00, 0.00, 0.00, 0.00
76, 28486.94, 20744.07, -20873.04, -14927.37, -27391.91, -1642.65, -41970.32, 0.00, 0.00, 0.00, 0.00
77, 28380.21, 20651.31, -20851.32, -14930.21, -27387.17, -1718.56, -41947.79, 0.00, 0.00, 0.00, 0.00
78, 28381.53, 20646.04, -20853.33, -14908.52, -27393.69, -1668.02, -41983.91, 0.00, 0.00, 0.00, 0.00
79, 28505.20, 20746.93, -20874.83, -14881.99, -27396.40, -1578.84, -42005.54, 0.00, 0.00, 0.00, 0.00
80, 28497.98, 20749.88, -20880.60, -14933.13, -27405.90, -1640.10, -42004.83, 0.00, 0.00, 0.00, 0.00
81, 28384.23, 20657.86, -20856.23, -14932.73, -27392.78, -1717.42, -41972.53, 0.00, 0.00, 0.00, 0.00
82, 28360.88, 20634.48, -20850.85, -14905.86, -27386.56, -1671.89, -41970.76, 0.00, 0.00, 0.00, 0.00
83, 28486.20, 20733.39, -20873.49, -14890.96, -27395.33, -1563.37, -41995.48, 0.00, 0.15, 0.78, 0.59
84, 28511.57, 20761.08, -20881.24, -14910.69, -27402.88, -1603.87, -42003.78, 0.00, 0.00, 0.00, 0.00
85, 28399.70, 20668.63, -20863.81, -14930.99, -27399.28, -1711.54, -42000.96, 0.00, 0.00, 0.00, 0.00
86, 28360.14, 20629.12, -20850.44, -14911.94, -27391.71, -1688.61, -41961.29, 0.00, 0.00, 0.00, 0.00
87, 28472.63, 20720.38, -20866.00, -14895.67, -27385.56, -1578.57, -41952.59, 0.00, 0.00, 0.00, 0.00
88, 28528.83, 20770.63, -20879.41, -14914.71, -27395.06, -1605.10, -41987.48, 0.00, 0.00, 0.00, 0.00
89, 28432.49, 20695.66, -20863.74, -14919.54, -27394.77, -1676.51, -41963.34, 0.00, 0.00, 0.00, 0.00
90, 28359.06, 20627.29, -20846.22, -14912.35, -27384.04, -1686.95, -41962.25, 0.00, 0.00, 0.00, 0.00
91, 28452.81, 20700.15, -20855.54, -14895.45, -27378.29, -1594.04, -41964.93, 0.00, 0.00, 0.00, 0.00
92, 28528.76, 20767.34, -20875.57, -14894.13, -27391.77, -1575.10, -42024.27, 0.00, 0.00, 0.00, 0.00
93, 28447.58, 20705.72, -20865.22, -14922.16, -27389.16, -1669.43, -41999.73, 0.00, 0.15, 0.78, 0.59
94, 28357.72, 20629.21, -20835.83, -14927.50, -27371.70, -1715.97, -41952.82, 0.00, 0.00, 0.00, 0.00
95, 28418.32, 20673.82, -20838.64, -14908.52, -27376.39, -1635.28, -41979.28, 0.00, 0.00, 0.00, 0.00
96, 28527.66, 20762.96, -20875.70, -14911.74, -27389.96, -1598.69, -41997.41, 0.00, 0.00, 0.00, 0.00
97, 28474.91, 20721.07, -20880.19, -14925.33, -27395.66, -1662.01, -41978.41, 0.00, 0.00, 0.00, 0.00
98, 28368.74, 20633.23, -20858.83, -14919.14, -27388.57, -1711.36, -41971.68, 0.00, 0.00, 0.00, 0.00
99, 28388.64, 20646.15, -20867.23, -14910.47, -27392.31, -1662.72, -41994.72, 0.00, 0.00, 0.00, 0.00
100, 28505.98, 20746.87, -20885.16, -14905.66, -27397.92, -1579.60, -42024.95, 0.00, 0.00, 0.00, 0.00
101, 28492.35, 20743.38, -20873.11, -14913.28, -27394.56, -1632.46, -42001.16, 0.00, 0.00, 0.00, 0.00
102, 28389.02, 20656.32, -20842.38, -14910.78, -27375.57, -1705.53, -41943.76, 0.00, 0.15, 0.78, 0.59
103, 28387.05, 20647.98, -20841.26, -14905.46, -27369.06, -1681.61, -41968.89, 0.00, 0.00, 0.00, 0.00
104, 28503.30, 20744.18, -20866.25, -14902.31, -27381.18, -1580.92, -41975.10, 0.00, 0.00, 0.00, 0.00
105, 28511.26, 20765.51, -20861.35, -14902.82, -27378.72, -1603.38, -41961.60, 0.00, 0.00, 0.00, 0.00
106, 28407.86, 20679.90, -20838.31, -14902.00, -27368.95, -1673.39, -41928.07, 0.00, 0.00, 0.00, 0.00
107, 28381.17, 20648.05, -20825.57, -14889.79, -27369.35, -1658.68, -41942.46, 0.00, 0.00, 0.00, 0.00
108, 28505.25, 20739.47, -20851.92, -14883.49, -27384.95, -1577.16, -42009.66, 0.00, 0.00, 0.00, 0.00
109, 28538.04, 20776.30, -20867.41, -14894.29, -27401.54, -1615.87, -42033.17, 0.00, 0.00, 0.00, 0.00
110, 28444.58, 20712.53, -20836.94, -14892.50, -27392.38, -1685.97, -42018.68, 0.00, 0.00, 0.00, 0.00
111, 28401.80, 20671.88, -20823.64, -14877.01, -27379.68, -1673.50, -41998.05, 0.00, 0.00, 0.00, 0.00
112, 28508.49, 20746.87, -20843.65, -14864.25, -27385.49, -1573.59, -42013.61, 0.00, 0.15, 0.78, 0.59
113, 28563.47, 20789.83, -20861.20, -14891.04, -27400.53, -1599.31, -42051.68, 0.00, 0.00, 0.00, 0.00
114, 28468.59, 20718.35, -20837.39, -14903.07, -27389.69, -1698.46, -42037.82, 0.00, 0.00, 0.00, 0.00
115, 28385.13, 20646.55, -20823.55, -14890.82, -27379.46, -1692.85, -41983.26, 0.00, 0.00, 0.00, 0.00
116, 28454.08, 20697.65, -20854.87, -14888.92, -27396.91, -1604.45, -42003.91, 0.00, 0.00, 0.00, 0.00
117, 28535.55, 20766.20, -20876.51, -14900.92, -27411.71, -1584.27, -42034.15, 0.00, 0.00, 0.00, 0.00
118, 28465.39, 20708.44, -20858.85, -14912.88, -27393.22, -1659.82, -42017.59, 0.00, 0.00, 0.00, 0.00
119, 28366.44, 20625.43, -20837.59, -14901.04, -27376.73, -1706.80, -41975.32, 0.00, 0.00, 0.00, 0.00
120, 28414.32, 20663.43, -20849.62, -14873.36, -27387.88, -1652.15, -42015.94, 0.00, 0.00, 0.00, 0.00
121, 28526.84, 20762.22, -20867.10, -14910.67, -27385.71, -1596.23, -42047.92, 0.00, 0.00, 0.00, 0.00
122, 28476.88, 20731.71, -20854.51, -14918.78, -27385.40, -1644.35, -42011.22, 0.00, 0.15, 0.77, 0.59
123, 28377.51, 20641.12, -20829.79, -14899.58, -27373.00, -1689.43, -41956.70, 0.00, 0.00, 0.00, 0.00
124, 28403.86, 20655.16, -20829.03, -14880.58, -27372.59, -1638.54, -41964.01, 0.00, 0.00, 0.00, 0.00
125, 28520.40, 20750.08, -20856.84, -14874.33, -27395.28, -1568.31, -41996.69, 0.00, 0.00, 0.00, 0.00
126, 28504.64, 20741.88, -20849.30, -14907.09, -27382.21, -1630.20, -41991.55, 0.00, 0.00, 0.00, 0.00
127, 28390.16, 20652.07, -20826.93, -14908.10, -27373.22, -1698.87, -41994.32, 0.00, 0.00, 0.00, 0.00
128, 28382.49, 20644.45, -20833.26, -14894.13, -27371.36, -1671.02, -41992.80, 0.00, 0.00, 0.00, 0.00
129, 28500.15, 20736.58, -20867.45, -14897.46, -27389.85, -1598.57, -42016.29, 0.00, 0.00, 0.00, 0.00
130, 28508.24, 20748.41, -20869.20, -14913.96, -27403.15, -1627.83, -42028.12, 0.00, 0.00, 0.00, 0.00
131, 28394.65, 20660.01, -20848.90, -14921.11, -27401.65, -1706.60, -41985.40, 0.00, 0.00, 0.00, 0.00
132, 28367.27, 20632.67, -20830.91, -14894.84, -27377.78, -1678.86, -41949.28, 0.00, 0.16, 0.77, 0.60
133, 28493.38, 20734.75, -20849.04, -14872.78, -27378.61, -1569.07, -42021.59, 0.00, 0.00, 0.00, 0.00
134, 28529.52, 20767.68, -20865.84, -14893.57, -27397.22, -1605.91, -42064.73, 0.00, 0.00, 0.00, 0.00
135, 28424.42, 20681.26, -20843.02, -14903.14, -27390.36, -1678.50, -41968.37, 0.00, 0.00, 0.00, 0.00
136, 28367.98, 20635.24, -20824.90, -14889.84, -27367.79, -1675.08, -41956.66, 0.00, 0.00, 0.00, 0.00
137, 28460.90, 20714.14, -20850.24, -14884.72, -27384.19, -1589.50, -41982.48, 0.00, 0.00, 0.00, 0.00
138, 28532.80, 20767.88, -20860.88, -14893.17, -27398.03, -1576.40, -42004.94, 0.00, 0.00, 0.00, 0.00
139, 28444.96, 20702.65, -20837.66, -14899.31, -27377.18, -1660.00, -41980.75, 0.00, 0.00, 0.00, 0.00
140, 28363.36, 20632.29, -20818.57, -14894.11, -27367.83, -1692.05, -41956.91, 0.00, 0.00, 0.00, 0.00
141, 28438.10, 20685.82, -20841.15, -14880.72, -27384.08, -1609.12, -42028.01, 0.00, 0.15, 0.78, 0.59
142, 28531.73, 20764.55, -20861.98, -14884.70, -27391.93, -1576.42, -42041.71, 0.00, 0.00, 0.00, 0.00
143, 28468.16, 20721.79, -20847.49, -14896.92, -27381.38, -1654.39, -41988.51, 0.00, 0.00, 0.00, 0.00
144, 28377.97, 20650.35, -20826.53, -14886.06, -27371.34, -1681.77, -41942.73, 0.00, 0.00, 0.00, 0.00
145, 28426.37, 20685.11, -20829.97, -14872.54, -27367.72, -1609.03, -41946.04, 0.00, 0.00, 0.00, 0.00
146, 28535.33, 20770.94, -20852.23, -14879.98, -27381.51, -1556.08, -41992.09, 0.00, 0.00, 0.00, 0.00
147, 28490.74, 20737.88, -20849.46, -14894.91, -27389.78, -1630.96, -41994.59, 0.00, 0.00, 0.00, 0.00
148, 28377.68, 20647.27, -20834.42, -14895.87, -27386.41, -1692.18, -41992.22, 0.00, 0.00, 0.00, 0.00
149, 28390.43, 20659.56, -20839.76, -14883.89, -27389.49, -1645.45, -41998.28, 0.00, 0.00, 0.00, 0.00
150, 28504.57, 20762.40, -20858.16, -14883.11, -27396.15, -1587.91, -42034.58, 0.00, 0.00, 0.00, 0.00
151, 28494.27, 20750.46, -20858.27, -14901.04, -27391.71, -1649.27, -42021.14, 0.00, 0.15, 0.78, 0.59
152, 28386.80, 20653.97, -20833.39, -14905.80, -27372.59, -1692.25, -41962.80, 0.00, 0.00, 0.00, 0.00
153, 28370.13, 20644.58, -20830.75, -14893.93, -27375.12, -1661.41, -41993.45, 0.00, 0.00, 0.00, 0.00
154, 28495.93, 20744.59, -20855.41, -14883.31, -27388.73, -1583.98, -42027.09, 0.00, 0.00, 0.00, 0.00
155, 28515.01, 20762.67, -20859.74, -14896.25, -27391.37, -1616.63, -42020.94, 0.00, 0.00, 0.00, 0.00
156, 28414.95, 20678.00, -20833.26, -14898.71, -27377.55, -1687.00, -41976.80, 0.00, 0.00, 0.00, 0.00
157, 28375.00, 20636.25, -20826.60, -14889.79, -27374.74, -1695.76, -41975.93, 0.00, 0.00, 0.00, 0.00
158, 28480.66, 20727.15, -20843.00, -14866.95, -27386.94, -1602.11, -42006.97, 0.00, 0.00, 0.00, 0.00
159, 28523.64, 20773.02, -20861.64, -14898.62, -27395.06, -1602.93, -42018.60, 0.00, 0.00, 0.00, 0.00
160, 28431.15, 20697.96, -20849.06, -14891.20, -27391.30, -1671.06, -41997.96, 0.00, 0.00, 0.00, 0.00
161, 28367.31, 20638.84, -20835.87, -14860.98, -27384.98, -1689.43, -41991.46, 0.00, 0.14, 0.77, 0.59
162, 28458.44, 20708.29, -20855.18, -14885.39, -27386.38, -1614.29, -42004.80, 0.00, 0.00, 0.00, 0.00
163, 28527.60, 20770.80, -20874.74, -14910.31, -27403.80, -1617.86, -42052.44, 0.00, 0.00, 0.00, 0.00
164, 28449.54, 20709.56, -20856.10, -14911.05, -27403.44, -1685.59, -42009.50, 0.00, 0.00, 0.00, 0.00
165, 28368.54, 20637.57, -20838.69, -14905.28, -27399.39, -1713.78, -41990.63, 0.00, 0.00, 0.00, 0.00
166, 28447.53, 20699.90, -20841.01, -14889.66, -27377.29, -1630.52, -41980.35, 0.00, 0.00, 0.00, 0.00
167, 28540.92, 20780.48, -20859.74, -14899.27, -27379.48, -1594.22, -42014.35, 0.00, 0.00, 0.00, 0.00
168, 28480.50, 20731.89, -20846.15, -14908.23, -27384.73, -1665.96, -42003.71, 0.00, 0.00, 0.00, 0.00
169, 28385.42, 20654.53, -20823.78, -14902.47, -27380.80, -1715.09, -41957.62, 0.00, 0.00, 0.00, 0.00
170, 28425.09, 20672.77, -20830.78, -14886.46, -27371.88, -1650.59, -41969.15, 0.00, 0.00, 0.00, 0.00
171, 28527.49, 20753.66, -20859.45, -14892.05, -27377.94, -1580.60, -42030.09, 0.00, 0.14, 0.77, 0.60
172, 28487.32, 20729.28, -20859.56, -14912.99, -27385.29, -1663.73, -42040.81, 0.00, 0.00, 0.00, 0.00
173, 28382.87, 20644.23, -20842.82, -14907.23, -27381.60, -1708.37, -41963.36, 0.00, 0.00, 0.00, 0.00
174, 28392.82, 20652.54, -20844.39, -14887.76, -27382.81, -1645.62, -41973.98, 0.00, 0.00, 0.00, 0.00
175, 28513.76, 20749.64, -20862.60, -14887.98, -27393.72, -1575.64, -42007.89, 0.00, 0.00, 0.00, 0.00
176, 28512.11, 20757.91, -20859.47, -14903.16, -27392.78, -1626.83, -42004.98, 0.00, 0.00, 0.00, 0.00
177, 28397.96, 20662.38, -20837.79, -14915.92, -27383.61, -1709.10, -41982.45, 0.00, 0.00, 0.00, 0.00
178, 28381.33, 20640.90, -20834.98, -14902.96, -27375.23, -1692.94, -41988.40, 0.00, 0.00, 0.00, 0.00
179, 28491.23, 20731.18, -20869.24, -14903.99, -27392.08, -1616.66, -42037.73, 0.00, 0.00, 0.00, 0.00
180, 28510.81, 20757.62, -20872.88, -14915.61, -27398.86, -1643.01, -42057.31, 0.00, 0.00, 0.00, 0.00
181, 28403.88, 20669.87, -20855.99, -14915.07, -27391.41, -1693.86, -42017.50, 0.00, 0.14, 0.78, 0.60
182, 28354.35, 20628.45, -20845.66, -14903.07, -27381.49, -1688.41, -41963.52, 0.00, 0.00, 0.00, 0.00
183, 28463.27, 20713.81, -20865.69, -14894.13, -27385.40, -1601.64, -42007.42, 0.00, 0.00, 0.00, 0.00
184, 28520.96, 20764.50, -20872.97, -14892.30, -27393.13, -1605.62, -42053.69, 0.00, 0.00, 0.00, 0.00
185, 28426.63, 20689.31, -20855.43, -14898.31, -27389.02, -1700.68, -42015.40, 0.00, 0.00, 0.00, 0.00
186, 28352.61, 20627.37, -20841.57, -14920.30, -27382.03, -1720.88, -41973.87, 0.00, 0.00, 0.00, 0.00
187, 28440.04, 20689.31, -20869.26, -14902.96, -27395.84, -1621.37, -42034.78, 0.00, 0.00, 0.00, 0.00
188, 28516.91, 20763.61, -20884.35, -14900.77, -27403.42, -1573.88, -42035.49, 0.00, 0.00, 0.00, 0.00
189, 28431.55, 20696.55, -20870.52, -14926.25, -27399.55, -1683.49, -41995.28, 0.00, 0.00, 0.00, 0.00
190, 28348.45, 20616.76, -20850.53, -14920.08, -27391.59, -1713.55, -41969.51, 0.00, 0.15, 0.78, 0.60
191, 28418.48, 20667.34, -20857.17, -14902.09, -27391.71, -1620.32, -42007.78, 0.00, 0.00, 0.00, 0.00
192, 28526.26, 20761.35, -20870.76, -14901.42, -27389.45, -1580.31, -41991.91, 0.00, 0.00, 0.00, 0.00
193, 28480.26, 20727.58, -20856.66, -14907.67, -27378.74, -1650.54, -41960.23, 0.00, 0.00, 0.00, 0.00
194, 28381.80, 20644.03, -20830.64, -14895.07, -27362.98, -1697.79, -41936.23, 0.00, 0.00, 0.00, 0.00
195, 28407.77, 20665.33, -20838.80, -14878.66, -27369.62, -1625.46, -41962.20, 0.00, 0.00, 0.00, 0.00
196, 28518.46, 20752.21, -20871.28, -14896.88, -27396.49, -1583.49, -42037.53, 0.00, 0.00, 0.00, 0.00
197, 28488.24, 20735.49, -20867.21, -14912.35, -27402.48, -1650.94, -42020.23, 0.00, 0.00, 0.00, 0.00
198, 28379.58, 20641.30, -20842.60, -14908.32, -27384.04, -1704.41, -41970.99, 0.00, 0.00, 0.00, 0.00
199, 28384.68, 20634.30, -20838.66, -14893.12, -27379.01, -1662.81, -41997.61, 0.00, 0.00, 0.00, 0.00
200, 28505.09, 20729.86, -20860.19, -14899.83, -27397.27, -1596.45, -42059.59, 0.00, 0.15, 0.78, 0.59
201, 28505.45, 20741.86, -20859.32, -14914.42, -27398.39, -1636.57, -42023.34, 0.00, 0.00, 0.00, 0.00
202, 28401.49, 20658.91, -20839.58, -14911.03, -27383.39, -1697.21, -41976.84, 0.00, 0.00, 0.00, 0.00
203, 28377.86, 20630.41, -20843.45, -14901.21, -27378.20, -1680.92, -41972.13, 0.00, 0.00, 0.00, 0.00
204, 28494.18, 20727.29, -20864.39, -14897.68, -27390.70, -1602.11, -42030.35, 0.00, 0.00, 0.00, 0.00
205, 28530.23, 20755.74, -20868.17, -14913.22, -27397.43, -1628.48, -42019.36, 0.00, 0.00, 0.00, 0.00
206, 28428.60, 20675.38, -20849.10, -14913.44, -27379.97, -1682.84, -41980.64, 0.00, 0.00, 0.00, 0.00
207, 28374.60, 20632.51, -20834.04, -14900.88, -27365.51, -1681.01, -41996.33, 0.00, 0.00, 0.00, 0.00
208, 28479.83, 20715.69, -20850.96, -14892.01, -27373.22, -1592.05, -41994.81, 0.00, 0.00, 0.00, 0.00
209, 28543.02, 20765.64, -20864.39, -14882.22, -27385.11, -1597.68, -41981.18, 0.00, 0.00, 0.00, 0.00
210, 28448.58, 20692.10, -20846.22, -14917.80, -27381.47, -1681.05, -41991.46, 0.00, 0.15, 0.78, 0.60
211, 28367.18, 20623.82, -20831.40, -14918.63, -27379.68, -1690.89, -41986.72, 0.00, 0.00, 0.00, 0.00
212, 28446.91, 20688.39, -20855.25, -14901.46, -27396.31, -1602.55, -42017.57, 0.00, 0.00, 0.00, 0.00
213, 28543.02, 20770.56, -20862.49, -14890.67, -27391.97, -1581.52, -41989.79, 0.00, 0.00, 0.00, 0.00
214, 28477.37, 20723.96, -20836.97, -14893.28, -27365.78, -1653.47, -41975.88, 0.00, 0.00, 0.00, 0.00
215, 28387.63, 20650.75, -20817.32, -14893.44, -27352.34, -1689.77, -41956.23, 0.00, 0.00, 0.00, 0.00
216, 28446.48, 20694.54, -20826.53, -14876.74, -27359.83, -1606.33, -41944.61, 0.00, 0.00, 0.00, 0.00
217, 28543.45, 20774.34, -20851.29, -14891.09, -27373.44, -1573.38, -41991.33, 0.00, 0.00, 0.00, 0.00
218, 28493.96, 20736.52, -20842.46, -14909.24, -27362.36, -1652.55, -41990.75, 0.00, 0.00, 0.00, 0.00
219, 28390.11, 20652.18, -20824.09, -14908.37, -27354.02, -1713.80, -41967.05, 0.00, 0.00, 0.00, 0.00
220, 28410.94, 20668.66, -20828.00, -14888.50, -27363.61, -1645.00, -41987.10, 0.00, 0.15, 0.78, 0.60
221, 28529.41, 20763.72, -20839.85, -14882.33, -27371.74, -1566.66, -42034.71, 0.00, 0.00, 0.00, 0.00
222, 28515.01, 20755.29, -20839.78, -14892.61, -27369.80, -1615.29, -41987.30, 0.00, 0.00, 0.00, 0.00
223, 28402.83, 20670.74, -20833.52, -14895.67, -27360.41, -1681.48, -41954.02, 0.00, 0.00, 0.00, 0.00
224, 28397.53, 20662.18, -20831.56, -14883.24, -27360.14, -1648.53, -41972.68, 0.00, 0.00, 0.00, 0.00
225, 28531.06, 20762.80, -20845.82, -14874.95, -27359.52, -1558.88, -41999.60, 0.00, 0.00, 0.00, 0.00
226, 28539.80, 20781.42, -20845.21, -14885.52, -27362.27, -1595.15, -41982.25, 0.00, 0.00, 0.00, 0.00
227, 28432.16, 20693.15, -20819.29, -14883.40, -27356.23, -1661.09, -41937.93, 0.00, 0.00, 0.00, 0.00
228, 28406.41, 20667.27, -20804.56, -14865.09, -27349.46, -1643.37, -41945.91, 0.00, 0.00, 0.00, 0.00
229, 28515.59, 20752.23, -20836.07, -14861.50, -27359.70, -1565.49, -42012.81, 0.00, 0.15, 0.77, 0.60
230, 28548.50, 20784.51, -20846.73, -14874.24, -27358.96, -1582.32, -41961.18, 0.00, 0.00, 0.00, 0.00
231, 28447.02, 20704.35, -20826.60, -14875.40, -27354.85, -1648.93, -41910.66, 0.00, 0.00, 0.00, 0.00
232, 28392.44, 20656.68, -20807.86, -14864.29, -27342.73, -1660.47, -41907.38, 0.00, 0.00, 0.00, 0.00
233, 28486.58, 20730.55, -20831.11, -14868.36, -27358.58, -1586.46, -41978.30, 0.00, 0.00, 0.00, 0.00
234, 28550.91, 20786.76, -20845.53, -14878.53, -27372.79, -1573.61, -41997.18, 0.00, 0.00, 0.00, 0.00
235, 28465.24, 20722.88, -20824.90, -14887.09, -27358.18, -1662.01, -41974.14, 0.00, 0.00, 0.00, 0.00
236, 28384.10, 20653.53, -20799.55, -14876.81, -27341.46, -1681.48, -41937.26, 0.00, 0.00, 0.00, 0.00
237, 28467.49, 20718.88, -20814.61, -14846.23, -27347.07, -1572.98, -41953.06, 0.00, 0.00, 0.00, 0.00
238, 28557.19, 20799.28, -20837.30, -14847.08, -27359.81, -1535.79, -41963.57, 0.00, 0.00, 0.00, 0.00
239, 28486.69, 20746.49, -20828.16, -14882.46, -27360.50, -1633.60, -41959.99, 0.00, 0.15, 0.77, 0.59
240, 28391.59, 20662.24, -20801.63, -14850.16, -27346.51, -1681.57, -41945.48, 0.00, 0.00, 0.00, 0.00
241, 28443.20, 20695.88, -20809.00, -14854.21, -27350.04, -1609.03, -41956.37, 0.00, 0.00, 0.00, 0.00
242, 28553.10, 20788.42, -20840.88, -14877.81, -27363.92, -1552.86, -41996.80, 0.00, 0.00, 0.00, 0.00
243, 28503.19, 20759.72, -20840.81, -14884.61, -27370.09, -1624.59, -41979.05, 0.00, 0.00, 0.00, 0.00
244, 28407.75, 20678.02, -20811.53, -14872.11, -27350.38, -1677.30, -41928.65, 0.00, 0.00, 0.00, 0.00
245, 28424.80, 20687.75, -20817.79, -14858.21, -27354.27, -1637.33, -41984.18, 0.00, 0.00, 0.00, 0.00
246, 28544.36, 20785.83, -20840.92, -14856.62, -27365.35, -1550.23, -42017.46, 0.00, 0.00, 0.00, 0.00
247, 28528.51, 20775.25, -20835.42, -14881.70, -27363.21, -1613.57, -41973.47, 0.00, 0.00, 0.00, 0.00
248, 28418.88, 20687.41, -20815.38, -14879.80, -27357.64, -1684.70, -41931.80, 0.00, 0.00, 0.00, 0.00
249, 28416.53, 20683.54, -20802.75, -14857.03, -27343.94, -1634.56, -41943.49, 0.00, 0.15, 0.78, 0.60
250, 28536.54, 20784.57, -20825.92, -14856.22, -27351.02, -1561.92, -41965.20, 0.00, 0.00, 0.00, 0.00
251, 28552.86, 20804.15, -20825.79, -14864.76, -27352.34, -1588.45, -41947.81, 0.00, 0.00, 0.00, 0.00
252, 28441.45, 20713.56, -20812.13, -14875.55, -27348.83, -1664.40, -41939.07, 0.00, 0.00, 0.00, 0.00
253, 28397.94, 20672.08, -20804.78, -14870.53, -27345.53, -1664.78, -41949.77, 0.00, 0.00, 0.00, 0.00
254, 28509.60, 20755.74, -20827.89, -14864.89, -27361.93, -1578.97, -41990.90, 0.00, 0.00, 0.00, 0.00
255, 28563.76, 20798.92, -20842.15, -14871.35, -27375.50, -1583.96, -41979.46, 0.00, 0.00, 0.00, 0.00
0, 28470.24, 20724.67, -20825.23, -14879.29, -27359.79, -1671.42, -41954.43, 0.00, 0.00, 0.00, 0.00
1, 28398.96, 20666.62, -20813.09, -14873.66, -27359.18, -1676.85, -41954.58, 0.00, 0.00, 0.00, 0.00
2, 28489.58, 20733.86, -20831.24, -14863.55, -27368.53, -1591.11, -42016.76, 0.00, 0.00, 0.00, 0.00
3, 28560.37, 20795.79, -20845.37, -14880.29, -27367.41, -1607.11, -42006.66, 0.00, 0.16, 0.77, 0.60
4, 28475.92, 20730.88, -20831.45, -14886.53, -27360.10, -1657.63, -41954.60, 0.00, 0.00, 0.00, 0.00
5, 28399.14, 20664.28, -20811.35, -14870.75, -27356.52, -1666.59, -41929.41, 0.00, 0.00, 0.00, 0.00
6, 28477.22, 20724.63, -20819.46, -14856.51, -27353.75, -1594.91, -41960.28, 0.00, 0.00, 0.00, 0.00
7, 28577.33, 20811.62, -20832.70, -14854.92, -27365.71, -1558.94, -41993.14, 0.00, 0.00, 0.00, 0.00
8, 28518.48, 20772.46, -20812.92, -14857.58, -27364.01, -1641.04, -41960.64, 0.00, 0.00, 0.00, 0.00
9, 28417.94, 20683.19, -20800.58, -14885.08, -27361.11, -1695.67, -41965.42, 0.00, 0.00, 0.00, 0.00
10, 28463.60, 20708.15, -20815.66, -14871.96, -27376.10, -1624.77, -41969.58, 0.00, 0.00, 0.00, 0.00
11, 28574.34, 20814.21, -20835.89, -14851.46, -27368.62, -1554.94, -41963.81, 0.00, 0.00, 0.00, 0.00
12, 28538.62, 20796.60, -20832.07, -14869.43, -27362.31, -1631.23, -41974.90, 0.00, 0.00, 0.00, 0.00
13, 28439.40, 20711.97, -20815.82, -14870.88, -27364.01, -1703.94, -41965.27, 0.00, 0.15, 0.77, 0.60
14, 28457.86, 20734.46, -20816.20, -14838.94, -27363.76, -1622.49, -41951.68, 0.00, 0.00, 0.00, 0.00
15, 28581.46, 20841.15, -20835.11, -14830.90, -27367.47, -1530.47, -41974.21, 0.00, 0.00, 0.00, 0.00
16, 28581.49, 20850.51, -20830.26, -14842.63, -27362.45, -1585.36, -41953.57, 0.00, 0.00, 0.00, 0.00
17, 28473.08, 20757.82, -20805.70, -14852.58, -27346.58, -1670.66, -41928.34, 0.00, 0.00, 0.00, 0.00
18, 28454.75, 20729.45, -20806.57, -14848.60, -27353.04, -1639.03, -41937.59, 0.00, 0.00, 0.00, 0.00
19, 28577.49, 20824.74, -20832.25, -14841.65, -27365.87, -1538.38, -41968.28, 0.00, 0.00, 0.00, 0.00
20, 28605.38, 20855.38, -20829.43, -14855.57, -27365.73, -1580.83, -41975.25, 0.00, 0.00, 0.00, 0.00
21, 28503.35, 20769.66, -20809.83, -14858.19, -27355.90, -1663.28, -41953.04, 0.00, 0.00, 0.00, 0.00
22, 28455.09, 20736.65, -20804.71, -14841.80, -27353.15, -1640.15, -41949.28, 0.00, 0.15, 0.78, 0.59
23, 28558.17, 20823.78, -20825.81, -14832.37, -27365.49, -1535.10, -41944.30, 0.00, 0.00, 0.00, 0.00
24, 28608.53, 20869.76, -20837.14, -14838.32, -27375.77, -1548.13, -41974.36, 0.00, 0.00, 0.00, 0.00
25, 28515.44, 20794.14, -20822.30, -14847.46, -27376.88, -1646.72, -41955.92, 0.00, 0.00, 0.00, 0.00
26, 28454.31, 20742.89, -20801.85, -14835.70, -27356.23, -1649.60, -41903.86, 0.00, 0.00, 0.00, 0.00
27, 28547.87, 20817.70, -20813.16, -14826.05, -27355.65, -1556.13, -41962.05, 0.00, 0.00, 0.00, 0.00
28, 28625.14, 20883.99, -20827.76, -14823.25, -27368.50, -1539.34, -41996.69, 0.00, 0.00, 0.00, 0.00
29, 28550.84, 20824.02, -20804.09, -14808.61, -27354.53, -1612.48, -41943.41, 0.00, 0.00, 0.00, 0.00
30, 28469.10, 20752.19, -20789.78, -14834.79, -27325.61, -1648.75, -41908.94, 0.00, 0.00, 0.00, 0.00
31, 28532.31, 20799.66, -20808.56, -14834.07, -27339.56, -1562.14, -41923.36, 0.00, 0.00, 0.00, 0.00
32, 28633.72, 20884.71, -20825.05, -14830.83, -27358.38, -1516.63, -41956.55, 0.00, 0.15, 0.78, 0.59
33, 28585.09, 20846.06, -20810.50, -14841.58, -27350.29, -1594.75, -41945.44, 0.00, 0.00, 0.00, 0.00
34, 28485.58, 20760.28, -20791.03, -14844.73, -27330.33, -1650.63, -41896.62, 0.00, 0.00, 0.00, 0.00
35, 28520.11, 20787.50, -20800.91, -14829.35, -27338.75, -1586.86, -41919.42, 0.00, 0.00, 0.00, 0.00
36, 28639.60, 20885.27, -20821.41, -14822.83, -27352.14, -1517.39, -41965.33, 0.00, 0.00, 0.00, 0.00
37, 28598.32, 20858.94, -20816.04, -14833.78, -27346.46, -1590.64, -41939.02, 0.00, 0.00, 0.00, 0.00
38, 28488.84, 20773.73, -20791.90, -14840.35, -27336.03, -1663.42, -41922.26, 0.00, 0.00, 0.00, 0.00
39, 28492.91, 20774.29, -20793.02, -14840.17, -27333.72, -1606.06, -41921.12, 0.00, 0.00, 0.00, 0.00
40, 28611.86, 20864.55, -20820.74, -14836.15, -27348.05, -1520.63, -41958.49, 0.00, 0.00, 0.00, 0.00
41, 28615.57, 20866.83, -20813.32, -14840.53, -27346.89, -1565.76, -41953.60, 0.00, 0.00, 0.00, 0.00
42, 28503.03, 20774.29, -20792.78, -14842.90, -27337.88, -1642.54, -41928.32, 0.00, 0.15, 0.78, 0.59
43, 28479.00, 20753.04, -20787.39, -14831.41, -27336.94, -1622.60, -41948.84, 0.00, 0.00, 0.00, 0.00
44, 28590.43, 20843.63, -20818.57, -14831.75, -27358.89, -1543.79, -41978.61, 0.00, 0.00, 0.00, 0.00
45, 28610.68, 20869.15, -20822.26, -14851.50, -27362.13, -1588.36, -41981.96, 0.00, 0.00, 0.00, 0.00
46, 28508.17, 20790.41, -20802.14, -14851.73, -27347.09, -1661.87, -41912.13, 0.00, 0.00, 0.00, 0.00
47, 28469.79, 20754.35, -20790.29, -14831.30, -27334.15, -1637.53, -41891.37, 0.00, 0.00, 0.00, 0.00
48, 28587.97, 20847.72, -20806.54, -14808.30, -27340.41, -1511.63, -41952.01, 0.00, 0.00, 0.00, 0.00
49, 28647.40, 20904.36, -20809.74, -14814.18, -27345.93, -1513.66, -41990.95, 0.00, 0.00, 0.00, 0.00
50, 28552.38, 20827.85, -20796.31, -14831.97, -27345.12, -1617.91, -41924.76, 0.00, 0.00, 0.00, 0.00
51, 28494.65, 20771.72, -20765.28, -14810.47, -27328.61, -1616.52, -41875.50, 0.00, 0.00, 0.00, 0.00
52, 28591.70, 20850.94, -20780.13, -14780.67, -27330.86, -1509.95, -41906.37, 0.00, 0.15, 0.78, 0.60
53, 28667.21, 20922.15, -20808.78, -14795.56, -27348.07, -1503.62, -41939.80, 0.00, 0.00, 0.00, 0.00
54, 28580.01, 20851.70, -20800.60, -14824.57, -27348.72, -1608.63, -41942.51, 0.00, 0.00, 0.00, 0.00
55, 28482.67, 20766.47, -20786.03, -14827.57, -27342.80, -1649.09, -41928.21, 0.00, 0.00, 0.00, 0.00
56, 28540.23, 20814.59, -20796.67, -14812.72, -27339.69, -1563.08, -41948.68, 0.00, 0.00, 0.00, 0.00
57, 28635.47, 20896.85, -20820.22, -14820.28, -27359.00, -1523.03, -41996.60, 0.00, 0.00, 0.00, 0.00
58, 28578.31, 20851.14, -20814.44, -14833.51, -27361.98, -1589.68, -41969.13, 0.00, 0.00, 0.00, 0.00
59, 28476.86, 20763.05, -20791.59, -14834.11, -27336.14, -1648.26, -41892.75, 0.00, 0.00, 0.00, 0.00
60, 28497.65, 20781.44, -20794.05, -14822.13, -27325.36, -1588.02, -41917.92, 0.00, 0.00, 0.00, 0.00
61, 28611.30, 20871.75, -20820.20, -14825.78, -27333.34, -1522.91, -41966.00, 0.00, 0.15, 0.78, 0.60
62, 28580.46, 20843.54, -20822.10, -14858.97, -27341.35, -1598.42, -41970.09, 0.00, 0.00, 0.00, 0.00
63, 28474.40, 20758.56, -20797.54, -14860.15, -27332.74, -1667.84, -41935.58, 0.00, 0.00, 0.00, 0.00
64, 28468.95, 20758.91, -20798.57, -14845.25, -27335.54, -1636.04, -41960.79, 0.00, 0.00, 0.00, 0.00
65, 28590.88, 20859.12, -20819.80, -14831.37, -27344.88, -1543.59, -41979.17, 0.00, 0.00, 0.00, 0.00
66, 28600.69, 20868.62, -20818.68, -14837.80, -27341.93, -1560.26, -41947.27, 0.00, 0.00, 0.00, 0.00
67, 28499.37, 20782.52, -20799.33, -14834.52, -27340.23, -1633.96, -41940.86, 0.00, 0.00, 0.00, 0.00
68, 28471.52, 20761.33, -20791.14, -14810.76, -27334.77, -1610.93, -41908.34, 0.00, 0.00, 0.00, 0.00
69, 28580.15, 20856.03, -20820.85, -14841.36, -27349.41, -1534.54, -41924.27, 0.00, 0.00, 0.00, 0.00
70, 28608.53, 20883.35, -20821.97, -14851.08, -27355.32, -1566.86, -41942.80, 0.00, 0.00, 0.00, 0.00
71, 28508.02, 20801.74, -20804.69, -14850.77, -27349.30, -1645.92, -41932.18, 0.00, 0.15, 0.78, 0.60
72, 28458.53, 20752.81, -20802.07, -14836.75, -27345.30, -1629.64, -41917.90, 0.00, 0.00, 0.00, 0.00
73, 28558.89, 20826.91, -20814.70, -14824.86, -27341.61, -1517.97, -41921.52, 0.00, 0.00, 0.00, 0.00
74, 28616.33, 20874.38, -20823.55, -14841.71, -27351.00, -1530.45, -41949.80, 0.00, 0.00, 0.00, 0.00
75, 28525.65, 20799.66, -20812.02, -14868.25, -27352.14, -1631.88, -41927.71, 0.00, 0.00, 0.00, 0.00
76, 28458.80, 20735.60, -20794.59, -14866.93, -27345.41, -1662.21, -41916.16, 0.00, 0.00, 0.00, 0.00
77, 28545.70, 20805.47, -20805.61, -14847.26, -27347.00, -1566.16, -41965.98, 0.00, 0.00, 0.00, 0.00
78, 28629.37, 20882.65, -20813.63, -14848.98, -27347.49, -1540.35, -41946.87, 0.00, 0.00, 0.00, 0.00
79, 28558.76, 20828.09, -20806.39, -14861.52, -27352.28, -1627.54, -41926.86, 0.00, 0.00, 0.00, 0.00
80, 28464.19, 20749.73, -20795.21, -14858.70, -27355.32, -1662.88, -41903.82, 0.00, 0.00, 0.00, 0.00
81, 28516.62, 20784.46, -20796.82, -14845.04, -27346.22, -1582.93, -41913.52, 0.00, 0.15, 0.78, 0.60
82, 28620.69, 20863.41, -20824.94, -14853.94, -27356.28, -1542.40, -41968.75, 0.00, 0.00, 0.00, 0.00
83, 28571.85, 20829.17, -20826.91, -14878.13, -27358.45, -1629.22, -41992.38, 0.00, 0.00, 0.00, 0.00
84, 28481.87, 20752.86, -20802.25, -14863.89, -27350.64, -1663.39, -41933.26, 0.00, 0.00, 0.00, 0.00
85, 28506.72, 20765.24, -20802.63, -14847.82, -27349.46, -1601.59, -41921.28, 0.00, 0.00, 0.00, 0.00
86, 28617.54, 20862.07, -20824.56, -14845.51, -27363.54, -1541.33, -41979.66, 0.00, 0.00, 0.00, 0.00
87, 28595.88, 20851.29, -20822.71, -14852.35, -27370.09, -1611.29, -41991.28, 0.00, 0.00, 0.00, 0.00
88, 28489.24, 20767.97, -20795.06, -14868.36, -27352.21, -1674.59, -41926.48, 0.00, 0.00, 0.00, 0.00
89, 28490.00, 20766.07, -20783.46, -14843.28, -27340.52, -1602.20, -41905.29, 0.00, 0.00, 0.00, 0.00
90, 28613.21, 20857.51, -20803.06, -14842.59, -27357.44, -1529.69, -41986.59, 0.00, 0.00, 0.00, 0.00
91, 28621.38, 20866.34, -20821.28, -14860.40, -27371.72, -1578.30, -41968.53, 0.00, 0.15, 0.78, 0.60
92, 28502.94, 20771.90, -20814.81, -14871.35, -27372.77, -1661.90, -41970.00, 0.00, 0.00, 0.00, 0.00
93, 28475.09, 20746.15, -20798.28, -14853.83, -27358.76, -1640.93, -41926.26, 0.00, 0.00, 0.00, 0.00
94, 28595.28, 20838.80, -20818.57, -14846.61, -27356.61, -1543.10, -41953.60, 0.00, 0.00, 0.00, 0.00
95, 28620.42, 20868.77, -20832.16, -14866.73, -27362.15, -1580.69, -41966.81, 0.00, 0.00, 0.00, 0.00
96, 28519.53, 20786.90, -20809.16, -14862.14, -27353.15, -1651.46, -41901.63, 0.00, 0.00, 0.00, 0.00
97, 28472.41, 20743.47, -20788.96, -14842.16, -27341.57, -1636.86, -41892.06, 0.00, 0.00, 0.00, 0.00
98, 28575.43, 20823.98, -20807.93, -14827.01, -27354.00, -1532.86, -41945.06, 0.00, 0.00, 0.00, 0.00
99, 28637.12, 20872.73, -20825.95, -14851.53, -27369.67, -1545.33, -41966.79, 0.00, 0.00, 0.00, 0.00
100, 28546.35, 20802.10, -20812.29, -14860.76, -27366.65, -1638.99, -41940.95, 0.00, 0.14, 0.78, 0.60
101, 28481.55, 20749.53, -20785.87, -14843.77, -27348.45, -1658.32, -41939.61, 0.00, 0.00, 0.00, 0.00
102, 28553.08, 20813.79, -20806.08, -14834.38, -27354.73, -1568.78, -41949.17, 0.00, 0.00, 0.00, 0.00
103, 28641.05, 20888.76, -20823.33, -14841.42, -27367.34, -1533.71, -41961.58, 0.00, 0.00, 0.00, 0.00
104, 28570.63, 20830.80, -20809.32, -14857.70, -27369.62, -1619.45, -41958.27, 0.00, 0.00, 0.00, 0.00
105, 28478.00, 20748.54, -20791.08, -14856.80, -27361.48, -1661.87, -41937.95, 0.00, 0.00, 0.00, 0.00
106, 28526.77, 20777.94, -20804.49, -14851.55, -27368.12, -1598.17, -41972.15, 0.00, 0.00, 0.00, 0.00
107, 28628.43, 20861.06, -20828.72, -14854.72, -27379.14, -1546.67, -42004.63, 0.00, 0.00, 0.00, 0.00
108, 28582.18, 20835.54, -20814.37, -14861.99, -27370.31, -1618.27, -41957.04, 0.00, 0.00, 0.00, 0.00
109, 28481.87, 20752.77, -20793.56, -14853.99, -27362.40, -1657.54, -41913.70, 0.00, 0.00, 0.00, 0.00
110, 28506.70, 20763.52, -20797.49, -14838.07, -27358.00, -1592.36, -41939.36, 0.00, 0.14, 0.77, 0.60
111, 28622.57, 20858.67, -20818.46, -14843.46, -27369.40, -1526.87, -42015.51, 0.00, 0.00, 0.00, 0.00
112, 28606.23, 20856.10, -20814.10, -14849.74, -27375.30, -1588.18, -42002.66, 0.00, 0.00, 0.00, 0.00
113, 28501.24, 20768.03, -20794.68, -14843.93, -27368.37, -1650.74, -41888.60, 0.00, 0.00, 0.00, 0.00
114, 28496.37, 20755.96, -20780.84, -14834.92, -27361.17, -1602.11, -41883.55, 0.00, 0.00, 0.00, 0.00
115, 28614.97, 20856.03, -20808.60, -14814.47, -27363.65, -1522.89, -41947.76, 0.00, 0.00, 0.00, 0.00
116, 28614.63, 20861.38, -20826.15, -14821.75, -27368.84, -1575.26, -41943.67, 0.00, 0.00, 0.00, 0.00
117, 28499.03, 20764.41, -20809.38, -14873.68, -27367.56, -1658.95, -41934.38, 0.00, 0.00, 0.00, 0.00
118, 28471.85, 20733.01, -20785.78, -14867.46, -27346.44, -1640.98, -41922.46, 0.00, 0.00, 0.00, 0.00
119, 28587.08, 20825.57, -20816.78, -14855.13, -27360.93, -1546.49, -41963.43, 0.00, 0.00, 0.00, 0.00
120, 28619.80, 20860.70, -20831.36, -14868.36, -27371.95, -1573.63, -41966.41, 0.00, 0.14, 0.76, 0.60
121, 28521.56, 20784.02, -20806.12, -14866.21, -27364.17, -1647.30, -41931.74, 0.00, 0.00, 0.00, 0.00
122, 28467.76, 20737.19, -20793.76, -14855.15, -27354.11, -1654.59, -41928.61, 0.00, 0.00, 0.00, 0.00
123, 28558.80, 20803.86, -20825.19, -14853.29, -27377.15, -1580.42, -41996.31, 0.00, 0.00, 0.00, 0.00
124, 28612.91, 20852.34, -20846.60, -14870.03, -27397.34, -1595.24, -42027.09, 0.00, 0.00, 0.00, 0.00
125, 28528.63, 20791.26, -20825.05, -14871.53, -27384.19, -1643.81, -41950.36, 0.00, 0.00, 0.00, 0.00
126, 28459.00, 20730.42, -20794.65, -14848.40, -27359.85, -1630.07, -41895.21, 0.00, 0.00, 0.00, 0.00
127, 28534.91, 20786.85, -20807.46, -14839.64, -27363.63, -1554.99, -41968.39, 0.00, 0.00, 0.00, 0.00
128, 28624.49, 20862.02, -20826.77, -14852.15, -27377.53, -1540.53, -42022.91, 0.00, 0.00, 0.00, 0.00
129, 28560.37, 20812.63, -20818.12, -14866.14, -27375.99, -1636.24, -41995.68, 0.00, 0.00, 0.00, 0.00
130, 28469.37, 20736.36, -20797.87, -14860.42, -27359.45, -1671.71, -41903.11, 0.00, 0.15, 0.77, 0.60
131, 28522.86, 20778.92, -20800.67, -14831.43, -27364.28, -1563.08, -41926.37, 0.00, 0.00, 0.00, 0.00
132, 28628.40, 20865.60, -20828.72, -14841.16, -27384.17, -1522.09, -41945.10, 0.00, 0.00, 0.00, 0.00
133, 28584.28, 20840.68, -20817.05, -14859.89, -27365.49, -1610.04, -41927.42, 0.00, 0.00, 0.00, 0.00
134, 28475.54, 20748.68, -20798.50, -14864.47, -27362.20, -1683.49, -41937.59, 0.00, 0.00, 0.00, 0.00
135, 28494.07, 20756.92, -20791.35, -14843.90, -27363.47, -1615.49, -41941.50, 0.00, 0.00, 0.00, 0.00
136, 28616.67, 20854.40, -20811.84, -14831.25, -27372.53, -1514.51, -41952.55, 0.00, 0.00, 0.00, 0.00
137, 28594.63, 20841.84, -20822.13, -14851.42, -27376.33, -1577.50, -41942.27, 0.00, 0.00, 0.00, 0.00
138, 28479.99, 20749.75, -20809.61, -14861.21, -27377.91, -1659.89, -41930.93, 0.00, 0.00, 0.00, 0.00
139, 28461.57, 20733.95, -20802.46, -14858.08, -27369.40, -1638.43, -41948.61, 0.00, 0.00, 0.00, 0.00
140, 28582.00, 20829.99, -20825.16, -14853.54, -27381.62, -1548.28, -41993.81, 0.00, 0.15, 0.77, 0.59
141, 28604.44, 20858.04, -20824.36, -14857.81, -27386.61, -1576.67, -41965.38, 0.00, 0.00, 0.00, 0.00
142, 28503.88, 20776.75, -20799.46, -14856.27, -27370.25, -1653.11, -41930.17, 0.00, 0.00, 0.00, 0.00
143, 28459.71, 20733.34, -20797.09, -14840.31, -27371.48, -1639.77, -41952.57, 0.00, 0.00, 0.00, 0.00
144, 28572.88, 20818.12, -20817.10, -14853.31, -27382.70, -1548.91, -42000.98, 0.00, 0.00, 0.00, 0.00
145, 28621.99, 20869.24, -20826.04, -14866.68, -27382.05, -1569.29, -41985.11, 0.00, 0.00, 0.00, 0.00
146, 28522.32, 20793.74, -20806.19, -14870.50, -27375.14, -1646.94, -41914.79, 0.00, 0.00, 0.00, 0.00
147, 28459.20, 20735.47, -20796.08, -14857.16, -27370.49, -1644.66, -41908.04, 0.00, 0.00, 0.00, 0.00
148, 28544.61, 20800.33, -20819.53, -14846.88, -27386.41, -1562.21, -41973.33, 0.00, 0.00, 0.00, 0.00
149, 28619.98, 20866.60, -20828.72, -14857.67, -27386.34, -1553.74, -41982.48, 0.00, 0.15, 0.77, 0.59
150, 28537.68, 20805.96, -20811.96, -14870.86, -27374.40, -1641.76, -41962.14, 0.00, 0.00, 0.00, 0.00
151, 28464.92, 20744.45, -20788.48, -14849.98, -27361.04, -1639.66, -41916.49, 0.00, 0.00, 0.00, 0.00
152, 28536.38, 20801.81, -20796.00, -14830.43, -27359.63, -1554.72, -41929.01, 0.00, 0.00, 0.00, 0.00
153, 28629.77, 20877.96, -20815.51, -14844.26, -27370.87, -1536.55, -41973.98, 0.00, 0.00, 0.00, 0.00
154, 28562.82, 20832.63, -20803.33, -14857.96, -27365.13, -1614.00, -41920.76, 0.00, 0.00, 0.00, 0.00
155, 28472.79, 20755.23, -20778.56, -14847.41, -27350.98, -1647.90, -41916.38, 0.00, 0.00, 0.00, 0.00
156, 28513.96, 20780.68, -20789.45, -14835.81, -27360.43, -1584.20, -41925.55, 0.00, 0.00, 0.00, 0.00
157, 28613.79, 20863.54, -20823.22, -14848.87, -27381.96, -1537.73, -41962.56, 0.00, 0.00, 0.00, 0.00
158, 28573.57, 20841.19, -20816.96, -14862.34, -27383.21, -1614.71, -41949.04, 0.00, 0.00, 0.00, 0.00
159, 28470.22, 20760.17, -20790.88, -14850.52, -27359.74, -1663.75, -41938.42, 0.00, 0.14, 0.77, 0.59
160, 28484.15, 20767.23, -20790.03, -14835.77, -27359.29, -1609.15, -41946.76, 0.00, 0.00, 0.00, 0.00
161, 28610.05, 20861.98, -20806.61, -14832.30, -27370.11, -1512.07, -41975.19, 0.00, 0.00, 0.00, 0.00
162, 28607.84, 20865.15, -20804.15, -14838.74, -27360.99, -1554.32, -41923.58, 0.00, 0.00, 0.00, 0.00
163, 28497.51, 20779.68, -20786.99, -14837.89, -27352.81, -1630.83, -41915.98, 0.00, 0.00, 0.00, 0.00
164, 28477.60, 20757.08, -20785.15, -14827.05, -27350.73, -1605.32, -41909.96, 0.00, 0.00, 0.00, 0.00
165, 28594.32, 20846.87, -20817.70, -14829.17, -27368.46, -1524.75, -41940.77, 0.00, 0.00, 0.00, 0.00
166, 28616.45, 20875.81, -20817.36, -14841.02, -27374.87, -1563.10, -41953.20, 0.00, 0.00, 0.00, 0.00
167, 28510.86, 20791.23, -20792.69, -14845.20, -27364.19, -1643.70, -41941.15, 0.00, 0.00, 0.00, 0.00
168, 28472.77, 20750.22, -20785.69, -14831.54, -27364.28, -1629.53, -41945.57, 0.00, 0.00, 0.00, 0.00
169, 28580.10, 20833.23, -20810.46, -14831.86, -27377.96, -1541.69, -41943.49, 0.00, 0.15, 0.77, 0.60
170, 28630.10, 20882.41, -20818.55, -14847.19, -27376.28, -1555.99, -41945.64, 0.00, 0.00, 0.00, 0.00
171, 28537.32, 20813.85, -20794.99, -14851.64, -27363.52, -1634.90, -41908.31, 0.00, 0.00, 0.00, 0.00
172, 28468.19, 20750.98, -20781.62, -14833.65, -27357.77, -1642.50, -41933.86, 0.00, 0.00, 0.00, 0.00
173, 28553.37, 20811.66, -20806.25, -14801.59, -27378.99, -1545.33, -41987.21, 0.00, 0.00, 0.00, 0.00
174, 28636.36, 20883.37, -20817.19, -14835.75, -27376.53, -1537.11, -41935.61, 0.00, 0.00, 0.00, 0.00
175, 28557.68, 20827.09, -20800.02, -14842.59, -27370.13, -1629.87, -41917.54, 0.00, 0.00, 0.00, 0.00
176, 28477.33, 20756.32, -20778.16, -14843.50, -27355.70, -1641.27, -41889.18, 0.00, 0.00, 0.00, 0.00
177, 28537.61, 20799.73, -20789.80, -14827.30, -27363.03, -1556.89, -41945.06, 0.00, 0.00, 0.00, 0.00
178, 28639.87, 20891.17, -20803.44, -14828.35, -27375.10, -1509.57, -41948.01, 0.00, 0.00, 0.00, 0.00
179, 28586.29, 20853.06, -20787.72, -14841.69, -27367.18, -1593.66, -41909.63, 0.00, 0.14, 0.77, 0.60
180, 28489.04, 20766.51, -20776.64, -14844.51, -27355.16, -1656.31, -41924.61, 0.00, 0.00, 0.00, 0.00
181, 28518.61, 20783.28, -20790.12, -14831.70, -27357.19, -1581.07, -41935.87, 0.00, 0.00, 0.00, 0.00
182, 28626.62, 20874.05, -20813.12, -14830.74, -27378.47, -1510.28, -41961.71, 0.00, 0.00, 0.00, 0.00
183, 28603.57, 20867.79, -20798.23, -14823.10, -27368.06, -1566.75, -41929.55, 0.00, 0.00, 0.00, 0.00
184, 28500.82, 20783.23, -20773.08, -14822.83, -27349.68, -1626.87, -41889.80, 0.00, 0.00, 0.00, 0.00
185, 28501.29, 20774.54, -20772.68, -14823.94, -27343.16, -1592.05, -41932.12, 0.00, 0.00, 0.00, 0.00
186, 28617.81, 20862.63, -20803.37, -14825.15, -27370.98, -1517.62, -41987.24, 0.00, 0.00, 0.00, 0.00
187, 28619.22, 20873.27, -20795.71, -14829.17, -27365.64, -1551.57, -41904.42, 0.00, 0.00, 0.00, 0.00
188, 28511.17, 20789.74, -20769.02, -14830.76, -27348.34, -1630.58, -41888.57, 0.00, 0.15, 0.77, 0.61
189, 28478.65, 20758.31, -20767.27, -14828.46, -27350.11, -1621.51, -41926.13, 0.00, 0.00, 0.00, 0.00
190, 28596.93, 20846.76, -20795.26, -14825.38, -27364.05, -1523.76, -41949.62, 0.00, 0.00, 0.00, 0.00
191, 28621.54, 20873.51, -20806.34, -14842.70, -27374.81, -1557.69, -41968.50, 0.00, 0.00, 0.00, 0.00
192, 28519.01, 20796.04, -20785.33, -14842.09, -27365.89, -1634.16, -41913.07, 0.00, 0.00, 0.00, 0.00
193, 28478.00, 20759.72, -20768.32, -14821.04, -27351.07, -1606.69, -41865.06, 0.00, 0.00, 0.00, 0.00
194, 28581.42, 20841.79, -20792.91, -14813.01, -27361.93, -1514.93, -41923.51, 0.00, 0.00, 0.00, 0.00
195, 28634.71, 20887.79, -20805.83, -14828.50, -27377.24, -1532.57, -41959.25, 0.00, 0.00, 0.00, 0.00
196, 28535.26, 20811.42, -20794.70, -14842.07, -27375.66, -1627.61, -41929.08, 0.00, 0.00, 0.00, 0.00
197, 28455.29, 20750.04, -20775.81, -14834.83, -27354.44, -1643.10, -41885.09, 0.00, 0.00, 0.00, 0.00
198, 28532.72, 20809.54, -20790.79, -14826.40, -27357.71, -1551.68, -41938.71, 0.00, 0.15, 0.77, 0.60
199, 28617.09, 20878.79, -20805.85, -14827.39, -27365.53, -1520.97, -41941.17, 0.00, 0.00, 0.00, 0.00
200, 28542.69, 20824.76, -20793.87, -14837.58, -27363.52, -1592.74, -41913.57, 0.00, 0.00, 0.00, 0.00
201, 28457.81, 20751.72, -20765.91, -14827.28, -27355.38, -1626.49, -41913.36, 0.00, 0.00, 0.00, 0.00
202, 28514.88, 20786.76, -20785.18, -14816.26, -27362.09, -1560.22, -41907.93, 0.00, 0.00, 0.00, 0.00
203, 28614.57, 20866.98, -20813.90, -14828.08, -27361.82, -1515.96, -41931.45, 0.00, 0.00, 0.00, 0.00
204, 28558.40, 20832.12, -20806.19, -14845.33, -27364.32, -1596.47, -41929.66, 0.00, 0.00, 0.00, 0.00
205, 28464.37, 20756.75, -20781.76, -14833.42, -27354.53, -1641.87, -41893.29, 0.00, 0.00, 0.00, 0.00
206, 28499.61, 20783.97, -20779.97, -14812.01, -27352.92, -1561.67, -41912.38, 0.00, 0.00, 0.00, 0.00
207, 28616.78, 20878.50, -20806.93, -14819.79, -27372.24, -1500.45, -41974.03, 0.00, 0.00, 0.00, 0.00
208, 28589.65, 20866.45, -20806.81, -14827.07, -27373.04, -1576.74, -41938.20, 0.00, 0.16, 0.77, 0.60
209, 28484.88, 20783.95, -20780.75, -14827.63, -27360.99, -1637.91, -41892.11, 0.00, 0.00, 0.00, 0.00
210, 28483.50, 20779.92, -20779.63, -14818.96, -27354.38, -1581.14, -41886.83, 0.00, 0.00, 0.00, 0.00
211, 28603.79, 20879.59, -20807.60, -14811.25, -27371.77, -1502.10, -41959.50, 0.00, 0.00, 0.00, 0.00
212, 28611.42, 20893.00, -20808.51, -14827.41, -27377.22, -1544.24, -41942.11, 0.00, 0.00, 0.00, 0.00
213, 28501.69, 20804.02, -20784.93, -14832.24, -27369.69, -1620.81, -41883.57, 0.00, 0.00, 0.00, 0.00
214, 28477.33, 20778.81, -20769.55, -14817.95, -27352.88, -1605.70, -41866.87, 0.00, 0.00, 0.00, 0.00
215, 28595.95, 20873.98, -20791.30, -14811.76, -27353.30, -1507.56, -41920.83, 0.00, 0.00, 0.00, 0.00
216, 28623.15, 20895.21, -20813.85, -14831.52, -27367.79, -1552.86, -41963.25, 0.00, 0.00, 0.00, 0.00
217, 28516.71, 20814.59, -20799.39, -14831.75, -27351.29, -1616.10, -41890.21, 0.00, 0.00, 0.00, 0.00
218, 28465.66, 20769.24, -20783.50, -14820.03, -27343.02, -1610.51, -41886.83, 0.00, 0.15, 0.78, 0.60
219, 28560.54, 20845.66, -20809.52, -14817.89, -27357.62, -1535.32, -41947.20, 0.00, 0.00, 0.00, 0.00
220, 28620.42, 20903.48, -20820.94, -14828.84, -27367.61, -1532.15, -41942.85, 0.00, 0.00, 0.00, 0.00
221, 28531.98, 20829.32, -20807.37, -14837.45, -27371.99, -1607.60, -41919.45, 0.00, 0.00, 0.00, 0.00
222, 28464.34, 20764.84, -20787.59, -14824.30, -27364.41, -1623.90, -41890.18, 0.00, 0.00, 0.00, 0.00
223, 28541.34, 20823.80, -20802.07, -14811.41, -27363.27, -1532.15, -41906.12, 0.00, 0.00, 0.00, 0.00
224, 28627.46, 20895.37, -20819.62, -14818.29, -27380.10, -1510.78, -41964.66, 0.00, 0.00, 0.00, 0.00
225, 28560.12, 20844.37, -20804.87, -14830.29, -27370.76, -1601.88, -41942.40, 0.00, 0.00, 0.00, 0.00
226, 28465.64, 20764.93, -20780.10, -14826.09, -27352.66, -1639.72, -41888.40, 0.00, 0.00, 0.00, 0.00
227, 28515.26, 20799.95, -20798.12, -14810.76, -27353.59, -1559.88, -41913.50, 0.00, 0.00, 0.00, 0.00
228, 28616.83, 20882.85, -20831.02, -14825.91, -27368.62, -1525.62, -41983.10, 0.00, 0.14, 0.78, 0.59
229, 28580.53, 20861.35, -20812.78, -14834.74, -27366.87, -1583.67, -41931.36, 0.00, 0.00, 0.00, 0.00
230, 28487.19, 20781.44, -20783.37, -14829.09, -27356.32, -1634.83, -41893.36, 0.00, 0.00, 0.00, 0.00
231, 28505.56, 20798.54, -20790.45, -14811.81, -27356.79, -1567.91, -41912.83, 0.00, 0.00, 0.00, 0.00
232, 28626.86, 20901.63, -20814.37, -14800.92, -27365.71, -1488.31, -41940.50, 0.00, 0.00, 0.00, 0.00
233, 28619.37, 20902.75, -20806.66, -14804.03, -27369.58, -1543.41, -41921.10, 0.00, 0.00, 0.00, 0.00
234, 28515.62, 20820.40, -20776.01, -14806.06, -27348.86, -1621.89, -41864.82, 0.00, 0.00, 0.00, 0.00
235, 28507.73, 20801.40, -20776.44, -14815.32, -27343.58, -1602.46, -41886.65, 0.00, 0.00, 0.00, 0.00
236, 28630.08, 20894.16, -20799.46, -14802.04, -27358.02, -1486.84, -41926.77, 0.00, 0.00, 0.00, 0.00
237, 28645.62, 20911.15, -20801.81, -14818.85, -27362.38, -1529.80, -41890.92, 0.00, 0.14, 0.78, 0.58
238, 28545.77, 20829.79, -20780.82, -14821.58, -27347.78, -1615.92, -41869.98, 0.00, 0.00, 0.00, 0.00
239, 28511.91, 20796.80, -20773.49, -14809.51, -27344.14, -1607.54, -41886.95, 0.00, 0.00, 0.00, 0.00
240, 28626.06, 20888.78, -20793.42, -14794.02, -27356.66, -1501.97, -41926.80, 0.00, 0.00, 0.00, 0.00
241, 28668.53, 20928.56, -20802.57, -14803.83, -27365.60, -1525.46, -41940.95, 0.00, 0.00, 0.00, 0.00
242, 28582.36, 20859.99, -20773.29, -14808.86, -27349.95, -1608.12, -41878.27, 0.00, 0.00, 0.00, 0.00
243, 28518.84, 20801.94, -20765.08, -14807.67, -27344.03, -1609.59, -41873.78, 0.00, 0.00, 0.00, 0.00
244, 28607.88, 20870.00, -20785.47, -14794.66, -27349.06, -1523.05, -41915.80, 0.00, 0.00, 0.00, 0.00
245, 28672.44, 20931.38, -20797.78, -14809.28, -27356.68, -1519.56, -41928.45, 0.00, 0.00, 0.00, 0.00
246, 28583.86, 20866.31, -20784.80, -14826.51, -27360.01, -1616.75, -41916.61, 0.00, 0.00, 0.00, 0.00
247, 28506.52, 20799.08, -20765.04, -14808.16, -27344.32, -1635.12, -41892.71, 0.00, 0.15, 0.78, 0.58
248, 28585.62, 20855.25, -20774.61, -14785.01, -27347.25, -1514.89, -41878.36, 0.00, 0.00, 0.00, 0.00
249, 28685.09, 20937.91, -20779.28, -14793.43, -27363.27, -1480.29, -41927.11, 0.00, 0.00, 0.00, 0.00
250, 28611.37, 20892.35, -20770.85, -14816.79, -27365.62, -1581.83, -41939.67, 0.00, 0.00, 0.00, 0.00
251, 28509.22, 20804.64, -20770.71, -14822.00, -27357.86, -1637.47, -41901.59, 0.00, 0.00, 0.00, 0.00
252, 28553.99, 20831.33, -20784.51, -14818.78, -27361.37, -1584.31, -41930.35, 0.00, 0.00, 0.00, 0.00
253, 28668.03, 20924.85, -20801.18, -14814.00, -27366.56, -1509.84, -41932.27, 0.00, 0.00, 0.00, 0.00
254, 28625.50, 20896.00, -20795.73, -14823.83, -27371.41, -1561.90, -41919.55, 0.00, 0.00, 0.00, 0.00
255, 28518.25, 20802.34, -20775.34, -14827.01, -27358.82, -1630.47, -41864.46, 0.00, 0.00, 0.00, 0.00
0, 28527.31, 20805.85, -20778.34, -14819.56, -27358.02, -1587.58, -41896.15, 0.00, 0.00, 0.00, 0.00
1, 28650.24, 20911.06, -20800.80, -14813.91, -27375.88, -1512.72, -41971.50, 0.00, 0.15, 0.78, 0.59
2, 28639.09, 20911.22, -20799.01, -14826.36, -27375.41, -1554.32, -41928.34, 0.00, 0.00, 0.00, 0.00
3, 28526.55, 20824.81, -20777.15, -14828.64, -27360.77, -1624.86, -41864.79, 0.00, 0.00, 0.00, 0.00
4, 28512.98, 20809.38, -20770.38, -14805.17, -27343.56, -1580.89, -41875.61, 0.00, 0.00, 0.00, 0.00
5, 28636.88, 20897.25, -20796.13, -14804.90, -27360.12, -1506.53, -41937.75, 0.00, 0.00, 0.00, 0.00
6, 28655.43, 20919.20, -20800.51, -14829.44, -27378.03, -1558.52, -41954.25, 0.00, 0.00, 0.00, 0.00
7, 28549.14, 20843.16, -20771.01, -14824.88, -27364.03, -1621.64, -41907.53, 0.00, 0.00, 0.00, 0.00
8, 28515.86, 20816.04, -20752.86, -14794.78, -27346.58, -1589.03, -41896.46, 0.00, 0.00, 0.00, 0.00
9, 28627.44, 20904.22, -20781.24, -14784.25, -27361.57, -1493.90, -41932.09, 0.00, 0.00, 0.00, 0.00
10, 28676.68, 20950.63, -20786.59, -14789.17, -27373.53, -1500.83, -41902.50, 0.00, 0.00, 0.00, 0.00
11, 28578.16, 20878.38, -20764.68, -14786.91, -27369.46, -1580.00, -41895.19, 0.00, 0.15, 0.78, 0.60
12, 28508.73, 20817.50, -20761.17, -14772.58, -27365.46, -1589.45, -41895.48, 0.00, 0.00, 0.00, 0.00
13, 28595.53, 20878.85, -20782.61, -14786.26, -27370.16, -1502.98, -41915.38, 0.00, 0.00, 0.00, 0.00
14, 28668.66, 20942.49, -20795.66, -14804.07, -27378.92, -1511.67, -41950.51, 0.00, 0.00, 0.00, 0.00
15, 28591.99, 20890.79, -20776.37, -14810.38, -27367.10, -1596.50, -41919.87, 0.00, 0.00, 0.00, 0.00
16, 28502.72, 20808.65, -20771.83, -14807.05, -27361.51, -1620.55, -41871.14, 0.00, 0.00, 0.00, 0.00
17, 28552.14, 20833.23, -20794.59, -14812.88, -27380.06, -1549.94, -41937.66, 0.00, 0.00, 0.00, 0.00
18, 28646.62, 20907.29, -20814.77, -14829.35, -27392.64, -1533.91, -41971.52, 0.00, 0.00, 0.00, 0.00
19, 28585.11, 20869.06, -20796.26, -14842.36, -27377.40, -1608.70, -41917.41, 0.00, 0.00, 0.00, 0.00
20, 28493.76, 20793.22, -20776.26, -14836.51, -27363.14, -1643.39, -41898.97, 0.00, 0.14, 0.78, 0.60
21, 28540.63, 20826.86, -20782.29, -14814.24, -27360.01, -1564.71, -41917.88, 0.00, 0.00, 0.00, 0.00
22, 28660.88, 20928.32, -20799.93, -14810.06, -27369.75, -1496.20, -41937.10, 0.00, 0.00, 0.00, 0.00
23, 28627.11, 20906.10, -20791.62, -14824.95, -27366.20, -1570.37, -41910.77, 0.00, 0.00, 0.00, 0.00
24, 28521.36, 20812.51, -20768.23, -14828.24, -27356.61, -1639.77, -41879.43, 0.00, 0.00, 0.00, 0.00
25, 28534.79, 20815.58, -20759.81, -14814.27, -27337.10, -1576.98, -41890.45, 0.00, 0.00, 0.00, 0.00
26, 28645.73, 20904.04, -20791.08, -14816.21, -27350.76, -1494.37, -41929.03, 0.00, 0.00, 0.00, 0.00
27, 28635.80, 20900.91, -20789.40, -14835.34, -27362.87, -1568.09, -41950.89, 0.00, 0.00, 0.00, 0.00
28, 28522.66, 20814.37, -20773.04, -14843.84, -27359.36, -1646.68, -41937.93, 0.00, 0.00, 0.00, 0.00
29, 28494.32, 20788.51, -20776.28, -14833.24, -27365.51, -1617.91, -41963.19, 0.00, 0.00, 0.00, 0.00
30, 28618.44, 20882.29, -20796.04, -14817.46, -27371.32, -1521.15, -41955.43, 0.00, 0.14, 0.78, 0.61
31, 28641.99, 20904.29, -20798.30, -14832.55, -27368.95, -1542.32, -41900.11, 0.00, 0.00, 0.00, 0.00
32, 28536.00, 20820.76, -20777.31, -14839.12, -27353.04, -1617.48, -41870.94, 0.00, 0.00, 0.00, 0.00
33, 28486.78, 20776.06, -20770.51, -14826.90, -27346.71, -1615.45, -41861.33, 0.00, 0.00, 0.00, 0.00
34, 28595.73, 20864.30, -20789.29, -14815.56, -27360.86, -1524.14, -41897.32, 0.00, 0.00, 0.00, 0.00
35, 28653.13, 20916.38, -20799.10, -14830.58, -27371.30, -1542.76, -41926.98, 0.00, 0.00, 0.00, 0.00
36, 28556.21, 20839.56, -20778.56, -14840.46, -27361.80, -1636.19, -41908.71, 0.00, 0.00, 0.00, 0.00
37, 28486.18, 20776.75, -20766.47, -14833.09, -27355.94, -1648.11, -41910.50, 0.00, 0.00, 0.00, 0.00
38, 28568.79, 20838.51, -20787.79, -14832.24, -27369.98, -1566.30, -41936.61, 0.00, 0.00, 0.00, 0.00
39, 28652.88, 20915.91, -20793.89, -14836.48, -27375.95, -1540.26, -41940.16, 0.00, 0.00, 0.00, 0.00
40, 28574.83, 20864.30, -20773.93, -14845.76, -27370.83, -1615.52, -41914.64, 0.00, 0.14, 0.77, 0.60
41, 28495.30, 20794.19, -20748.95, -14819.76, -27354.64, -1626.78, -41872.24, 0.00, 0.00, 0.00, 0.00
42, 28560.23, 20835.76, -20771.47, -14780.40, -27356.43, -1542.18, -41902.28, 0.00, 0.00, 0.00, 0.00
43, 28668.06, 20930.60, -20787.26, -14809.80, -27366.34, -1504.32, -41932.12, 0.00, 0.00, 0.00, 0.00
44, 28623.55, 20904.18, -20776.26, -14820.03, -27372.01, -1582.37, -41923.07, 0.00, 0.00, 0.00, 0.00
45, 28525.34, 20817.16, -20758.64, -14831.81, -27356.12, -1638.54, -41894.48, 0.00, 0.00, 0.00, 0.00
46, 28535.09, 20809.00, -20768.37, -14830.02, -27359.03, -1586.93, -41945.21, 0.00, 0.00, 0.00, 0.00
47, 28638.31, 20881.94, -20793.80, -14842.23, -27378.88, -1537.33, -42002.48, 0.00, 0.00, 0.00, 0.00
48, 28602.03, 20859.25, -20783.46, -14848.58, -27371.97, -1584.22, -41915.02, 0.00, 0.00, 0.00, 0.00
49, 28488.68, 20766.13, -20754.18, -14836.71, -27355.20, -1629.24, -41862.71, 0.00, 0.00, 0.00, 0.00
50, 28488.15, 20752.28, -20760.30, -14828.42, -27365.91, -1594.48, -41919.71, 0.00, 0.13, 0.79, 0.60
51, 28601.25, 20828.16, -20787.32, -14835.54, -27373.44, -1521.04, -41949.51, 0.00, 0.00, 0.00, 0.00
52, 28594.23, 20831.94, -20790.41, -14851.19, -27377.58, -1569.11, -41930.80, 0.00, 0.00, 0.00, 0.00
53, 28484.08, 20741.17, -20768.12, -14854.95, -27363.79, -1645.78, -41885.89, 0.00, 0.00, 0.00, 0.00
54, 28448.12, 20701.92, -20764.30, -14850.25, -27359.63, -1631.81, -41870.25, 0.00, 0.00, 0.00, 0.00
55, 28564.84, 20796.64, -20792.51, -14843.35, -27379.93, -1535.63, -41917.81, 0.00, 0.00, 0.00, 0.00
56, 28605.43, 20845.39, -20789.60, -14839.01, -27374.07, -1545.24, -41919.62, 0.00, 0.00, 0.00, 0.00
57, 28506.95, 20773.71, -20768.39, -14844.75, -27359.41, -1638.38, -41914.19, 0.00, 0.00, 0.00, 0.00
58, 28458.40, 20722.73, -20759.65, -14848.98, -27356.84, -1667.98, -41933.39, 0.00, 0.00, 0.00, 0.00
59, 28574.67, 20804.53, -20773.91, -14834.00, -27363.03, -1534.76, -41914.23, 0.00, 0.00, 0.00, 0.00
60, 28640.99, 20863.88, -20779.28, -14838.58, -27372.97, -1519.94, -41928.12, 0.00, 0.14, 0.78, 0.60
61, 28552.99, 20801.96, -20760.21, -14848.24, -27368.30, -1614.04, -41910.86, 0.00, 0.00, 0.00, 0.00
62, 28481.84, 20736.88, -20746.35, -14847.77, -27363.99, -1637.31, -41896.09, 0.00, 0.00, 0.00, 0.00
63, 28560.43, 20795.21, -20767.72, -14843.70, -27379.70, -1559.39, -41942.40, 0.00, 0.00, 0.00, 0.00
64, 28647.13, 20867.90, -20784.55, -14848.82, -27388.02, -1537.98, -41970.11, 0.00, 0.00, 0.00, 0.00
65, 28582.16, 20820.31, -20762.69, -14855.10, -27369.35, -1611.61, -41948.10, 0.00, 0.00, 0.00, 0.00
66, 28495.03, 20746.24, -20739.33, -14846.23, -27362.04, -1641.60, -41923.76, 0.00, 0.00, 0.00, 0.00
67, 28548.88, 20783.41, -20752.16, -14831.77, -27361.82, -1563.48, -41900.47, 0.00, 0.00, 0.00, 0.00
68, 28655.70, 20872.26, -20772.86, -14834.27, -27370.31, -1525.64, -41920.41, 0.00, 0.00, 0.00, 0.00
69, 28603.35, 20839.07, -20769.06, -14847.41, -27388.17, -1604.79, -41937.19, 0.00, 0.14, 0.78, 0.59
70, 28501.56, 20752.05, -20748.77, -14836.57, -27378.52, -1643.12, -41948.39, 0.00, 0.00, 0.00, 0.00
71, 28525.81, 20763.50, -20754.09, -14826.60, -27363.76, -1583.20, -41913.57, 0.00, 0.00, 0.00, 0.00
72, 28646.73, 20863.32, -20770.18, -14826.83, -27359.00, -1512.18, -41888.80, 0.00, 0.00, 0.00, 0.00
73, 28623.13, 20850.69, -20765.98, -14846.25, -27357.44, -1581.88, -41901.90, 0.00, 0.00, 0.00, 0.00
74, 28520.71, 20762.54, -20741.95, -14847.68, -27348.79, -1641.09, -41883.05, 0.00, 0.00, 0.00, 0.00
75, 28513.92, 20757.35, -20732.54, -14830.76, -27349.46, -1604.01, -41898.12, 0.00, 0.00, 0.00, 0.00
76, 28626.50, 20849.35, -20767.25, -14825.22, -27365.15, -1519.52, -41942.78, 0.00, 0.00, 0.00, 0.00
77, 28629.66, 20859.83, -20779.66, -14838.90, -27369.98, -1568.67, -41932.86, 0.00, 0.00, 0.00, 0.00
78, 28527.73, 20779.34, -20752.83, -14849.36, -27362.49, -1635.16, -41902.43, 0.00, 0.00, 0.00, 0.00
79, 28501.85, 20752.99, -20740.70, -14843.73, -27357.13, -1628.03, -41903.35, 0.00, 0.14, 0.77, 0.60
80, 28617.50, 20842.22, -20766.38, -14838.74, -27373.87, -1533.15, -41948.79, 0.00, 0.00, 0.00, 0.00
81, 28660.10, 20883.99, -20766.71, -14833.49, -27377.02, -1548.44, -41943.88, 0.00, 0.00, 0.00, 0.00
82, 28557.06, 20805.25, -20747.49, -14845.47, -27370.07, -1646.16, -41941.62, 0.00, 0.00, 0.00, 0.00
83, 28494.16, 20746.31, -20739.00, -14858.57, -27373.20, -1662.46, -41939.11, 0.00, 0.00, 0.00, 0.00
84, 28589.67, 20821.28, -20751.52, -14847.57, -27380.53, -1548.04, -41926.08, 0.00, 0.00, 0.00, 0.00
85, 28655.18, 20876.62, -20765.87, -14852.15, -27375.61, -1534.80, -41931.94, 0.00, 0.00, 0.00, 0.00
86, 28572.57, 20813.03, -20750.02, -14858.03, -27359.85, -1624.50, -41921.34, 0.00, 0.00, 0.00, 0.00
87, 28497.76, 20751.65, -20737.52, -14850.21, -27355.81, -1651.61, -41917.59, 0.00, 0.00, 0.00, 0.00
88, 28576.01, 20815.78, -20749.01, -14830.87, -27362.27, -1554.16, -41903.17, 0.00, 0.00, 0.00, 0.00
89, 28661.66, 20890.39, -20766.38, -14842.72, -27367.07, -1533.69, -41929.34, 0.00, 0.14, 0.77, 0.60
90, 28591.75, 20833.84, -20757.15, -14857.83, -27362.20, -1612.45, -41913.45, 0.00, 0.00, 0.00, 0.00
91, 28497.94, 20756.03, -20733.39, -14839.48, -27349.39, -1633.11, -41886.96, 0.00, 0.00, 0.00, 0.00
92, 28539.71, 20788.53, -20744.29, -14830.40, -27351.87, -1557.47, -41887.05, 0.00, 0.00, 0.00, 0.00
93, 28647.65, 20880.71, -20766.63, -14836.95, -27363.41, -1512.79, -41929.61, 0.00, 0.00, 0.00, 0.00
94, 28606.28, 20854.27, -20762.83, -14847.73, -27363.65, -1588.16, -41908.18, 0.00, 0.00, 0.00, 0.00
95, 28503.03, 20767.32, -20746.42, -14844.84, -27357.35, -1647.37, -41890.07, 0.00, 0.00, 0.00, 0.00
96, 28511.10, 20771.54, -20752.57, -14839.70, -27363.99, -1609.21, -41929.46, 0.00, 0.00, 0.00, 0.00
97, 28629.32, 20866.38, -20776.28, -14845.13, -27380.26, -1546.54, -41941.50, 0.00, 0.00, 0.00, 0.00
98, 28624.58, 20874.25, -20764.88, -14845.40, -27373.53, -1576.29, -41910.88, 0.00, 0.00, 0.00, 0.00
99, 28513.14, 20782.49, -20740.34, -14850.32, -27358.87, -1639.46, -41900.27, 0.00, 0.15, 0.77, 0.60
100, 28499.99, 20763.34, -20732.58, -14841.36, -27350.02, -1620.39, -41918.50, 0.00, 0.00, 0.00, 0.00
101, 28628.74, 20870.52, -20761.24, -14831.21, -27362.92, -1523.63, -41925.84, 0.00, 0.00, 0.00, 0.00
102, 28639.87, 20887.68, -20776.39, -14851.73, -27379.84, -1561.34, -41942.93, 0.00, 0.00, 0.00, 0.00
103, 28533.63, 20795.26, -20752.28, -14853.38, -27373.98, -1642.50, -41916.36, 0.00, 0.00, 0.00, 0.00
104, 28493.13, 20755.25, -20744.12, -14843.52, -27375.23, -1629.60, -41930.11, 0.00, 0.00, 0.00, 0.00
105, 28599.62, 20838.80, -20766.47, -14839.48, -27388.66, -1535.86, -41955.65, 0.00, 0.00, 0.00, 0.00
106, 28646.29, 20889.18, -20764.68, -14840.57, -27376.62, -1536.37, -41931.60, 0.00, 0.00, 0.00, 0.00
107, 28549.28, 20813.74, -20746.29, -14845.29, -27364.75, -1617.75, -41879.68, 0.00, 0.00, 0.00, 0.00
108, 28482.34, 20748.59, -20739.15, -14844.62, -27360.17, -1640.86, -41886.21, 0.00, 0.15, 0.77, 0.60
109, 28565.37, 20807.30, -20770.76, -14840.60, -27380.75, -1553.31, -41943.70, 0.00, 0.00, 0.00, 0.00
110, 28631.49, 20866.38, -20787.66, -14852.53, -27391.41, -1542.63, -41959.66, 0.00, 0.00, 0.00, 0.00
111, 28552.14, 20806.48, -20765.13, -14862.50, -27381.09, -1622.67, -41933.23, 0.00, 0.00, 0.00, 0.00
112, 28475.41, 20740.96, -20739.74, -14843.06, -27360.95, -1632.26, -41890.27, 0.00, 0.00, 0.00, 0.00
113, 28542.51, 20793.74, -20762.29, -14829.06, -27372.44, -1543.16, -41906.77, 0.00, 0.00, 0.00, 0.00
114, 28636.76, 20874.07, -20783.63, -14840.10, -27383.17, -1522.69, -41969.58, 0.00, 0.00, 0.00, 0.00
115, 28571.34, 20832.90, -20769.66, -14854.28, -27376.55, -1602.89, -41902.75, 0.00, 0.00, 0.00, 0.00
116, 28478.45, 20755.83, -20748.47, -14842.85, -27361.28, -1636.06, -41853.21, 0.00, 0.00, 0.00, 0.00
117, 28513.76, 20775.79, -20759.05, -14838.92, -27365.87, -1585.01, -41911.78, 0.00, 0.00, 0.00, 0.00
118, 28630.84, 20871.19, -20774.87, -14833.76, -27376.13, -1513.97, -41936.77, 0.00, 0.14, 0.77, 0.60
119, 28594.21, 20853.30, -20767.50, -14842.16, -27372.84, -1571.01, -41896.20, 0.00, 0.00, 0.00, 0.00
120, 28488.82, 20762.89, -20748.77, -14846.16, -27365.84, -1650.25, -41888.51, 0.00, 0.00, 0.00, 0.00
121, 28506.30, 20768.48, -20744.85, -14832.28, -27365.60, -1595.38, -41899.62, 0.00, 0.00, 0.00, 0.00
122, 28626.50, 20869.35, -20767.41, -14823.07, -27375.83, -1490.24, -41931.65, 0.00, 0.00, 0.00, 0.00
123, 28611.93, 20865.93, -20770.71, -14841.74, -27377.49, -1555.03, -41917.54, 0.00, 0.00, 0.00, 0.00
124, 28503.93, 20781.78, -20744.21, -14839.14, -27365.15, -1626.96, -41880.84, 0.00, 0.00, 0.00, 0.00
125, 28487.57, 20769.44, -20731.51, -14815.58, -27359.56, -1585.79, -41882.16, 0.00, 0.00, 0.00, 0.00
126, 28604.62, 20859.54, -20759.79, -14800.23, -27376.42, -1497.84, -41941.32, 0.00, 0.00, 0.00, 0.00
127, 28625.48, 20875.43, -20762.80, -14832.64, -27372.88, -1542.47, -41916.43, 0.00, 0.00, 0.00, 0.00
128, 28520.87, 20789.49, -20741.03, -14850.54, -27358.24, -1633.60, -41895.04, 0.00, 0.15, 0.78, 0.60
129, 28475.54, 20747.54, -20733.32, -14835.66, -27354.38, -1618.36, -41891.04, 0.00, 0.00, 0.00, 0.00
130, 28582.29, 20828.99, -20758.13, -14824.08, -27361.53, -1514.80, -41922.39, 0.00, 0.00, 0.00, 0.00
131, 28631.31, 20871.79, -20773.69, -14838.85, -27373.44, -1542.32, -41950.80, 0.00, 0.00, 0.00, 0.00
132, 28535.49, 20797.65, -20756.97, -14855.30, -27373.94, -1643.57, -41906.32, 0.00, 0.00, 0.00, 0.00
133, 28470.94, 20741.81, -20744.70, -14849.05, -27355.54, -1643.55, -41875.52, 0.00, 0.00, 0.00, 0.00
134, 28564.05, 20818.21, -20762.78, -14826.38, -27357.95, -1526.74, -41910.91, 0.00, 0.00, 0.00, 0.00
135, 28647.07, 20891.33, -20770.63, -14831.23, -27366.29, -1517.84, -41910.86, 0.00, 0.00, 0.00, 0.00
136, 28569.84, 20833.41, -20746.60, -14842.79, -27359.14, -1607.45, -41882.90, 0.00, 0.00, 0.00, 0.00
137, 28479.52, 20751.56, -20736.81, -14843.41, -27353.17, -1643.57, -41877.24, 0.00, 0.00, 0.00, 0.00
138, 28543.20, 20804.62, -20755.09, -14827.07, -27359.00, -1553.92, -41901.07, 0.00, 0.15, 0.78, 0.61
139, 28640.32, 20888.62, -20775.21, -14831.48, -27370.38, -1510.66, -41922.06, 0.00, 0.00, 0.00, 0.00
140, 28581.09, 20844.88, -20765.71, -14844.46, -27367.23, -1601.10, -41901.85, 0.00, 0.00, 0.00, 0.00
141, 28486.00, 20765.55, -20743.29, -14838.74, -27355.32, -1643.68, -41872.95, 0.00, 0.00, 0.00, 0.00
142, 28524.98, 20792.89, -20741.28, -14817.55, -27355.61, -1547.19, -41873.22, 0.00, 0.00, 0.00, 0.00
143, 28641.50, 20887.06, -20765.35, -14819.23, -27368.66, -1488.31, -41918.77, 0.00, 0.00, 0.00, 0.00
144, 28609.40, 20868.91, -20764.32, -14833.65, -27368.57, -1568.02, -41906.34, 0.00, 0.00, 0.00, 0.00
145, 28500.39, 20781.69, -20743.63, -14834.92, -27359.34, -1630.02, -41874.63, 0.00, 0.00, 0.00, 0.00
146, 28508.71, 20783.05, -20743.45, -14824.62, -27356.95, -1582.06, -41881.36, 0.00, 0.00, 0.00, 0.00
147, 28626.10, 20875.50, -20767.70, -14826.96, -27367.12, -1499.62, -41913.16, 0.00, 0.00, 0.00, 0.00
148, 28615.66, 20873.94, -20773.80, -14854.68, -27376.51, -1561.69, -41909.95, 0.00, 0.14, 0.79, 0.60
149, 28501.69, 20780.80, -20757.55, -14864.51, -27370.29, -1646.27, -41882.83, 0.00, 0.00, 0.00, 0.00
150, 28483.23, 20760.61, -20749.08, -14841.13, -27358.02, -1609.93, -41887.52, 0.00, 0.00, 0.00, 0.00
151, 28597.22, 20849.33, -20774.94, -14834.27, -27366.94, -1523.87, -41940.97, 0.00, 0.00, 0.00, 0.00
152, 28618.57, 20868.71, -20780.44, -14849.25, -27378.34, -1560.13, -41959.88, 0.00, 0.00, 0.00, 0.00
153, 28520.18, 20784.75, -20758.78, -14846.99, -27370.85, -1615.07, -41911.62, 0.00, 0.00, 0.00, 0.00
154, 28473.30, 20741.99, -20746.15, -14835.41, -27361.24, -1606.46, -41901.07, 0.00, 0.00, 0.00, 0.00
155, 28563.58, 20811.82, -20777.67, -14837.89, -27385.09, -1528.61, -41958.74, 0.00, 0.00, 0.00, 0.00
156, 28613.41, 20850.33, -20796.11, -14858.79, -27405.96, -1554.70, -41997.90, 0.00, 0.00, 0.00, 0.00
157, 28519.86, 20771.77, -20770.18, -14874.68, -27386.83, -1636.73, -41909.95, 0.00, 0.09, 0.81, 0.61
158, 28460.50, 20719.15, -20743.36, -14856.44, -27363.88, -1634.40, -41875.37, 0.00, 0.00, 0.00, 0.00
159, 28568.95, 20807.95, -20749.95, -14822.33, -27375.14, -1501.37, -41929.46, 0.00, 0.00, 0.00, 0.00
160, 28657.97, 20883.53, -20764.05, -14840.66, -27392.26, -1496.32, -41917.57, 0.00, 0.00, 0.00, 0.00
161, 28580.30, 20820.22, -20751.02, -14863.22, -27390.43, -1598.24, -41894.86, 0.00, 0.00, 0.00, 0.00
162, 28501.58, 20745.30, -20726.79, -14857.90, -27374.85, -1631.14, -41896.45, 0.00, 0.00, 0.00, 0.00
163, 28577.64, 20801.02, -20738.71, -14841.13, -27371.54, -1538.72, -41885.02, 0.00, 0.00, 0.00, 0.00
164, 28695.95, 20896.78, -20756.70, -14841.49, -27375.39, -1478.61, -41887.70, 0.00, 0.00, 0.00, 0.00
165, 28644.74, 20861.17, -20750.17, -14863.46, -27371.74, -1574.21, -41918.97, 0.00, 0.00, 0.00, 0.00
166, 28553.77, 20782.67, -20732.72, -14865.61, -27367.14, -1640.10, -41903.89, 0.00, 0.00, 0.00, 0.00
167, 28591.63, 20804.85, -20734.73, -14855.21, -27368.86, -1552.98, -41886.88, 0.00, 0.09, 0.80, 0.62
168, 28717.05, 20904.89, -20751.61, -14859.24, -27374.16, -1492.16, -41937.77, 0.00, 0.00, 0.00, 0.00
169, 28705.00, 20900.36, -20738.82, -14870.08, -27372.04, -1565.72, -41921.28, 0.00, 0.00, 0.00, 0.00
170, 28613.43, 20825.97, -20712.00, -14860.74, -27359.12, -1634.52, -41885.91, 0.00, 0.00, 0.00, 0.00
171, 28622.01, 20831.20, -20715.86, -14861.43, -27348.74, -1596.25, -41895.32, 0.00, 0.00, 0.00, 0.00
172, 28745.93, 20927.98, -20745.99, -14856.91, -27364.55, -1510.31, -41949.04, 0.00, 0.00, 0.00, 0.00
173, 28758.89, 20952.39, -20747.63, -14863.69, -27374.43, -1541.49, -41919.69, 0.00, 0.00, 0.00, 0.00
174, 28657.39, 20881.31, -20719.31, -14851.01, -27356.70, -1597.50, -41897.70, 0.00, 0.00, 0.00, 0.00
175, 28629.21, 20851.43, -20706.81, -14845.60, -27340.56, -1602.24, -41890.03, 0.00, 0.00, 0.00, 0.00
176, 28755.59, 20955.61, -20727.93, -14825.26, -27349.08, -1489.88, -41937.17, 0.00, 0.00, 0.00, 0.00
177, 28799.55, 21002.66, -20731.22, -14835.72, -27362.60, -1528.10, -41956.39, 0.00, 0.12, 0.76, 0.61
178, 28710.75, 20937.79, -20700.69, -14828.73, -27348.95, -1558.97, -41855.74, 0.00, 0.00, 0.00, 0.00
179, 28657.75, 20893.11, -20694.32, -14817.22, -27341.95, -1565.76, -41855.85, 0.00, 0.00, 0.00, 0.00
180, 28757.82, 20963.34, -20710.84, -14819.07, -27346.40, -1509.01, -41903.37, 0.00, 0.00, 0.00, 0.00
181, 28826.62, 21025.82, -20722.44, -14819.92, -27345.12, -1500.72, -41935.36, 0.00, 0.00, 0.00, 0.00
182, 28734.60, 20960.48, -20712.24, -14831.05, -27342.20, -1609.86, -41929.68, 0.00, 0.00, 0.00, 0.00
183, 28652.39, 20887.53, -20701.54, -14809.33, -27343.36, -1624.95, -41866.54, 0.00, 0.00, 0.00, 0.00
184, 28733.46, 20949.64, -20709.29, -14770.61, -27341.30, -1466.30, -41842.64, 0.00, 0.00, 0.00, 0.00
185, 28822.55, 21025.39, -20721.18, -14804.36, -27350.69, -1430.22, -41887.59, 0.00, 0.00, 0.00, 0.00
186, 28749.55, 20973.54, -20701.25, -14834.81, -27351.65, -1537.53, -41877.80, 0.00, 0.00, 0.00, 0.00
187, 28652.05, 20893.92, -20695.99, -14830.45, -27336.00, -1589.68, -41877.47, 0.00, 0.15, 0.72, 0.61
188, 28700.15, 20936.95, -20711.26, -14820.46, -27327.42, -1517.33, -41908.56, 0.00, 0.00, 0.00, 0.00
189, 28804.54, 21023.63, -20735.60, -14822.25, -27346.42, -1476.04, -41943.54, 0.00, 0.00, 0.00, 0.00
190, 28763.59, 20991.44, -20725.01, -14827.74, -27344.59, -1551.17, -41917.45, 0.00, 0.00, 0.00, 0.00
191, 28665.64, 20908.22, -20703.73, -14823.41, -27335.00, -1612.77, -41891.59, 0.00, 0.00, 0.00, 0.00
192, 28687.55, 20918.97, -20706.23, -14810.38, -27336.88, -1560.46, -41912.13, 0.00, 0.00, 0.00, 0.00
193, 28801.32, 21013.68, -20725.52, -14819.81, -27348.12, -1488.69, -41936.92, 0.00, 0.00, 0.00, 0.00
194, 28782.92, 21011.76, -20723.55, -14823.90, -27350.00, -1529.82, -41904.45, 0.00, 0.00, 0.00, 0.00
195, 28673.80, 20922.80, -20700.24, -14826.76, -27340.96, -1613.86, -41904.13, 0.00, 0.00, 0.00, 0.00
196, 28657.64, 20905.27, -20701.65, -14821.35, -27348.07, -1573.36, -41943.98, 0.00, 0.20, 0.74, 0.61
197, 28779.01, 20999.96, -20718.81, -14807.56, -27359.16, -1474.03, -41963.86, 0.00, 0.00, 0.00, 0.00
198, 28783.93, 21006.37, -20722.86, -14822.58, -27361.53, -1521.19, -41907.46, 0.00, 0.00, 0.00, 0.00
199, 28683.43, 20922.33, -20700.31, -14812.68, -27358.47, -1583.31, -41925.14, 0.00, 0.00, 0.00, 0.00
200, 28652.86, 20888.44, -20695.01, -14820.28, -27368.75, -1571.98, -42017.30, 0.00, 0.00, 0.00, 0.00
201, 28766.65, 20979.97, -20711.57, -14806.76, -27358.82, -1484.65, -41911.02, 0.00, 0.00, 0.00, 0.00
202, 28807.93, 21025.66, -20711.21, -14810.98, -27340.03, -1492.09, -41857.08, 0.00, 0.00, 0.00, 0.00
203, 28713.36, 20955.18, -20689.76, -14813.19, -27330.95, -1566.61, -41842.53, 0.00, 0.00, 0.00, 0.00
204, 28660.54, 20907.44, -20677.22, -14797.91, -27324.85, -1574.37, -41846.71, 0.00, 0.00, 0.00, 0.00
205, 28759.59, 20982.16, -20695.59, -14786.21, -27340.92, -1469.83, -41894.19, 0.00, 0.00, 0.00, 0.00
206, 28826.91, 21045.49, -20709.54, -14800.41, -27354.94, -1474.90, -41925.70, 0.00, 0.19, 0.76, 0.62
207, 28740.72, 20981.20, -20702.10, -14813.19, -27344.50, -1575.48, -41902.59, 0.00, 0.00, 0.00, 0.00
208, 28659.96, 20904.76, -20686.27, -14812.37, -27327.82, -1608.21, -41880.15, 0.00, 0.00, 0.00, 0.00
209, 28736.81, 20964.44, -20686.83, -14795.65, -27327.78, -1502.62, -41919.04, 0.00, 0.00, 0.00, 0.00
210, 28826.37, 21039.79, -20709.90, -14806.80, -27341.39, -1469.60, -41941.84, 0.00, 0.00, 0.00, 0.00
211, 28761.91, 20986.92, -20698.70, -14815.58, -27337.17, -1557.63, -41919.51, 0.00, 0.00, 0.00, 0.00
212, 28667.09, 20907.08, -20675.83, -14805.97, -27329.72, -1599.71, -41914.86, 0.00, 0.00, 0.00, 0.00
213, 28710.84, 20943.49, -20680.32, -14791.65, -27324.80, -1526.40, -41917.72, 0.00, 0.00, 0.00, 0.00
214, 28814.37, 21027.47, -20710.07, -14803.78, -27339.13, -1483.37, -41962.71, 0.00, 0.00, 0.00, 0.00
215, 28779.50, 21014.30, -20691.66, -14804.19, -27327.06, -1539.70, -41884.64, 0.00, 0.00, 0.00, 0.00
216, 28677.69, 20930.42, -20665.53, -14793.66, -27311.84, -1571.13, -41848.14, 0.00, 0.19, 0.77, 0.61
217, 28689.31, 20932.34, -20674.98, -14778.91, -27316.78, -1511.83, -41914.88, 0.00, 0.00, 0.00, 0.00
218, 28806.01, 21025.41, -20697.33, -14753.67, -27330.53, -1454.70, -41925.16, 0.00, 0.00, 0.00, 0.00
219, 28797.29, 21022.64, -20695.50, -14792.99, -27329.52, -1502.24, -41906.14, 0.00, 0.00, 0.00, 0.00
220, 28690.38, 20936.61, -20676.97, -14821.53, -27319.96, -1581.43, -41901.34, 0.00, 0.00, 0.00, 0.00
221, 28670.49, 20918.79, -20672.77, -14808.37, -27321.70, -1552.91, -41893.56, 0.00, 0.00, 0.00, 0.00
222, 28792.31, 21014.28, -20694.54, -14804.10, -27327.26, -1465.72, -41863.95, 0.00, 0.00, 0.00, 0.00
223, 28813.39, 21037.04, -20696.91, -14819.85, -27324.27, -1519.34, -41894.88, 0.00, 0.00, 0.00, 0.00
224, 28707.19, 20957.20, -20664.46, -14813.71, -27306.34, -1597.30, -41860.50, 0.00, 0.00, 0.00, 0.00
225, 28667.81, 20917.50, -20648.14, -14789.52, -27300.06, -1565.83, -41856.95, 0.00, 0.00, 0.00, 0.00
226, 28772.24, 20996.20, -20686.99, -14798.33, -27320.00, -1468.71, -41904.09, 0.00, 0.16, 0.77, 0.61
227, 28825.72, 21042.09, -20698.16, -14815.61, -27324.27, -1493.77, -41928.70, 0.00, 0.00, 0.00, 0.00
228, 28727.94, 20968.75, -20678.87, -14820.73, -27319.24, -1583.26, -41898.16, 0.00, 0.00, 0.00, 0.00
229, 28656.12, 20911.46, -20666.13, -14811.88, -27319.29, -1594.15, -41866.58, 0.00, 0.00, 0.00, 0.00
230, 28752.93, 20991.19, -20677.98, -14786.48, -27320.78, -1479.44, -41894.92, 0.00, 0.00, 0.00, 0.00
231, 28840.61, 21068.40, -20690.14, -14792.41, -27330.73, -1456.15, -41896.29, 0.00, 0.00, 0.00, 0.00
232, 28774.88, 21021.35, -20669.89, -14792.81, -27324.65, -1529.33, -41859.21, 0.00, 0.00, 0.00, 0.00
233, 28688.40, 20948.59, -20652.47, -14788.38, -27315.26, -1570.93, -41868.35, 0.00, 0.00, 0.00, 0.00
234, 28749.53, 20998.48, -20656.36, -14778.77, -27312.36, -1484.27, -41893.07, 0.00, 0.00, 0.00, 0.00
235, 28847.41, 21073.96, -20686.11, -14777.16, -27336.83, -1438.96, -41941.10, 0.00, 0.00, 0.00, 0.00
236, 28787.01, 21024.50, -20691.19, -14803.92, -27352.88, -1534.69, -41947.43, 0.00, 0.15, 0.77, 0.61
237, 28688.42, 20945.30, -20663.74, -14802.93, -27329.83, -1579.51, -41884.78, 0.00, 0.00, 0.00, 0.00
238, 28719.51, 20973.36, -20663.83, -14790.24, -27315.80, -1523.03, -41904.42, 0.00, 0.00, 0.00, 0.00
239, 28825.97, 21060.28, -20689.87, -14803.31, -27339.38, -1472.91, -41948.61, 0.00, 0.00, 0.00, 0.00
240, 28803.48, 21042.58, -20679.90, -14812.95, -27341.75, -1504.34, -41937.82, 0.00, 0.00, 0.00, 0.00
241, 28683.23, 20949.17, -20670.76, -14822.00, -27328.18, -1584.90, -41923.13, 0.00, 0.00, 0.00, 0.00
242, 28676.62, 20944.79, -20686.27, -14812.03, -27331.82, -1559.35, -41893.63, 0.00, 0.00, 0.00, 0.00
243, 28795.28, 21044.81, -20709.36, -14794.69, -27357.73, -1453.44, -41921.28, 0.00, 0.00, 0.00, 0.00
244, 28792.82, 21047.72, -20715.80, -14797.08, -27355.20, -1518.33, -41925.14, 0.00, 0.00, 0.00, 0.00
245, 28688.53, 20955.86, -20689.80, -14832.59, -27332.99, -1599.22, -41883.17, 0.00, 0.14, 0.77, 0.62
246, 28665.17, 20935.11, -20676.53, -14822.51, -27326.21, -1569.14, -41865.51, 0.00, 0.00, 0.00, 0.00
247, 28779.46, 21029.06, -20708.98, -14806.26, -27342.04, -1483.24, -41907.53, 0.00, 0.00, 0.00, 0.00
248, 28811.24, 21059.19, -20720.89, -14816.84, -27350.35, -1511.18, -41931.49, 0.00, 0.00, 0.00, 0.00
249, 28716.80, 20986.57, -20691.28, -14822.83, -27340.36, -1587.98, -41904.96, 0.00, 0.00, 0.00, 0.00
250, 28669.44, 20950.80, -20678.40, -14794.60, -27332.76, -1576.24, -41888.09, 0.00, 0.00, 0.00, 0.00
251, 28764.88, 21034.20, -20704.91, -14793.01, -27350.85, -1478.66, -41923.04, 0.00, 0.00, 0.00, 0.00
252, 28822.19, 21077.05, -20714.30, -14814.60, -27352.79, -1479.04, -41923.91, 0.00, 0.00, 0.00, 0.00
253, 28737.50, 21004.25, -20693.18, -14819.52, -27341.81, -1570.08, -41907.64, 0.00, 0.00, 0.00, 0.00
254, 28669.20, 20950.15, -20673.24, -14805.71, -27331.09, -1581.43, -41881.29, 0.00, 0.00, 0.00, 0.00
255, 28745.62, 21016.54, -20691.03, -14795.31, -27336.74, -1490.17, -41914.10, 0.00, 0.14, 0.77, 0.62
0, 28824.63, 21079.79, -20711.39, -14812.48, -27347.02, -1476.94, -41949.62, 0.00, 0.00, 0.00, 0.00
1, 28753.64, 21019.83, -20699.82, -14828.19, -27345.82, -1568.51, -41918.55, 0.00, 0.00, 0.00, 0.00
2, 28666.42, 20944.95, -20680.93, -14819.38, -27336.74, -1608.48, -41913.92, 0.00, 0.00, 0.00, 0.00
3, 28720.05, 20987.91, -20688.93, -14797.73, -27336.74, -1518.26, -41922.59, 0.00, 0.00, 0.00, 0.00
4, 28824.52, 21073.20, -20710.19, -14798.91, -27344.47, -1475.91, -41919.53, 0.00, 0.00, 0.00, 0.00
5, 28772.86, 21036.25, -20708.60, -14815.88, -27349.37, -1538.02, -41912.52, 0.00, 0.00, 0.00, 0.00
6, 28669.84, 20957.15, -20680.71, -14808.41, -27339.63, -1587.04, -41893.79, 0.00, 0.00, 0.00, 0.00
7, 28689.98, 20974.45, -20679.14, -14794.69, -27345.71, -1529.84, -41924.65, 0.00, 0.00, 0.00, 0.00
8, 28809.45, 21073.40, -20710.30, -14792.58, -27356.70, -1468.76, -42020.74, 0.00, 0.00, 0.00, 0.00
9, 28790.45, 21061.98, -20717.03, -14805.55, -27360.41, -1528.88, -41979.66, 0.00, 0.14, 0.76, 0.61
10, 28689.16, 20979.53, -20689.22, -14795.67, -27336.56, -1574.28, -41836.54, 0.00, 0.00, 0.00, 0.00
11, 28686.43, 20977.40, -20684.62, -14775.82, -27329.77, -1515.94, -41843.74, 0.00, 0.00, 0.00, 0.00
12, 28791.44, 21071.08, -20712.71, -14774.53, -27341.55, -1441.06, -41903.51, 0.00, 0.00, 0.00, 0.00
13, 28800.40, 21078.05, -20708.64, -14783.38, -27340.50, -1485.61, -41909.90, 0.00, 0.00, 0.00, 0.00
14, 28695.91, 20990.01, -20682.89, -14774.17, -27331.69, -1552.82, -41887.57, 0.00, 0.00, 0.00, 0.00
15, 28665.69, 20962.11, -20670.91, -14784.16, -27323.60, -1535.65, -41887.57, 0.00, 0.00, 0.00, 0.00
16, 28773.98, 21049.51, -20695.50, -14784.11, -27335.87, -1464.46, -41947.54, 0.00, 0.00, 0.00, 0.00
17, 28810.48, 21077.96, -20702.95, -14800.14, -27339.38, -1501.37, -41939.94, 0.00, 0.00, 0.00, 0.00
18, 28720.40, 21005.25, -20676.01, -14796.21, -27313.16, -1552.91, -41868.86, 0.00, 0.00, 0.00, 0.00
19, 28667.81, 20965.00, -20650.96, -14783.69, -27302.63, -1555.37, -41862.58, 0.00, 0.15, 0.77, 0.61
20, 28763.07, 21046.33, -20678.54, -14780.18, -27319.93, -1469.65, -41929.50, 0.00, 0.00, 0.00, 0.00
21, 28828.25, 21100.58, -20703.21, -14797.50, -27333.52, -1482.30, -41935.74, 0.00, 0.00, 0.00, 0.00
22, 28746.26, 21031.05, -20685.22, -14799.85, -27324.83, -1559.46, -41915.31, 0.00, 0.00, 0.00, 0.00
23, 28672.35, 20970.03, -20662.04, -14773.00, -27307.82, -1554.70, -41857.33, 0.00, 0.00, 0.00, 0.00
24, 28744.10, 21028.72, -20676.39, -14768.29, -27312.18, -1473.61, -41882.09, 0.00, 0.00, 0.00, 0.00
25, 28832.77, 21103.73, -20696.17, -14765.94, -27322.84, -1455.59, -41930.02, 0.00, 0.00, 0.00, 0.00
26, 28762.34, 21046.31, -20691.28, -14766.72, -27320.25, -1552.19, -41929.01, 0.00, 0.00, 0.00, 0.00
27, 28678.20, 20975.77, -20664.28, -14793.48, -27304.33, -1584.40, -41871.23, 0.00, 0.00, 0.00, 0.00
28, 28739.94, 21026.02, -20665.80, -14759.04, -27302.59, -1462.39, -41854.78, 0.00, 0.15, 0.77, 0.61
29, 28851.38, 21117.77, -20685.40, -14754.68, -27300.06, -1407.85, -41879.55, 0.00, 0.00, 0.00, 0.00
30, 28807.02, 21079.01, -20687.48, -14779.78, -27307.17, -1497.92, -41888.06, 0.00, 0.00, 0.00, 0.00
31, 28694.59, 20986.68, -20667.23, -14776.45, -27302.01, -1556.11, -41857.24, 0.00, 0.00, 0.00, 0.00
32, 28714.90, 21006.68, -20662.42, -14744.57, -27297.74, -1496.61, -41862.11, 0.00, 0.00, 0.00, 0.00
33, 28838.60, 21107.73, -20682.36, -14735.88, -27307.24, -1419.20, -41885.25, 0.00, 0.00, 0.00, 0.00
34, 28826.31, 21102.82, -20676.21, -14750.59, -27306.77, -1478.37, -41873.53, 0.00, 0.00, 0.00, 0.00
35, 28715.55, 21011.40, -20652.56, -14748.98, -27296.04, -1542.09, -41855.45, 0.00, 0.00, 0.00, 0.00
36, 28705.90, 20999.26, -20651.00, -14729.78, -27296.24, -1499.78, -41866.70, 0.00, 0.00, 0.00, 0.00
37, 28820.61, 21090.99, -20679.83, -14731.30, -27305.49, -1420.19, -41899.17, 0.00, 0.00, 0.00, 0.00
38, 28844.86, 21111.40, -20673.20, -14736.26, -27298.10, -1440.59, -41888.04, 0.00, 0.15, 0.76, 0.61
39, 28745.10, 21026.24, -20648.07, -14728.91, -27287.08, -1516.48, -41839.13, 0.00, 0.00, 0.00, 0.00
40, 28708.09, 20997.05, -20643.67, -14737.64, -27286.25, -1515.49, -41868.19, 0.00, 0.00, 0.00, 0.00
41, 28816.16, 21083.44, -20670.51, -14735.39, -27297.98, -1414.73, -41894.57, 0.00, 0.00, 0.00, 0.00
42, 28867.43, 21125.88, -20676.01, -14745.31, -27299.21, -1430.56, -41892.33, 0.00, 0.00, 0.00, 0.00
43, 28770.31, 21047.43, -20662.29, -14758.68, -27302.86, -1528.01, -41914.14, 0.00, 0.00, 0.00, 0.00
44, 28717.25, 21004.34, -20639.96, -14736.75, -27284.57, -1518.29, -41856.34, 0.00, 0.00, 0.00, 0.00
45, 28816.74, 21086.41, -20651.38, -14715.25, -27278.63, -1414.11, -41838.46, 0.00, 0.00, 0.00, 0.00
46, 28889.72, 21147.83, -20666.58, -14727.03, -27295.03, -1420.07, -41890.68, 0.00, 0.00, 0.00, 0.00
47, 28807.62, 21084.91, -20651.89, -14732.10, -27297.25, -1504.79, -41868.97, 0.00, 0.00, 0.00, 0.00
48, 28729.21, 21017.32, -20614.34, -14720.17, -27264.01, -1510.75, -41797.70, 0.00, 0.15, 0.76, 0.61
49, 28801.65, 21075.88, -20627.51, -14702.53, -27257.10, -1414.93, -41815.64, 0.00, 0.00, 0.00, 0.00
50, 28890.48, 21148.86, -20660.66, -14717.35, -27276.64, -1401.25, -41875.72, 0.00, 0.00, 0.00, 0.00
51, 28826.84, 21097.97, -20651.71, -14734.69, -27280.17, -1484.33, -41855.00, 0.00, 0.00, 0.00, 0.00
52, 28731.36, 21019.45, -20625.99, -14728.10, -27269.80, -1528.05, -41845.06, 0.00, 0.00, 0.00, 0.00
53, 28773.20, 21053.20, -20634.93, -14713.79, -27275.68, -1459.28, -41871.99, 0.00, 0.00, 0.00, 0.00
54, 28883.06, 21146.43, -20653.62, -14720.01, -27286.49, -1400.49, -41881.60, 0.00, 0.00, 0.00, 0.00
55, 28846.06, 21119.63, -20651.71, -14740.86, -27285.00, -1479.84, -41864.44, 0.00, 0.00, 0.00, 0.00
56, 28740.52, 21029.04, -20630.30, -14745.24, -27277.42, -1548.26, -41827.91, 0.00, 0.00, 0.00, 0.00
57, 28764.24, 21044.64, -20628.51, -14729.15, -27285.02, -1485.63, -41857.86, 0.00, 0.00, 0.00, 0.00
58, 28889.88, 21154.03, -20648.12, -14715.76, -27284.13, -1399.00, -41866.02, 0.00, 0.15, 0.76, 0.61
59, 28874.25, 21152.88, -20650.64, -14723.58, -27276.30, -1454.99, -41855.74, 0.00, 0.00, 0.00, 0.00
60, 28765.98, 21065.22, -20627.46, -14721.91, -27262.53, -1529.80, -41826.28, 0.00, 0.00, 0.00, 0.00
61, 28751.88, 21055.70, -20613.58, -14700.14, -27242.37, -1472.94, -41801.76, 0.00, 0.00, 0.00, 0.00
62, 28857.80, 21154.16, -20640.18, -14685.63, -27259.27, -1365.65, -41855.99, 0.00, 0.00, 0.00, 0.00
63, 28872.06, 21180.63, -20640.09, -14682.23, -27262.67, -1409.84, -41890.03, 0.00, 0.00, 0.00, 0.00
64, 28762.63, 21090.99, -20627.53, -14708.81, -27251.56, -1498.62, -41858.65, 0.00, 0.00, 0.00, 0.00
65, 28726.21, 21054.72, -20615.06, -14691.49, -27238.33, -1471.48, -41795.44, 0.00, 0.00, 0.00, 0.00
66, 28827.49, 21137.22, -20640.09, -14696.41, -27263.47, -1388.62, -41879.21, 0.00, 0.00, 0.00, 0.00
67, 28876.82, 21182.43, -20648.16, -14711.85, -27279.61, -1398.64, -41876.35, 0.00, 0.14, 0.76, 0.61
68, 28794.50, 21119.36, -20628.09, -14708.32, -27256.39, -1470.52, -41793.16, 0.00, 0.00, 0.00, 0.00
69, 28735.29, 21069.18, -20609.54, -14693.46, -27234.84, -1483.64, -41757.84, 0.00, 0.00, 0.00, 0.00
70, 28818.86, 21132.59, -20624.13, -14686.24, -27248.72, -1393.14, -41801.29, 0.00, 0.00, 0.00, 0.00
71, 28888.36, 21188.49, -20639.98, -14682.95, -27256.32, -1402.71, -41850.78, 0.00, 0.00, 0.00, 0.00
72, 28807.71, 21122.60, -20630.84, -14697.77, -27254.89, -1484.74, -41830.59, 0.00, 0.00, 0.00, 0.00
73, 28717.52, 21048.86, -20617.90, -14719.18, -27251.09, -1494.93, -41797.27, 0.00, 0.00, 0.00, 0.00
74, 28777.13, 21093.36, -20633.72, -14708.10, -27256.59, -1436.41, -41864.79, 0.00, 0.00, 0.00, 0.00
75, 28878.59, 21176.42, -20646.02, -14698.66, -27259.20, -1385.12, -41857.42, 0.00, 0.00, 0.00, 0.00
76, 28817.50, 21136.97, -20641.52, -14708.16, -27265.46, -1445.64, -41830.26, 0.00, 0.00, 0.00, 0.00
77, 28719.11, 21057.31, -20617.61, -14701.86, -27256.54, -1497.77, -41816.29, 0.00, 0.14, 0.76, 0.61
78, 28754.87, 21084.91, -20627.62, -14683.53, -27265.01, -1431.12, -41844.07, 0.00, 0.00, 0.00, 0.00
79, 28868.57, 21176.24, -20653.82, -14686.41, -27268.72, -1365.47, -41875.41, 0.00, 0.00, 0.00, 0.00
80, 28838.29, 21152.68, -20641.61, -14704.52, -27264.70, -1443.54, -41836.45, 0.00, 0.00, 0.00, 0.00
81, 28732.45, 21068.98, -20611.57, -14691.64, -27249.64, -1494.82, -41796.29, 0.00, 0.00, 0.00, 0.00
82, 28735.13, 21067.81, -20625.03, -14685.41, -27259.58, -1464.35, -41844.05, 0.00, 0.00, 0.00, 0.00
83, 28848.95, 21159.79, -20646.73, -14682.10, -27270.47, -1400.94, -41878.34, 0.00, 0.00, 0.00, 0.00
84, 28853.91, 21167.48, -20644.03, -14680.71, -27268.70, -1413.66, -41834.21, 0.00, 0.00, 0.00, 0.00
85, 28749.26, 21088.47, -20619.10, -14689.07, -27258.71, -1461.83, -41797.14, 0.00, 0.00, 0.00, 0.00
86, 28721.72, 21065.71, -20615.04, -14674.84, -27261.57, -1443.50, -41814.41, 0.00, 0.00, 0.00, 0.00
87, 28836.01, 21156.75, -20632.25, -14664.80, -27273.22, -1355.16, -41865.96, 0.00, 0.14, 0.77, 0.61
88, 28864.15, 21179.55, -20637.86, -14679.73, -27270.63, -1392.58, -41869.78, 0.00, 0.00, 0.00, 0.00
89, 28753.98, 21090.68, -20625.05, -14695.24, -27270.58, -1485.36, -41882.88, 0.00, 0.00, 0.00, 0.00
90, 28701.45, 21043.74, -20624.04, -14695.24, -27274.13, -1494.62, -41880.71, 0.00, 0.00, 0.00, 0.00
91, 28806.84, 21125.84, -20642.35, -14684.85, -27275.30, -1392.22, -41856.34, 0.00, 0.00, 0.00, 0.00
92, 28860.04, 21175.91, -20662.69, -14699.98, -27285.20, -1380.44, -41871.14, 0.00, 0.00, 0.00, 0.00
93, 28766.61, 21104.92, -20653.99, -14715.29, -27286.54, -1474.77, -41840.50, 0.00, 0.00, 0.00, 0.00
94, 28703.19, 21048.62, -20630.39, -14706.44, -27268.99, -1493.50, -41808.69, 0.00, 0.00, 0.00, 0.00
95, 28785.27, 21105.99, -20655.89, -14702.40, -27284.35, -1408.79, -41842.55, 0.00, 0.00, 0.00, 0.00
96, 28873.22, 21171.04, -20661.73, -14708.05, -27279.14, -1397.19, -41841.32, 0.00, 0.00, 0.00, 0.00
97, 28800.15, 21113.44, -20648.90, -14708.56, -27275.86, -1475.46, -41828.96, 0.00, 0.14, 0.76, 0.61
98, 28708.20, 21044.75, -20636.43, -14677.92, -27279.25, -1494.30, -41775.66, 0.00, 0.00, 0.00, 0.00
99, 28756.28, 21090.86, -20646.69, -14705.59, -27279.32, -1426.29, -41809.59, 0.00, 0.00, 0.00, 0.00
100, 28854.18, 21169.85, -20663.11, -14720.66, -27286.99, -1395.35, -41854.85, 0.00, 0.00, 0.00, 0.00
101, 28809.41, 21135.00, -20651.40, -14721.22, -27281.85, -1461.74, -41834.21, 0.00, 0.00, 0.00, 0.00
102, 28712.49, 21063.05, -20630.37, -14705.91, -27266.47, -1509.06, -41801.54, 0.00, 0.00, 0.00, 0.00
103, 28737.19, 21077.27, -20640.70, -14702.08, -27274.69, -1454.25, -41831.45, 0.00, 0.00, 0.00, 0.00
104, 28848.93, 21164.55, -20664.66, -14707.31, -27292.96, -1393.68, -41879.52, 0.00, 0.00, 0.00, 0.00
105, 28820.54, 21145.06, -20660.59, -14723.85, -27296.58, -1477.20, -41883.84, 0.00, 0.00, 0.00, 0.00
106, 28714.82, 21058.88, -20640.18, -14713.79, -27292.57, -1544.13, -41856.14, 0.00, 0.00, 0.00, 0.00
107, 28721.41, 21065.45, -20636.45, -14710.33, -27289.45, -1479.39, -41861.11, 0.00, 0.14, 0.77, 0.60
108, 28838.31, 21161.47, -20664.34, -14715.02, -27312.15, -1403.02, -41903.29, 0.00, 0.00, 0.00, 0.00
109, 28850.87, 21171.93, -20661.82, -14719.74, -27314.37, -1440.84, -41892.22, 0.00, 0.00, 0.00, 0.00
110, 28743.63, 21076.22, -20643.20, -14721.28, -27295.59, -1501.10, -41849.41, 0.00, 0.00, 0.00, 0.00
111, 28711.73, 21040.54, -20637.14, -14717.44, -27288.44, -1482.79, -41852.34, 0.00, 0.00, 0.00, 0.00
112, 28826.73, 21130.78, -20659.89, -14717.10, -27295.21, -1402.62, -41873.71, 0.00, 0.00, 0.00, 0.00
113, 28856.93, 21153.87, -20672.88, -14744.98, -27305.83, -1450.20, -41921.14, 0.00, 0.00, 0.00, 0.00
114, 28755.47, 21067.84, -20651.02, -14752.69, -27299.26, -1538.87, -41879.72, 0.00, 0.00, 0.00, 0.00
115, 28700.73, 21021.28, -20639.96, -14739.46, -27298.43, -1530.02, -41884.80, 0.00, 0.00, 0.00, 0.00
116, 28807.17, 21111.13, -20657.93, -14725.53, -27302.63, -1417.41, -41901.05, 0.00, 0.14, 0.77, 0.61
117, 28868.93, 21161.04, -20666.06, -14739.99, -27302.65, -1429.37, -41898.10, 0.00, 0.00, 0.00, 0.00
118, 28782.18, 21091.13, -20650.49, -14750.65, -27298.56, -1510.55, -41889.61, 0.00, 0.00, 0.00, 0.00
119, 28706.12, 21029.50, -20640.81, -14747.03, -27298.16, -1532.59, -41857.80, 0.00, 0.00, 0.00, 0.00
120, 28787.68, 21095.49, -20651.74, -14735.99, -27299.01, -1449.04, -41852.61, 0.00, 0.00, 0.00, 0.00
121, 28873.85, 21161.04, -20667.90, -14747.61, -27311.17, -1421.26, -41882.05, 0.00, 0.00, 0.00, 0.00
122, 28804.45, 21108.14, -20651.78, -14753.72, -27304.94, -1485.70, -41866.92, 0.00, 0.00, 0.00, 0.00
123, 28711.53, 21034.20, -20635.44, -14752.80, -27296.04, -1542.56, -41867.81, 0.00, 0.00, 0.00, 0.00
124, 28763.90, 21073.00, -20651.09, -14740.80, -27304.58, -1462.30, -41871.81, 0.00, 0.00, 0.00, 0.00
125, 28869.94, 21155.90, -20673.22, -14746.88, -27316.42, -1408.41, -41907.93, 0.00, 0.00, 0.00, 0.00
126, 28824.32, 21118.46, -20660.19, -14768.51, -27300.04, -1505.59, -41888.20, 0.00, 0.14, 0.76, 0.60
127, 28725.01, 21038.00, -20638.19, -14758.61, -27291.63, -1545.76, -41842.62, 0.00, 0.00, 0.00, 0.00
128, 28750.73, 21062.56, -20637.92, -14736.37, -27291.21, -1463.01, -41844.07, 0.00, 0.00, 0.00, 0.00
129, 28864.39, 21152.08, -20664.63, -14744.22, -27304.91, -1398.93, -41898.39, 0.00, 0.00, 0.00, 0.00
130, 28846.13, 21135.00, -20661.08, -14759.84, -27306.14, -1463.23, -41894.28, 0.00, 0.00, 0.00, 0.00
131, 28738.87, 21046.71, -20636.18, -14756.62, -27289.96, -1522.47, -41839.02, 0.00, 0.00, 0.00, 0.00
132, 28728.52, 21036.97, -20632.29, -14741.85, -27285.82, -1482.08, -41838.29, 0.00, 0.00, 0.00, 0.00
133, 28848.48, 21135.21, -20652.21, -14737.80, -27295.59, -1404.70, -41887.41, 0.00, 0.00, 0.00, 0.00
134, 28859.19, 21150.52, -20658.96, -14754.61, -27310.97, -1449.78, -41900.07, 0.00, 0.00, 0.00, 0.00
135, 28756.66, 21070.86, -20634.15, -14751.82, -27302.59, -1524.32, -41886.86, 0.00, 0.00, 0.00, 0.00
136, 28723.85, 21042.07, -20626.35, -14740.77, -27288.71, -1507.38, -41855.07, 0.00, 0.13, 0.77, 0.60
137, 28840.21, 21134.51, -20643.42, -14728.15, -27286.49, -1400.38, -41841.35, 0.00, 0.00, 0.00, 0.00
138, 28879.19, 21167.39, -20651.63, -14746.25, -27293.40, -1433.84, -41868.88, 0.00, 0.00, 0.00, 0.00
139, 28780.98, 21088.00, -20640.83, -14752.31, -27289.33, -1524.14, -41874.56, 0.00, 0.00, 0.00, 0.00
140, 28724.87, 21043.23, -20633.21, -14727.52, -27293.45, -1526.49, -41892.27, 0.00, 0.00, 0.00, 0.00
141, 28814.24, 21116.52, -20648.38, -14741.40, -27302.34, -1447.05, -41900.94, 0.00, 0.00, 0.00, 0.00
142, 28874.56, 21162.92, -20671.14, -14761.20, -27318.05, -1463.91, -41932.25, 0.00, 0.00, 0.00, 0.00
143, 28788.33, 21092.49, -20658.29, -14765.54, -27313.43, -1541.09, -41898.59, 0.00, 0.00, 0.00, 0.00
144, 28721.16, 21040.17, -20627.51, -14751.39, -27280.66, -1531.41, -41803.46, 0.00, 0.00, 0.00, 0.00
145, 28792.94, 21100.67, -20646.62, -14739.46, -27285.20, -1433.55, -41843.89, 0.00, 0.00, 0.00, 0.00
146, 28883.01, 21174.90, -20660.66, -14744.95, -27292.64, -1417.86, -41881.33, 0.00, 0.14, 0.77, 0.61
147, 28827.18, 21130.80, -20638.39, -14745.15, -27279.74, -1479.98, -41839.36, 0.00, 0.00, 0.00, 0.00
148, 28732.67, 21055.43, -20619.75, -14737.33, -27271.90, -1508.01, -41811.71, 0.00, 0.00, 0.00, 0.00
149, 28779.21, 21092.80, -20627.66, -14724.46, -27277.31, -1438.67, -41840.43, 0.00, 0.00, 0.00, 0.00
150, 28885.81, 21176.89, -20652.88, -14741.29, -27292.46, -1406.95, -41888.20, 0.00, 0.00, 0.00, 0.00
151, 28847.85, 21147.19, -20650.31, -14758.39, -27296.73, -1476.67, -41879.81, 0.00, 0.00, 0.00, 0.00
152, 28751.92, 21071.46, -20617.27, -14743.30, -27281.09, -1518.58, -41843.67, 0.00, 0.00, 0.00, 0.00
153, 28769.85, 21088.00, -20613.09, -14719.56, -27275.88, -1454.03, -41823.67, 0.00, 0.00, 0.00, 0.00
154, 28882.88, 21178.30, -20640.65, -14720.23, -27294.32, -1389.07, -41895.64, 0.00, 0.00, 0.00, 0.00
155, 28869.09, 21168.31, -20641.81, -14734.49, -27301.92, -1452.13, -41907.22, 0.00, 0.14, 0.77, 0.61
156, 28758.45, 21074.41, -20616.00, -14741.91, -27290.45, -1532.86, -41833.99, 0.00, 0.00, 0.00, 0.00
