%OpenBCI Raw EEG Data
%
%Sample Rate = 250.0 Hz
%First Column = SampleIndex
%Other Columns = EEG data in microvolts followed by Accel Data (in G) interleaved with Aux Data
0, 40433.39, 17487.91, -4934.01, 14311.67, 10747.37, 54255.37, 6726.27, 0.00, 0.06, 0.94, 0.28
1, 40431.06, 17464.09, -4939.51, 14357.35, 10796.81, 54409.69, 6757.02, 0.00, 0.00, 0.00, 0.00
2, 40483.61, 17439.90, -4971.63, 14322.28, 10812.61, 54824.67, 6690.32, 0.00, 0.00, 0.00, 0.00
3, 40480.73, 17468.54, -4968.14, 14266.60, 10739.39, 54626.63, 6691.73, 0.00, 0.00, 0.00, 0.00
4, 40440.72, 17489.28, -4933.90, 14296.64, 10747.59, 54283.07, 6749.42, 0.00, 0.00, 0.00, 0.00
5, 40428.02, 17470.86, -4938.98, 14318.77, 10793.14, 54325.09, 6733.53, 0.00, 0.00, 0.00, 0.00
6, 40472.91, 17435.16, -4981.24, 14299.04, 10808.48, 54748.47, 6638.87, 0.00, 0.00, 0.00, 0.00
7, 40484.59, 17463.26, -4978.94, 14282.94, 10749.92, 54678.55, 6680.73, 0.00, 0.01, 0.97, 0.26
8, 40454.40, 17501.13, -4938.60, 14306.14, 10752.04, 54309.55, 6753.76, 0.00, 0.00, 0.00, 0.00
9, 40420.96, 17479.64, -4937.30, 14311.84, 10776.85, 54265.36, 6724.77, 0.00, 0.00, 0.00, 0.00
10, 40459.23, 17442.59, -4976.06, 14315.31, 10812.59, 54706.07, 6697.68, 0.00, 0.00, 0.00, 0.00
11, 40487.95, 17460.09, -4983.59, 14292.58, 10765.40, 54752.36, 6702.73, 0.00, 0.00, 0.00, 0.00
12, 40456.16, 17495.36, -4953.50, 14306.52, 10738.96, 54367.84, 6739.54, 0.00, 0.00, 0.00, 0.00
13, 40427.96, 17490.75, -4940.50, 14310.17, 10766.86, 54250.21, 6761.49, 0.00, 0.00, 0.00, 0.00
14, 40459.52, 17453.89, -4965.91, 14317.83, 10814.96, 54623.88, 6713.86, 0.00, 0.00, 0.00, 0.00
15, 40487.97, 17447.19, -4990.16, 14278.58, 10774.66, 54782.92, 6677.16, 0.00, 0.00, 0.00, 0.00
16, 40458.62, 17473.65, -4960.72, 14280.82, 10734.87, 54413.78, 6719.83, 0.00, 0.01, 0.97, 0.26
17, 40414.99, 17472.27, -4948.09, 14322.53, 10732.93, 54221.91, 6730.29, 0.00, 0.00, 0.00, 0.00
18, 40448.57, 17460.09, -4953.95, 14324.16, 10813.15, 54533.20, 6707.49, 0.00, 0.00, 0.00, 0.00
19, 40499.91, 17457.36, -4966.07, 14290.12, 10807.40, 54823.48, 6697.68, 0.00, 0.00, 0.00, 0.00
20, 40477.96, 17480.49, -4946.66, 14278.63, 10749.15, 54481.73, 6717.97, 0.00, 0.00, 0.00, 0.00
21, 40430.15, 17475.17, -4946.26, 14290.05, 10743.01, 54216.48, 6729.17, 0.00, 0.00, 0.00, 0.00
22, 40424.67, 17443.88, -4969.35, 14303.91, 10773.61, 54432.29, 6696.31, 0.00, 0.00, 0.00, 0.00
23, 40483.79, 17440.37, -4987.90, 14296.67, 10787.35, 54817.23, 6686.95, 0.00, 0.00, 0.00, 0.00
24, 40464.52, 17460.91, -4967.83, 14273.15, 10739.03, 54547.91, 6706.06, 0.00, 0.00, 0.00, 0.00
25, 40416.67, 17461.72, -4944.41, 14285.29, 10738.20, 54225.35, 6740.35, 0.00, 0.00, 0.00, 0.00
26, 40417.03, 17445.18, -4951.76, 14346.44, 10782.12, 54359.08, 6735.05, 0.00, 0.02, 0.97, 0.26
27, 40463.47, 17414.33, -4988.62, 14282.16, 10805.30, 54795.70, 6683.64, 0.00, 0.00, 0.00, 0.00
28, 40464.34, 17443.44, -4981.20, 14249.26, 10740.88, 54622.07, 6696.40, 0.00, 0.00, 0.00, 0.00
29, 40423.00, 17466.39, -4951.63, 14278.58, 10731.34, 54273.61, 6755.50, 0.00, 0.00, 0.00, 0.00
30, 40400.31, 17448.64, -4955.81, 14301.18, 10767.77, 54303.07, 6748.86, 0.00, 0.00, 0.00, 0.00
31, 40443.89, 17409.17, -4991.17, 14290.65, 10806.55, 54741.95, 6668.89, 0.00, 0.00, 0.00, 0.00
32, 40464.95, 17430.96, -4981.71, 14266.80, 10758.03, 54691.05, 6673.72, 0.00, 0.00, 0.00, 0.00
33, 40425.36, 17452.38, -4949.48, 14297.29, 10723.67, 54314.40, 6737.78, 0.00, 0.00, 0.00, 0.00
34, 40399.50, 17444.62, -4951.31, 14321.12, 10757.58, 54266.23, 6761.98, 0.00, 0.00, 0.00, 0.00
35, 40445.77, 17424.21, -4976.71, 14294.30, 10818.00, 54681.11, 6721.28, 0.00, 0.00, 0.00, 0.00
36, 40475.36, 17433.27, -4983.34, 14268.30, 10765.61, 54746.44, 6696.78, 0.00, 0.02, 0.96, 0.26
37, 40429.39, 17445.40, -4962.13, 14254.82, 10721.01, 54352.58, 6706.06, 0.00, 0.00, 0.00, 0.00
38, 40404.93, 17451.93, -4950.53, 14280.62, 10740.82, 54217.51, 6721.01, 0.00, 0.00, 0.00, 0.00
39, 40443.36, 17437.18, -4972.19, 14310.77, 10806.49, 54593.93, 6732.61, 0.00, 0.00, 0.00, 0.00
40, 40475.25, 17433.09, -4989.45, 14280.95, 10776.65, 54807.57, 6710.57, 0.00, 0.00, 0.00, 0.00
41, 40451.18, 17457.34, -4964.03, 14275.37, 10736.28, 54444.89, 6716.74, 0.00, 0.00, 0.00, 0.00
42, 40411.71, 17457.81, -4950.02, 14296.31, 10738.47, 54230.61, 6725.28, 0.00, 0.00, 0.00, 0.00
43, 40423.66, 17428.44, -4971.52, 14308.49, 10779.15, 54509.67, 6702.42, 0.00, 0.00, 0.00, 0.00
44, 40458.91, 17407.07, -5001.25, 14271.63, 10768.98, 54806.63, 6679.48, 0.00, 0.00, 0.00, 0.00
45, 40447.85, 17446.36, -4963.74, 14262.67, 10729.49, 54487.05, 6723.23, 0.00, 0.00, 0.00, 0.00
46, 40416.31, 17467.44, -4943.74, 14291.33, 10742.49, 54230.16, 6778.12, 0.00, 0.02, 0.97, 0.27
47, 40410.43, 17430.90, -4967.05, 14293.31, 10764.02, 54412.50, 6734.00, 0.00, 0.00, 0.00, 0.00
48, 40460.61, 17409.73, -5001.58, 14264.64, 10789.16, 54786.87, 6673.40, 0.00, 0.00, 0.00, 0.00
49, 40462.96, 17448.82, -4976.15, 14267.32, 10744.42, 54565.08, 6694.10, 0.00, 0.00, 0.00, 0.00
50, 40420.63, 17457.81, -4952.63, 14287.15, 10738.02, 54243.17, 6719.72, 0.00, 0.00, 0.00, 0.00
51, 40419.91, 17449.96, -4956.21, 14308.78, 10767.59, 54342.36, 6753.11, 0.00, 0.00, 0.00, 0.00
52, 40467.52, 17426.29, -4993.02, 14293.09, 10795.27, 54776.05, 6714.51, 0.00, 0.00, 0.00, 0.00
53, 40471.12, 17452.62, -4988.55, 14291.57, 10733.73, 54628.87, 6692.25, 0.00, 0.00, 0.00, 0.00
54, 40436.38, 17479.49, -4951.22, 14304.54, 10732.50, 54276.14, 6749.78, 0.00, 0.00, 0.00, 0.00
55, 40423.42, 17473.63, -4945.90, 14303.57, 10767.35, 54280.00, 6764.33, 0.00, 0.01, 0.97, 0.28
56, 40475.39, 17452.35, -4977.06, 14316.58, 10808.36, 54741.52, 6730.42, 0.00, 0.00, 0.00, 0.00
57, 40485.91, 17456.38, -4985.27, 14273.98, 10747.90, 54711.64, 6702.91, 0.00, 0.00, 0.00, 0.00
58, 40446.40, 17472.65, -4956.16, 14270.94, 10717.24, 54313.89, 6709.64, 0.00, 0.00, 0.00, 0.00
59, 40422.95, 17469.12, -4946.08, 14301.18, 10741.64, 54241.33, 6725.10, 0.00, 0.00, 0.00, 0.00
60, 40466.13, 17444.35, -4969.73, 14319.33, 10790.53, 54649.07, 6690.08, 0.00, 0.00, 0.00, 0.00
61, 40499.71, 17457.96, -4973.84, 14286.74, 10747.68, 54757.05, 6690.32, 0.00, 0.00, 0.00, 0.00
62, 40467.63, 17487.04, -4941.17, 14290.97, 10739.52, 54379.87, 6738.80, 0.00, 0.00, 0.00, 0.00
63, 40427.96, 17481.41, -4943.74, 14345.15, 10745.18, 54227.92, 6734.18, 0.00, 0.00, 0.00, 0.00
64, 40454.93, 17456.47, -4968.14, 14312.07, 10782.93, 54568.09, 6685.27, 0.00, 0.00, 0.00, 0.00
65, 40494.72, 17451.35, -4988.02, 14274.81, 10764.76, 54791.16, 6679.42, 0.00, 0.02, 0.96, 0.27
66, 40483.46, 17492.61, -4948.61, 14293.81, 10733.84, 54451.93, 6752.60, 0.00, 0.00, 0.00, 0.00
67, 40441.37, 17496.12, -4932.23, 14313.74, 10741.58, 54231.48, 6780.07, 0.00, 0.00, 0.00, 0.00
68, 40460.63, 17475.87, -4947.47, 14335.04, 10792.16, 54493.13, 6758.34, 0.00, 0.00, 0.00, 0.00
69, 40500.73, 17449.65, -4984.48, 14294.86, 10781.86, 54815.59, 6700.07, 0.00, 0.00, 0.00, 0.00
70, 40488.48, 17483.13, -4966.45, 14290.81, 10731.12, 54502.11, 6718.64, 0.00, 0.00, 0.00, 0.00
71, 40447.94, 17497.06, -4938.35, 14316.36, 10730.96, 54218.69, 6746.20, 0.00, 0.00, 0.00, 0.00
72, 40447.47, 17471.38, -4946.98, 14294.63, 10769.38, 54382.33, 6725.17, 0.00, 0.00, 0.00, 0.00
73, 40499.86, 17450.56, -4983.90, 14284.31, 10783.24, 54792.08, 6665.71, 0.00, 0.00, 0.00, 0.00
74, 40511.60, 17493.79, -4965.82, 14297.25, 10723.79, 54594.45, 6717.68, 0.00, 0.00, 0.00, 0.00
75, 40465.08, 17506.65, -4941.68, 14314.75, 10725.77, 54256.31, 6742.69, 0.00, 0.01, 0.94, 0.28
76, 40440.79, 17474.55, -4949.82, 14318.59, 10760.91, 54321.67, 6731.85, 0.00, 0.00, 0.00, 0.00
77, 40498.54, 17457.63, -4978.96, 14324.94, 10791.94, 54767.16, 6704.83, 0.00, 0.00, 0.00, 0.00
78, 40509.09, 17486.91, -4970.96, 14309.74, 10735.72, 54664.14, 6706.93, 0.00, 0.00, 0.00, 0.00
79, 40464.12, 17506.91, -4944.79, 14318.35, 10725.39, 54302.62, 6745.26, 0.00, 0.00, 0.00, 0.00
80, 40438.06, 17494.20, -4944.83, 14336.48, 10753.07, 54288.70, 6733.26, 0.00, 0.00, 0.00, 0.00
81, 40477.40, 17450.36, -4978.00, 14319.35, 10782.08, 54712.66, 6664.02, 0.00, 0.00, 0.00, 0.00
82, 40503.84, 17467.87, -4981.58, 14300.62, 10737.69, 54719.39, 6687.08, 0.00, 0.00, 0.00, 0.00
83, 40461.86, 17488.50, -4970.94, 14296.26, 10704.79, 54335.77, 6742.56, 0.00, 0.00, 0.00, 0.00
84, 40431.76, 17484.61, -4967.45, 14307.89, 10723.67, 54243.88, 6767.17, 0.00, 0.00, 0.00, 0.00
85, 40479.25, 17468.09, -4982.05, 14330.28, 10781.52, 54637.38, 6733.62, 0.00, 0.01, 0.94, 0.28
86, 40515.80, 17480.74, -4990.85, 14306.14, 10746.63, 54771.63, 6710.24, 0.00, 0.00, 0.00, 0.00
87, 40474.79, 17498.08, -4967.21, 14295.57, 10703.60, 54383.20, 6727.41, 0.00, 0.00, 0.00, 0.00
88, 40437.90, 17491.83, -4951.51, 14308.00, 10704.16, 54204.16, 6717.17, 0.00, 0.00, 0.00, 0.00
89, 40468.57, 17470.79, -4969.91, 14339.31, 10762.61, 54536.00, 6689.39, 0.00, 0.00, 0.00, 0.00
90, 40508.45, 17462.48, -4986.25, 14321.16, 10762.72, 54791.84, 6691.67, 0.00, 0.00, 0.00, 0.00
91, 40480.33, 17487.31, -4962.51, 14274.78, 10708.63, 54439.91, 6714.40, 0.00, 0.00, 0.00, 0.00
92, 40447.16, 17497.84, -4947.74, 14299.15, 10715.96, 54202.15, 6742.20, 0.00, 0.00, 0.00, 0.00
93, 40458.36, 17476.96, -4966.42, 14324.27, 10763.06, 54444.85, 6740.06, 0.00, 0.00, 0.00, 0.00
94, 40506.97, 17460.36, -5004.24, 14336.65, 10756.08, 54796.24, 6688.63, 0.00, 0.00, 0.00, 0.00
95, 40499.64, 17494.51, -4977.64, 14295.64, 10707.11, 54523.59, 6714.75, 0.00, 0.01, 0.95, 0.29
96, 40460.32, 17509.62, -4949.77, 14296.71, 10716.57, 54231.52, 6773.58, 0.00, 0.00, 0.00, 0.00
97, 40456.90, 17489.50, -4956.30, 14326.98, 10761.96, 54381.90, 6765.90, 0.00, 0.00, 0.00, 0.00
98, 40506.86, 17462.26, -4984.98, 14312.34, 10775.66, 54796.75, 6695.31, 0.00, 0.00, 0.00, 0.00
99, 40501.29, 17482.91, -4965.75, 14289.36, 10715.45, 54591.99, 6719.56, 0.00, 0.00, 0.00, 0.00
100, 40466.22, 17499.61, -4949.75, 14305.09, 10705.35, 54251.84, 6740.26, 0.00, 0.00, 0.00, 0.00
101, 40458.85, 17489.35, -4961.01, 14338.11, 10741.98, 54311.63, 6741.31, 0.00, 0.00, 0.00, 0.00
102, 40509.99, 17465.50, -4984.77, 14346.04, 10788.74, 54762.73, 6722.73, 0.00, 0.00, 0.00, 0.00
103, 40521.25, 17489.57, -4981.22, 14309.12, 10717.62, 54685.17, 6716.50, 0.00, 0.00, 0.00, 0.00
104, 40491.84, 17519.81, -4940.83, 14329.61, 10722.94, 54315.99, 6767.46, 0.00, 0.02, 0.94, 0.29
105, 40477.87, 17515.68, -4930.03, 14365.09, 10744.33, 54288.00, 6746.99, 0.00, 0.00, 0.00, 0.00
106, 40521.52, 17484.76, -4967.50, 14384.67, 10775.98, 54716.15, 6707.83, 0.00, 0.00, 0.00, 0.00
107, 40537.14, 17482.17, -4982.07, 14299.04, 10710.08, 54725.47, 6673.87, 0.00, 0.00, 0.00, 0.00
108, 40499.32, 17510.45, -4949.39, 14296.62, 10686.55, 54334.32, 6703.44, 0.00, 0.00, 0.00, 0.00
109, 40466.25, 17515.21, -4944.65, 14326.33, 10710.60, 54226.63, 6738.09, 0.00, 0.00, 0.00, 0.00
110, 40494.86, 17476.18, -4977.24, 14333.48, 10761.31, 54611.39, 6707.74, 0.00, 0.00, 0.00, 0.00
111, 40515.80, 17458.54, -5001.31, 14285.92, 10720.97, 54756.16, 6675.97, 0.00, 0.00, 0.00, 0.00
112, 40480.15, 17476.92, -4979.75, 14275.86, 10676.78, 54364.45, 6679.95, 0.00, 0.00, 0.00, 0.00
113, 40441.14, 17475.69, -4964.81, 14295.97, 10684.13, 54176.83, 6711.80, 0.00, 0.00, 0.00, 0.00
114, 40465.17, 17445.87, -4976.62, 14316.58, 10752.17, 54499.30, 6739.83, 0.00, 0.02, 0.95, 0.28
115, 40506.07, 17430.65, -4988.73, 14287.26, 10744.21, 54791.52, 6723.09, 0.00, 0.00, 0.00, 0.00
116, 40483.07, 17460.49, -4962.11, 14270.43, 10697.90, 54451.30, 6725.37, 0.00, 0.00, 0.00, 0.00
117, 40437.75, 17470.70, -4963.61, 14289.63, 10710.58, 54190.44, 6740.79, 0.00, 0.00, 0.00, 0.00
118, 40446.91, 17447.62, -4973.44, 14312.65, 10765.63, 54420.59, 6730.11, 0.00, 0.00, 0.00, 0.00
119, 40504.54, 17434.31, -5000.73, 14298.34, 10768.22, 54797.94, 6690.15, 0.00, 0.00, 0.00, 0.00
120, 40499.08, 17463.73, -4978.43, 14284.93, 10720.14, 54532.80, 6736.77, 0.00, 0.00, 0.00, 0.00
121, 40456.75, 17481.63, -4948.92, 14302.52, 10721.97, 54228.73, 6776.27, 0.00, 0.00, 0.00, 0.00
122, 40453.19, 17464.36, -4954.62, 14353.24, 10746.52, 54354.14, 6743.23, 0.00, 0.00, 0.00, 0.00
123, 40505.56, 17435.14, -4980.93, 14333.32, 10770.39, 54771.90, 6673.54, 0.00, 0.00, 0.00, 0.00
124, 40500.69, 17449.09, -4973.51, 14258.13, 10713.97, 54594.31, 6718.31, 0.00, 0.01, 0.95, 0.29
125, 40460.59, 17468.76, -4953.79, 14297.43, 10696.25, 54253.11, 6745.06, 0.00, 0.00, 0.00, 0.00
126, 40452.88, 17466.72, -4946.49, 14292.17, 10735.77, 54292.30, 6757.36, 0.00, 0.00, 0.00, 0.00
127, 40498.99, 17432.71, -4983.46, 14292.22, 10762.95, 54734.82, 6711.18, 0.00, 0.00, 0.00, 0.00
128, 40508.09, 17450.63, -4975.52, 14269.87, 10706.49, 54665.10, 6684.47, 0.00, 0.00, 0.00, 0.00
129, 40467.52, 17467.82, -4943.40, 14274.09, 10681.47, 54282.24, 6699.40, 0.00, 0.00, 0.00, 0.00
130, 40444.12, 17459.01, -4946.40, 14295.10, 10707.78, 54230.09, 6729.37, 0.00, 0.00, 0.00, 0.00
131, 40494.72, 17434.76, -4965.08, 14305.63, 10763.44, 54641.70, 6716.52, 0.00, 0.00, 0.00, 0.00
132, 40519.15, 17441.98, -4975.99, 14273.85, 10722.94, 54709.22, 6732.77, 0.00, 0.00, 0.00, 0.00
133, 40485.04, 17474.57, -4939.36, 14285.36, 10694.73, 54336.75, 6751.41, 0.00, 0.00, 0.00, 0.00
134, 40448.23, 17469.56, -4923.96, 14309.79, 10704.32, 54213.21, 6749.42, 0.00, 0.02, 0.95, 0.29
135, 40478.07, 17437.51, -4944.97, 14313.03, 10771.60, 54573.17, 6720.74, 0.00, 0.00, 0.00, 0.00
136, 40512.34, 17432.71, -4964.48, 14270.96, 10738.47, 54753.30, 6688.29, 0.00, 0.00, 0.00, 0.00
137, 40484.26, 17459.08, -4935.87, 14269.04, 10681.58, 54396.41, 6707.02, 0.00, 0.00, 0.00, 0.00
138, 40444.90, 17462.46, -4923.73, 14288.53, 10684.40, 54190.89, 6726.98, 0.00, 0.00, 0.00, 0.00
139, 40460.75, 17432.77, -4937.32, 14300.69, 10739.59, 54476.14, 6737.55, 0.00, 0.00, 0.00, 0.00
140, 40507.91, 17420.28, -4962.80, 14270.54, 10734.38, 54792.66, 6699.58, 0.00, 0.00, 0.00, 0.00
141, 40490.25, 17451.82, -4938.75, 14265.22, 10685.99, 54475.54, 6733.82, 0.00, 0.00, 0.00, 0.00
142, 40448.27, 17461.12, -4914.46, 14290.57, 10689.07, 54204.57, 6757.69, 0.00, 0.00, 0.00, 0.00
143, 40450.04, 17432.19, -4927.08, 14338.17, 10732.75, 54402.00, 6735.39, 0.00, 0.00, 0.00, 0.00
144, 40507.15, 17422.38, -4958.87, 14299.33, 10740.84, 54781.24, 6681.65, 0.00, 0.01, 0.94, 0.29
145, 40508.85, 17460.00, -4942.44, 14248.97, 10681.21, 54524.08, 6711.98, 0.00, 0.00, 0.00, 0.00
146, 40449.75, 17444.06, -4915.86, 14257.57, 10680.87, 54203.63, 6741.46, 0.00, 0.00, 0.00, 0.00
147, 40435.87, 17419.18, -4910.79, 14286.88, 10730.71, 54313.48, 6741.04, 0.00, 0.00, 0.00, 0.00
148, 40483.66, 17393.19, -4949.59, 14281.51, 10754.07, 54756.68, 6695.84, 0.00, 0.00, 0.00, 0.00
149, 40481.67, 17407.81, -4944.05, 14253.95, 10690.28, 54603.81, 6695.71, 0.00, 0.00, 0.00, 0.00
150, 40423.02, 17401.39, -4917.18, 14255.20, 10675.01, 54230.58, 6725.24, 0.00, 0.00, 0.00, 0.00
151, 40400.51, 17378.44, -4904.49, 14301.50, 10711.27, 54248.42, 6754.72, 0.00, 0.00, 0.00, 0.00
152, 40444.32, 17345.89, -4941.34, 14292.22, 10743.72, 54699.32, 6714.08, 0.00, 0.00, 0.00, 0.00
153, 40457.35, 17360.26, -4946.19, 14215.35, 10709.41, 54660.27, 6724.72, 0.00, 0.01, 0.95, 0.28
154, 40409.05, 17372.18, -4915.48, 14222.62, 10676.27, 54271.84, 6750.23, 0.00, 0.00, 0.00, 0.00
155, 40376.41, 17351.75, -4908.04, 14241.10, 10689.25, 54198.53, 6732.19, 0.00, 0.00, 0.00, 0.00
156, 40418.50, 17327.65, -4934.39, 14251.23, 10737.17, 54604.04, 6694.59, 0.00, 0.00, 0.00, 0.00
157, 40446.11, 17338.11, -4951.54, 14223.62, 10689.18, 54688.23, 6677.85, 0.00, 0.00, 0.00, 0.00
158, 40421.09, 17375.66, -4911.68, 14230.33, 10661.13, 54314.40, 6736.97, 0.00, 0.00, 0.00, 0.00
159, 40391.10, 17377.72, -4894.27, 14253.84, 10687.15, 54184.61, 6750.29, 0.00, 0.00, 0.00, 0.00
160, 40422.59, 17351.61, -4916.96, 14272.50, 10737.73, 54541.74, 6706.55, 0.00, 0.00, 0.00, 0.00
161, 40467.41, 17352.73, -4933.12, 14241.48, 10708.94, 54750.82, 6688.33, 0.00, 0.00, 0.00, 0.00
162, 40441.46, 17382.35, -4902.30, 14236.90, 10669.94, 54386.44, 6739.21, 0.00, 0.00, 0.00, 0.00
163, 40396.75, 17384.70, -4889.94, 14278.07, 10674.88, 54173.12, 6743.14, 0.00, 0.01, 0.95, 0.28
164, 40407.39, 17359.37, -4915.08, 14263.74, 10720.88, 54430.65, 6704.32, 0.00, 0.00, 0.00, 0.00
165, 40455.83, 17348.37, -4946.60, 14227.26, 10709.06, 54754.71, 6667.35, 0.00, 0.00, 0.00, 0.00
166, 40443.34, 17379.11, -4921.32, 14219.62, 10650.29, 54447.82, 6701.25, 0.00, 0.00, 0.00, 0.00
167, 40402.57, 17390.21, -4898.03, 14244.41, 10654.52, 54167.15, 6728.95, 0.00, 0.00, 0.00, 0.00
168, 40401.09, 17367.08, -4905.29, 14255.36, 10725.24, 54341.67, 6742.96, 0.00, 0.00, 0.00, 0.00
169, 40448.01, 17339.70, -4944.07, 14219.49, 10730.96, 54736.47, 6707.65, 0.00, 0.00, 0.00, 0.00
170, 40440.92, 17355.50, -4931.62, 14189.62, 10669.09, 54500.93, 6719.81, 0.00, 0.00, 0.00, 0.00
171, 40406.19, 17378.21, -4900.49, 14211.60, 10663.19, 54170.55, 6753.22, 0.00, 0.00, 0.00, 0.00
172, 40394.14, 17368.00, -4905.34, 14238.02, 10697.77, 54256.78, 6728.08, 0.00, 0.00, 0.00, 0.00
173, 40443.07, 17343.90, -4943.51, 14230.19, 10736.73, 54696.62, 6666.43, 0.00, 0.01, 0.95, 0.29
174, 40449.21, 17368.02, -4938.30, 14209.00, 10681.12, 54575.36, 6671.35, 0.00, 0.00, 0.00, 0.00
175, 40413.50, 17391.65, -4903.95, 14221.01, 10661.16, 54206.09, 6718.93, 0.00, 0.00, 0.00, 0.00
176, 40393.54, 17375.40, -4894.38, 14235.80, 10687.69, 54197.75, 6753.76, 0.00, 0.00, 0.00, 0.00
177, 40439.91, 17347.17, -4930.71, 14233.95, 10733.71, 54637.56, 6705.72, 0.00, 0.00, 0.00, 0.00
178, 40454.06, 17358.32, -4943.40, 14194.68, 10684.45, 54628.42, 6686.41, 0.00, 0.00, 0.00, 0.00
179, 40415.26, 17381.92, -4910.75, 14196.75, 10654.43, 54233.51, 6709.28, 0.00, 0.00, 0.00, 0.00
180, 40386.34, 17375.91, -4906.63, 14241.44, 10672.24, 54147.32, 6718.02, 0.00, 0.00, 0.00, 0.00
181, 40423.44, 17346.14, -4943.85, 14264.82, 10718.40, 54562.95, 6695.42, 0.00, 0.00, 0.00, 0.00
182, 40453.55, 17349.51, -4960.10, 14202.57, 10670.41, 54686.83, 6695.22, 0.00, 0.00, 0.00, 0.00
183, 40414.16, 17365.74, -4932.94, 14188.08, 10635.50, 54294.80, 6730.91, 0.00, 0.01, 0.95, 0.28
184, 40378.16, 17363.48, -4912.35, 14212.87, 10667.68, 54116.43, 6715.96, 0.00, 0.00, 0.00, 0.00
185, 40405.83, 17336.71, -4937.25, 14225.61, 10706.37, 54451.62, 6699.51, 0.00, 0.00, 0.00, 0.00
186, 40449.26, 17338.92, -4951.78, 14200.42, 10695.96, 54712.91, 6695.62, 0.00, 0.00, 0.00, 0.00
187, 40419.80, 17366.32, -4939.67, 14185.53, 10643.19, 54358.12, 6682.86, 0.00, 0.00, 0.00, 0.00
188, 40382.54, 17371.15, -4924.58, 14204.38, 10643.10, 54127.61, 6714.11, 0.00, 0.00, 0.00, 0.00
189, 40399.01, 17350.21, -4936.16, 14223.40, 10692.74, 54376.14, 6726.73, 0.00, 0.00, 0.00, 0.00
190, 40449.01, 17341.13, -4959.65, 14203.21, 10691.64, 54719.19, 6682.41, 0.00, 0.00, 0.00, 0.00
191, 40432.05, 17364.27, -4939.27, 14186.23, 10634.47, 54432.69, 6725.55, 0.00, 0.00, 0.00, 0.00
192, 40400.73, 17385.23, -4909.92, 14225.52, 10650.20, 54146.90, 6760.42, 0.00, 0.01, 0.96, 0.28
193, 40393.09, 17350.38, -4925.45, 14225.37, 10688.00, 54293.48, 6734.92, 0.00, 0.00, 0.00, 0.00
194, 40442.66, 17322.04, -4960.90, 14196.44, 10702.26, 54702.45, 6674.19, 0.00, 0.00, 0.00, 0.00
195, 40433.72, 17348.33, -4952.65, 14168.86, 10638.94, 54494.09, 6691.87, 0.00, 0.00, 0.00, 0.00
196, 40393.27, 17370.68, -4922.50, 14213.61, 10645.04, 54153.16, 6728.57, 0.00, 0.00, 0.00, 0.00
197, 40382.70, 17356.17, -4925.18, 14246.42, 10683.75, 54217.08, 6702.46, 0.00, 0.00, 0.00, 0.00
198, 40432.14, 17324.48, -4959.78, 14190.29, 10715.60, 54660.70, 6671.53, 0.00, 0.00, 0.00, 0.00
199, 40437.86, 17339.77, -4957.88, 14184.37, 10653.18, 54566.73, 6706.33, 0.00, 0.00, 0.00, 0.00
200, 40406.39, 17367.95, -4932.85, 14216.13, 10626.56, 54207.05, 6751.43, 0.00, 0.00, 0.00, 0.00
201, 40385.58, 17360.24, -4923.64, 14206.23, 10662.72, 54184.52, 6742.72, 0.00, 0.00, 0.00, 0.00
202, 40423.87, 17326.76, -4952.92, 14210.12, 10729.35, 54607.25, 6684.20, 0.00, 0.01, 0.95, 0.29
203, 40437.46, 17334.11, -4947.76, 14174.56, 10671.82, 54617.38, 6678.99, 0.00, 0.00, 0.00, 0.00
204, 40410.90, 17365.23, -4908.02, 14185.06, 10638.22, 54242.88, 6732.70, 0.00, 0.00, 0.00, 0.00
205, 40385.46, 17363.01, -4932.60, 14214.88, 10652.42, 54164.20, 6719.96, 0.00, 0.00, 0.00, 0.00
206, 40415.11, 17327.52, -4952.48, 14214.73, 10699.91, 54531.59, 6698.71, 0.00, 0.00, 0.00, 0.00
207, 40454.13, 17337.33, -4951.07, 14184.44, 10673.45, 54684.43, 6706.57, 0.00, 0.00, 0.00, 0.00
208, 40425.41, 17368.00, -4915.15, 14186.76, 10637.15, 54315.70, 6723.56, 0.00, 0.00, 0.00, 0.00
209, 40387.01, 17364.82, -4908.17, 14200.24, 10637.08, 54131.25, 6758.63, 0.00, 0.00, 0.00, 0.00
210, 40414.75, 17339.43, -4911.73, 14223.42, 10694.50, 54443.98, 6739.30, 0.00, 0.00, 0.00, 0.00
211, 40453.84, 17324.10, -4933.90, 14193.27, 10671.04, 54720.15, 6691.46, 0.00, 0.00, 0.00, 0.00
212, 40429.97, 17352.04, -4893.78, 14184.46, 10621.73, 54384.79, 6717.39, 0.00, 0.02, 0.94, 0.28
213, 40394.50, 17364.96, -4852.94, 14211.86, 10640.55, 54137.55, 6754.18, 0.00, 0.00, 0.00, 0.00
214, 40398.16, 17338.09, -4874.33, 14211.62, 10682.59, 54357.79, 6740.17, 0.00, 0.00, 0.00, 0.00
215, 40436.63, 17308.30, -4905.74, 14178.40, 10678.30, 54705.98, 6670.07, 0.00, 0.00, 0.00, 0.00
216, 40428.61, 17334.80, -4866.94, 14169.28, 10621.95, 54432.48, 6682.61, 0.00, 0.00, 0.00, 0.00
217, 40397.94, 17356.44, -4854.46, 14196.78, 10617.10, 54147.19, 6727.61, 0.00, 0.00, 0.00, 0.00
218, 40396.30, 17343.37, -4845.50, 14213.76, 10660.06, 54284.92, 6731.18, 0.00, 0.00, 0.00, 0.00
219, 40440.54, 17312.19, -4877.82, 14210.84, 10676.15, 54695.34, 6678.92, 0.00, 0.00, 0.00, 0.00
220, 40438.84, 17333.24, -4861.03, 14189.83, 10620.03, 54507.16, 6696.81, 0.00, 0.00, 0.00, 0.00
221, 40404.22, 17355.12, -4813.98, 14172.19, 10625.50, 54165.54, 6766.14, 0.00, 0.00, 0.00, 0.00
222, 40394.61, 17339.10, -4816.85, 14194.34, 10655.72, 54202.51, 6757.18, 0.00, 0.01, 0.96, 0.28
223, 40441.25, 17314.42, -4854.22, 14199.79, 10691.46, 54653.66, 6724.50, 0.00, 0.00, 0.00, 0.00
224, 40452.12, 17340.01, -4843.53, 14176.10, 10640.77, 54593.53, 6715.40, 0.00, 0.00, 0.00, 0.00
225, 40420.85, 17367.53, -4801.13, 14183.95, 10621.17, 54207.47, 6743.25, 0.00, 0.00, 0.00, 0.00
226, 40391.93, 17357.20, -4789.60, 14205.61, 10643.99, 54166.52, 6750.56, 0.00, 0.00, 0.00, 0.00
227, 40440.07, 17338.29, -4811.84, 14219.17, 10693.61, 54598.38, 6717.17, 0.00, 0.00, 0.00, 0.00
228, 40466.87, 17352.17, -4817.67, 14189.47, 10645.20, 54647.73, 6694.77, 0.00, 0.00, 0.00, 0.00
229, 40440.36, 17386.44, -4768.95, 14195.86, 10624.50, 54268.52, 6740.12, 0.00, 0.00, 0.00, 0.00
230, 40405.20, 17379.11, -4749.25, 14206.48, 10645.00, 54140.41, 6760.51, 0.00, 0.00, 0.00, 0.00
231, 40428.58, 17339.12, -4778.15, 14206.37, 10693.97, 54498.71, 6703.40, 0.00, 0.00, 0.00, 0.00
232, 40460.86, 17335.14, -4790.74, 14174.74, 10664.33, 54675.92, 6657.44, 0.00, 0.02, 0.96, 0.28
233, 40437.10, 17367.33, -4764.54, 14182.43, 10627.65, 54318.96, 6717.73, 0.00, 0.00, 0.00, 0.00
234, 40406.72, 17372.40, -4750.10, 14202.68, 10637.60, 54131.41, 6759.21, 0.00, 0.00, 0.00, 0.00
235, 40427.53, 17346.81, -4765.41, 14216.22, 10689.43, 54423.07, 6730.09, 0.00, 0.00, 0.00, 0.00
236, 40462.63, 17330.40, -4801.09, 14186.47, 10654.65, 54706.56, 6689.63, 0.00, 0.00, 0.00, 0.00
237, 40443.56, 17362.03, -4769.93, 14169.73, 10622.46, 54373.37, 6718.49, 0.00, 0.00, 0.00, 0.00
238, 40400.80, 17370.19, -4756.50, 14185.76, 10635.81, 54117.59, 6736.70, 0.00, 0.00, 0.00, 0.00
239, 40402.36, 17343.10, -4784.19, 14203.26, 10668.76, 54319.30, 6713.01, 0.00, 0.00, 0.00, 0.00
240, 40454.22, 17327.34, -4818.52, 14187.23, 10674.21, 54698.88, 6667.19, 0.00, 0.00, 0.00, 0.00
241, 40445.08, 17358.10, -4798.03, 14189.58, 10623.29, 54448.58, 6688.38, 0.00, 0.02, 0.95, 0.28
242, 40407.37, 17374.66, -4773.64, 14203.48, 10635.36, 54145.78, 6768.06, 0.00, 0.00, 0.00, 0.00
243, 40403.75, 17354.47, -4785.04, 14201.22, 10672.15, 54255.59, 6775.51, 0.00, 0.00, 0.00, 0.00
244, 40453.44, 17326.47, -4819.80, 14186.79, 10686.50, 54661.28, 6680.91, 0.00, 0.00, 0.00, 0.00
245, 40456.72, 17354.34, -4816.60, 14190.56, 10626.56, 54510.47, 6705.77, 0.00, 0.00, 0.00, 0.00
246, 40427.31, 17383.44, -4793.17, 14216.96, 10621.95, 54168.73, 6756.62, 0.00, 0.00, 0.00, 0.00
247, 40412.94, 17371.82, -4796.82, 14190.67, 10650.47, 54196.14, 6745.62, 0.00, 0.00, 0.00, 0.00
248, 40462.82, 17345.71, -4833.43, 14200.69, 10681.79, 54638.70, 6719.31, 0.00, 0.00, 0.00, 0.00
249, 40482.34, 17369.52, -4837.25, 14176.06, 10638.56, 54596.37, 6706.77, 0.00, 0.00, 0.00, 0.00
250, 40444.09, 17387.60, -4804.26, 14175.14, 10629.13, 54210.71, 6749.67, 0.00, 0.00, 0.00, 0.00
251, 40412.24, 17375.04, -4801.58, 14193.67, 10646.05, 54143.07, 6756.73, 0.00, 0.02, 0.95, 0.28
252, 40453.37, 17344.46, -4834.66, 14191.43, 10696.49, 54553.83, 6706.22, 0.00, 0.00, 0.00, 0.00
253, 40470.36, 17342.47, -4857.28, 14146.84, 10644.53, 54622.70, 6683.13, 0.00, 0.00, 0.00, 0.00
254, 40437.12, 17367.37, -4834.70, 14151.43, 10607.82, 54242.41, 6720.25, 0.00, 0.00, 0.00, 0.00
255, 40411.10, 17375.22, -4820.60, 14187.12, 10625.75, 54117.44, 6737.62, 0.00, 0.00, 0.00, 0.00
0, 40443.11, 17352.55, -4840.45, 14221.68, 10681.83, 54480.52, 6719.69, 0.00, 0.00, 0.00, 0.00
1, 40486.23, 17354.45, -4869.01, 14196.42, 10652.84, 54683.72, 6697.21, 0.00, 0.00, 0.00, 0.00
2, 40457.57, 17373.14, -4849.19, 14145.95, 10606.84, 54317.22, 6711.63, 0.00, 0.00, 0.00, 0.00
3, 40418.23, 17373.76, -4832.29, 14179.70, 10608.94, 54106.96, 6717.93, 0.00, 0.00, 0.00, 0.00
4, 40424.89, 17341.60, -4855.60, 14201.63, 10666.97, 54379.96, 6729.06, 0.00, 0.00, 0.00, 0.00
5, 40463.77, 17321.86, -4883.77, 14172.37, 10658.85, 54695.81, 6696.27, 0.00, 0.02, 0.95, 0.28
6, 40443.42, 17344.60, -4862.06, 14158.58, 10606.33, 54391.47, 6725.17, 0.00, 0.00, 0.00, 0.00
7, 40402.27, 17356.87, -4847.13, 14180.17, 10609.05, 54116.07, 6740.95, 0.00, 0.00, 0.00, 0.00
8, 40409.92, 17340.91, -4861.30, 14198.21, 10651.97, 54293.79, 6734.76, 0.00, 0.00, 0.00, 0.00
9, 40478.32, 17336.66, -4886.14, 14190.03, 10664.84, 54706.21, 6710.46, 0.00, 0.00, 0.00, 0.00
10, 40471.88, 17362.07, -4874.38, 14165.26, 10609.19, 54482.22, 6736.32, 0.00, 0.00, 0.00, 0.00
11, 40422.84, 17366.90, -4853.30, 14169.80, 10599.00, 54144.59, 6763.10, 0.00, 0.00, 0.00, 0.00
12, 40413.61, 17352.49, -4851.31, 14196.35, 10656.37, 54244.39, 6734.94, 0.00, 0.00, 0.00, 0.00
13, 40461.75, 17323.00, -4887.52, 14176.15, 10674.17, 54684.26, 6693.32, 0.00, 0.00, 0.00, 0.00
14, 40461.73, 17340.24, -4887.92, 14144.72, 10614.31, 54547.60, 6734.13, 0.00, 0.00, 0.00, 0.00
15, 40426.13, 17368.38, -4854.71, 14164.34, 10601.75, 54185.61, 6776.94, 0.00, 0.02, 0.95, 0.28
16, 40410.59, 17359.48, -4855.83, 14184.04, 10629.13, 54187.62, 6774.48, 0.00, 0.00, 0.00, 0.00
17, 40456.66, 17329.35, -4894.05, 14187.21, 10669.45, 54624.09, 6719.63, 0.00, 0.00, 0.00, 0.00
18, 40465.11, 17338.38, -4906.52, 14152.92, 10616.43, 54610.25, 6699.69, 0.00, 0.00, 0.00, 0.00
19, 40428.94, 17362.81, -4871.25, 14158.31, 10586.63, 54229.71, 6732.39, 0.00, 0.00, 0.00, 0.00
20, 40399.79, 17355.93, -4866.85, 14176.28, 10609.88, 54142.76, 6740.57, 0.00, 0.00, 0.00, 0.00
21, 40441.84, 17329.51, -4899.03, 14188.17, 10660.71, 54542.01, 6715.09, 0.00, 0.00, 0.00, 0.00
22, 40469.08, 17335.32, -4916.31, 14210.08, 10614.69, 54654.42, 6676.98, 0.00, 0.00, 0.00, 0.00
23, 40439.64, 17366.66, -4879.36, 14206.90, 10590.17, 54279.18, 6726.73, 0.00, 0.00, 0.00, 0.00
24, 40406.61, 17364.53, -4863.87, 14147.22, 10593.41, 54123.83, 6761.60, 0.00, 0.01, 0.95, 0.29
25, 40426.53, 17325.69, -4898.09, 14177.44, 10661.02, 54457.86, 6761.45, 0.00, 0.00, 0.00, 0.00
26, 40469.60, 17322.94, -4916.02, 14157.68, 10635.36, 54699.25, 6738.02, 0.00, 0.00, 0.00, 0.00
27, 40447.96, 17353.47, -4887.63, 14152.50, 10589.34, 54346.19, 6758.23, 0.00, 0.00, 0.00, 0.00
28, 40411.71, 17363.08, -4867.58, 14173.44, 10605.41, 54109.77, 6766.50, 0.00, 0.00, 0.00, 0.00
29, 40423.00, 17338.98, -4889.09, 14187.41, 10650.07, 54361.16, 6742.56, 0.00, 0.00, 0.00, 0.00
30, 40475.30, 17333.08, -4917.96, 14161.60, 10647.68, 54709.38, 6700.67, 0.00, 0.00, 0.00, 0.00
31, 40466.54, 17361.49, -4888.39, 14148.61, 10601.68, 54420.44, 6742.72, 0.00, 0.00, 0.00, 0.00
32, 40428.58, 17374.21, -4861.15, 14167.79, 10607.53, 54131.83, 6770.72, 0.00, 0.00, 0.00, 0.00
33, 40441.21, 17367.80, -4864.07, 14205.27, 10655.17, 54298.62, 6753.76, 0.00, 0.00, 0.00, 0.00
34, 40507.17, 17355.93, -4894.56, 14202.23, 10665.89, 54717.70, 6701.12, 0.00, 0.01, 0.95, 0.29
35, 40493.40, 17370.97, -4890.23, 14168.84, 10593.92, 54491.34, 6695.78, 0.00, 0.00, 0.00, 0.00
36, 40442.57, 17378.50, -4865.75, 14175.12, 10584.18, 54139.07, 6716.32, 0.00, 0.00, 0.00, 0.00
37, 40429.95, 17359.66, -4872.32, 14198.97, 10612.12, 54217.26, 6719.02, 0.00, 0.00, 0.00, 0.00
38, 40481.33, 17337.49, -4906.68, 14192.64, 10645.60, 54673.39, 6686.88, 0.00, 0.00, 0.00, 0.00
39, 40479.25, 17352.44, -4910.16, 14154.08, 10591.17, 54557.23, 6708.05, 0.00, 0.00, 0.00, 0.00
40, 40433.95, 17365.40, -4880.01, 14175.01, 10586.30, 54180.05, 6757.56, 0.00, 0.00, 0.00, 0.00
41, 40409.76, 17348.98, -4877.02, 14168.46, 10610.44, 54149.51, 6743.21, 0.00, 0.00, 0.00, 0.00
42, 40447.87, 17309.39, -4923.08, 14151.27, 10631.16, 54574.89, 6694.95, 0.00, 0.00, 0.00, 0.00
43, 40459.85, 17315.90, -4935.02, 14122.03, 10581.00, 54597.66, 6678.16, 0.00, 0.00, 0.00, 0.00
44, 40430.64, 17349.09, -4897.18, 14140.23, 10570.34, 54216.90, 6729.35, 0.00, 0.01, 0.94, 0.28
45, 40411.33, 17356.53, -4884.24, 14178.87, 10601.16, 54125.15, 6729.04, 0.00, 0.00, 0.00, 0.00
46, 40449.41, 17327.14, -4913.45, 14195.32, 10648.62, 54517.82, 6729.71, 0.00, 0.00, 0.00, 0.00
47, 40477.91, 17320.12, -4933.45, 14147.33, 10613.12, 54653.28, 6735.50, 0.00, 0.00, 0.00, 0.00
48, 40444.56, 17345.80, -4902.21, 14130.79, 10572.80, 54273.34, 6742.27, 0.00, 0.00, 0.00, 0.00
49, 40405.67, 17344.86, -4893.38, 14151.02, 10580.85, 54093.81, 6732.10, 0.00, 0.00, 0.00, 0.00
50, 40430.48, 17315.87, -4917.81, 14169.62, 10629.62, 54415.30, 6707.00, 0.00, 0.00, 0.00, 0.00
51, 40476.01, 17312.74, -4942.22, 14143.67, 10608.05, 54681.71, 6697.88, 0.00, 0.00, 0.00, 0.00
52, 40453.23, 17338.00, -4915.55, 14130.53, 10565.00, 54339.59, 6734.49, 0.00, 0.00, 0.00, 0.00
53, 40412.82, 17345.09, -4892.60, 14151.76, 10571.73, 54103.18, 6767.73, 0.00, 0.00, 0.00, 0.00
54, 40428.16, 17333.44, -4904.00, 14177.42, 10626.20, 54345.20, 6749.80, 0.00, 0.01, 0.95, 0.28
55, 40474.11, 17320.99, -4937.86, 14162.60, 10622.91, 54702.96, 6696.83, 0.00, 0.00, 0.00, 0.00
56, 40459.81, 17349.40, -4917.29, 14186.36, 10572.20, 54426.63, 6734.87, 0.00, 0.00, 0.00, 0.00
57, 40418.97, 17358.61, -4892.55, 14156.16, 10566.16, 54127.88, 6760.67, 0.00, 0.00, 0.00, 0.00
58, 40410.45, 17323.03, -4918.75, 14174.58, 10582.41, 54253.79, 6718.51, 0.00, 0.00, 0.00, 0.00
59, 40450.91, 17290.48, -4959.85, 14134.53, 10611.33, 54665.28, 6668.42, 0.00, 0.00, 0.00, 0.00
60, 40444.21, 17313.01, -4948.25, 14107.66, 10551.54, 54479.78, 6698.21, 0.00, 0.00, 0.00, 0.00
61, 40415.51, 17342.56, -4906.25, 14153.50, 10565.98, 54149.87, 6779.19, 0.00, 0.00, 0.00, 0.00
62, 40410.16, 17337.42, -4895.41, 14185.71, 10612.00, 54202.57, 6778.64, 0.00, 0.00, 0.00, 0.00
63, 40457.01, 17309.23, -4926.01, 14179.21, 10648.35, 54653.19, 6733.33, 0.00, 0.00, 0.00, 0.00
64, 40465.55, 17327.76, -4929.92, 14153.73, 10579.21, 54582.15, 6722.64, 0.00, 0.01, 0.95, 0.28
65, 40431.46, 17355.66, -4905.36, 14166.87, 10561.96, 54210.60, 6756.35, 0.00, 0.00, 0.00, 0.00
66, 40403.14, 17344.97, -4904.58, 14183.92, 10584.85, 54162.88, 6756.44, 0.00, 0.00, 0.00, 0.00
67, 40447.27, 17317.64, -4939.96, 14182.20, 10625.95, 54577.59, 6700.47, 0.00, 0.00, 0.00, 0.00
68, 40465.57, 17319.00, -4953.30, 14137.12, 10576.08, 54612.26, 6711.89, 0.00, 0.00, 0.00, 0.00
69, 40429.34, 17345.13, -4916.85, 14139.49, 10552.50, 54217.57, 6741.00, 0.00, 0.00, 0.00, 0.00
70, 40400.42, 17342.76, -4905.29, 14157.17, 10566.14, 54099.85, 6734.54, 0.00, 0.00, 0.00, 0.00
71, 40435.02, 17313.08, -4930.77, 14175.48, 10622.73, 54489.39, 6717.06, 0.00, 0.00, 0.00, 0.00
72, 40472.93, 17318.96, -4947.98, 14153.82, 10598.28, 54677.42, 6727.58, 0.00, 0.00, 0.00, 0.00
73, 40442.51, 17350.68, -4922.28, 14149.57, 10548.91, 54304.28, 6768.04, 0.00, 0.01, 0.96, 0.28
74, 40410.52, 17359.46, -4898.38, 14175.01, 10578.25, 54107.92, 6783.51, 0.00, 0.00, 0.00, 0.00
75, 40425.59, 17326.65, -4924.54, 14184.30, 10628.66, 54406.25, 6733.44, 0.00, 0.00, 0.00, 0.00
76, 40463.59, 17313.97, -4953.19, 14154.08, 10603.02, 54692.48, 6695.17, 0.00, 0.00, 0.00, 0.00
77, 40446.11, 17341.06, -4926.28, 14147.18, 10556.57, 54364.63, 6754.23, 0.00, 0.00, 0.00, 0.00
78, 40405.98, 17344.26, -4906.95, 14166.29, 10569.60, 54111.45, 6793.32, 0.00, 0.00, 0.00, 0.00
79, 40415.60, 17324.21, -4918.93, 14188.73, 10613.70, 54321.55, 6760.13, 0.00, 0.00, 0.00, 0.00
80, 40464.99, 17309.64, -4950.13, 14188.31, 10611.85, 54689.33, 6704.99, 0.00, 0.00, 0.00, 0.00
81, 40447.65, 17327.38, -4936.18, 14145.48, 10551.92, 54430.63, 6720.52, 0.00, 0.00, 0.00, 0.00
82, 40408.02, 17338.34, -4907.55, 14147.96, 10550.47, 54127.23, 6761.18, 0.00, 0.00, 0.00, 0.00
83, 40405.43, 17327.76, -4915.01, 14195.75, 10586.05, 54253.74, 6723.16, 0.00, 0.01, 0.96, 0.28
84, 40461.20, 17314.40, -4942.48, 14185.87, 10635.43, 54694.56, 6705.14, 0.00, 0.00, 0.00, 0.00
85, 40460.41, 17336.62, -4934.15, 14166.36, 10562.94, 54523.93, 6734.18, 0.00, 0.00, 0.00, 0.00
86, 40427.06, 17360.62, -4904.24, 14202.10, 10555.75, 54173.23, 6789.59, 0.00, 0.00, 0.00, 0.00
87, 40425.52, 17362.74, -4894.81, 14169.31, 10596.13, 54193.57, 6795.06, 0.00, 0.00, 0.00, 0.00
88, 40474.18, 17339.66, -4923.78, 14169.22, 10627.90, 54627.28, 6719.22, 0.00, 0.00, 0.00, 0.00
89, 40478.43, 17344.75, -4941.84, 14134.24, 10558.83, 54566.60, 6711.25, 0.00, 0.00, 0.00, 0.00
90, 40433.21, 17360.67, -4916.31, 14135.96, 10536.37, 54190.11, 6753.04, 0.00, 0.00, 0.00, 0.00
91, 40405.67, 17356.42, -4901.45, 14156.68, 10570.21, 54132.50, 6766.68, 0.00, 0.00, 0.00, 0.00
92, 40450.09, 17329.44, -4928.29, 14169.06, 10614.26, 54552.71, 6736.66, 0.00, 0.00, 0.00, 0.00
93, 40480.26, 17343.23, -4942.19, 14139.09, 10568.66, 54622.27, 6724.81, 0.00, 0.01, 0.95, 0.28
94, 40448.74, 17370.54, -4922.77, 14141.48, 10534.69, 54245.52, 6745.60, 0.00, 0.00, 0.00, 0.00
95, 40411.02, 17366.21, -4910.05, 14164.55, 10551.77, 54110.38, 6756.84, 0.00, 0.00, 0.00, 0.00
96, 40442.21, 17330.78, -4930.73, 14179.68, 10609.68, 54462.10, 6724.77, 0.00, 0.00, 0.00, 0.00
97, 40478.74, 17329.26, -4957.53, 14155.02, 10573.85, 54655.54, 6692.83, 0.00, 0.00, 0.00, 0.00
98, 40443.40, 17354.21, -4933.97, 14113.43, 10525.50, 54287.98, 6735.50, 0.00, 0.00, 0.00, 0.00
99, 40405.00, 17355.77, -4909.49, 14136.20, 10564.84, 54086.21, 6759.01, 0.00, 0.00, 0.00, 0.00
100, 40432.34, 17338.11, -4926.12, 14168.05, 10605.30, 54376.54, 6714.37, 0.00, 0.00, 0.00, 0.00
101, 40478.32, 17330.51, -4953.01, 14152.77, 10588.78, 54683.27, 6691.42, 0.00, 0.00, 0.00, 0.00
102, 40456.05, 17359.66, -4926.64, 14125.03, 10537.60, 54365.66, 6715.98, 0.00, 0.00, 0.00, 0.00
103, 40407.32, 17356.89, -4912.47, 14127.82, 10532.61, 54085.99, 6710.35, 0.00, 0.01, 0.95, 0.29
104, 40406.21, 17327.38, -4926.19, 14150.20, 10573.45, 54274.01, 6683.19, 0.00, 0.00, 0.00, 0.00
105, 40474.29, 17327.50, -4950.15, 14142.84, 10592.36, 54658.26, 6691.24, 0.00, 0.00, 0.00, 0.00
106, 40465.80, 17351.21, -4940.72, 14119.28, 10538.60, 54424.93, 6745.53, 0.00, 0.00, 0.00, 0.00
107, 40405.34, 17352.62, -4916.53, 14138.46, 10538.78, 54115.38, 6780.51, 0.00, 0.00, 0.00, 0.00
108, 40388.10, 17334.63, -4919.64, 14202.63, 10568.89, 54208.81, 6763.66, 0.00, 0.00, 0.00, 0.00
109, 40425.68, 17300.65, -4955.47, 14161.80, 10595.20, 54643.57, 6723.92, 0.00, 0.00, 0.00, 0.00
110, 40415.17, 17308.43, -4946.64, 14108.29, 10541.91, 54491.65, 6718.55, 0.00, 0.00, 0.00, 0.00
111, 40367.74, 17304.61, -4937.84, 14093.76, 10516.14, 54122.20, 6760.51, 0.00, 0.00, 0.00, 0.00
112, 40327.75, 17263.73, -4936.38, 14122.55, 10563.88, 54133.89, 6778.64, 0.00, 0.01, 0.95, 0.28
113, 40355.69, 17235.12, -4969.78, 14119.66, 10601.41, 54567.56, 6717.17, 0.00, 0.00, 0.00, 0.00
114, 40363.41, 17240.53, -4976.26, 14092.84, 10539.09, 54538.25, 6697.66, 0.00, 0.00, 0.00, 0.00
115, 40330.26, 17254.52, -4945.03, 14095.55, 10516.94, 54160.62, 6728.59, 0.00, 0.00, 0.00, 0.00
116, 40306.72, 17255.46, -4942.75, 14114.41, 10537.39, 54084.83, 6745.53, 0.00, 0.00, 0.00, 0.00
117, 40348.65, 17232.48, -4973.04, 14127.38, 10586.23, 54490.06, 6698.33, 0.00, 0.00, 0.00, 0.00
118, 40377.33, 17235.99, -4990.90, 14098.23, 10538.47, 54602.47, 6682.19, 0.00, 0.00, 0.00, 0.00
119, 40348.99, 17266.10, -4958.51, 14093.07, 10502.37, 54213.80, 6722.64, 0.00, 0.00, 0.00, 0.00
120, 40324.00, 17276.58, -4944.54, 14117.85, 10518.37, 54060.29, 6753.40, 0.00, 0.00, 0.00, 0.00
121, 40356.66, 17254.99, -4962.11, 14136.34, 10581.79, 54408.86, 6729.26, 0.00, 0.00, 0.00, 0.00
122, 40392.77, 17253.24, -4982.94, 14112.71, 10553.62, 54644.09, 6697.68, 0.00, 0.01, 0.95, 0.28
123, 40364.90, 17280.13, -4956.16, 14103.55, 10501.27, 54286.11, 6699.09, 0.00, 0.00, 0.00, 0.00
124, 40332.13, 17288.72, -4940.12, 14119.62, 10515.11, 54061.63, 6754.67, 0.00, 0.00, 0.00, 0.00
125, 40353.30, 17269.00, -4960.05, 14134.46, 10560.57, 54318.54, 6748.13, 0.00, 0.00, 0.00, 0.00
126, 40406.57, 17260.78, -4989.24, 14102.70, 10549.98, 54644.78, 6699.26, 0.00, 0.00, 0.00, 0.00
127, 40392.20, 17289.23, -4970.20, 14080.95, 10497.03, 54334.72, 6723.05, 0.00, 0.00, 0.00, 0.00
128, 40349.46, 17301.68, -4947.87, 14101.74, 10490.59, 54045.42, 6742.14, 0.00, 0.00, 0.00, 0.00
129, 40351.74, 17284.02, -4954.62, 14120.36, 10551.59, 54218.02, 6731.07, 0.00, 0.00, 0.00, 0.00
130, 40401.67, 17258.34, -4988.26, 14094.92, 10568.60, 54621.94, 6673.54, 0.00, 0.00, 0.00, 0.00
131, 40393.11, 17277.03, -4981.67, 14067.99, 10497.43, 54395.34, 6666.32, 0.00, 0.00, 0.00, 0.00
132, 40353.59, 17294.84, -4952.43, 14086.05, 10493.63, 54065.16, 6729.13, 0.00, 0.01, 0.96, 0.27
133, 40350.91, 17285.47, -4948.39, 14113.25, 10542.63, 54148.91, 6759.52, 0.00, 0.00, 0.00, 0.00
134, 40406.01, 17258.27, -4983.32, 14107.68, 10576.08, 54589.98, 6693.94, 0.00, 0.00, 0.00, 0.00
135, 40415.42, 17279.26, -4978.60, 14083.57, 10512.61, 54476.14, 6670.94, 0.00, 0.00, 0.00, 0.00
136, 40376.66, 17298.35, -4951.11, 14088.95, 10498.44, 54107.31, 6717.28, 0.00, 0.00, 0.00, 0.00
137, 40355.49, 17293.14, -4945.75, 14111.28, 10528.48, 54098.24, 6757.83, 0.00, 0.00, 0.00, 0.00
138, 40407.84, 17272.38, -4972.77, 14125.72, 10573.89, 54547.66, 6714.89, 0.00, 0.00, 0.00, 0.00
139, 40428.02, 17283.80, -4978.38, 14116.76, 10515.22, 54558.55, 6685.21, 0.00, 0.00, 0.00, 0.00
140, 40390.36, 17303.87, -4942.98, 14097.60, 10491.98, 54169.38, 6712.59, 0.00, 0.00, 0.00, 0.00
141, 40356.54, 17290.39, -4942.15, 14092.08, 10511.44, 54057.00, 6708.52, 0.00, 0.00, 0.00, 0.00
142, 40394.09, 17264.06, -4970.45, 14108.02, 10566.52, 54451.91, 6720.92, 0.00, 0.01, 0.96, 0.27
143, 40426.19, 17279.48, -4979.03, 14092.80, 10541.89, 54603.21, 6731.12, 0.00, 0.00, 0.00, 0.00
144, 40407.13, 17320.57, -4947.02, 14105.43, 10500.36, 54238.88, 6743.95, 0.00, 0.00, 0.00, 0.00
145, 40374.91, 17319.63, -4934.13, 14129.50, 10525.57, 54066.36, 6746.45, 0.00, 0.00, 0.00, 0.00
146, 40403.32, 17292.45, -4950.93, 14140.43, 10577.96, 54384.36, 6731.63, 0.00, 0.00, 0.00, 0.00
147, 40447.49, 17286.35, -4975.54, 14106.27, 10550.94, 54641.18, 6703.06, 0.00, 0.00, 0.00, 0.00
148, 40426.55, 17316.92, -4946.64, 14092.55, 10509.39, 54289.66, 6726.62, 0.00, 0.00, 0.00, 0.00
149, 40386.07, 17322.58, -4925.81, 14111.19, 10518.73, 54045.96, 6728.50, 0.00, 0.00, 0.00, 0.00
150, 40397.60, 17298.28, -4943.47, 14135.00, 10569.27, 54287.91, 6718.82, 0.00, 0.00, 0.00, 0.00
151, 40444.92, 17285.52, -4978.54, 14113.76, 10564.48, 54647.73, 6682.93, 0.00, 0.00, 0.00, 0.00
152, 40424.22, 17311.18, -4964.08, 14084.01, 10505.77, 54360.43, 6691.42, 0.00, 0.01, 0.96, 0.28
153, 40385.96, 17328.70, -4935.44, 14114.50, 10511.56, 54064.02, 6763.73, 0.00, 0.00, 0.00, 0.00
154, 40386.79, 17306.40, -4940.27, 14151.76, 10569.89, 54208.30, 6769.69, 0.00, 0.00, 0.00, 0.00
155, 40437.01, 17277.58, -4978.18, 14101.98, 10581.00, 54611.16, 6693.61, 0.00, 0.00, 0.00, 0.00
156, 40436.90, 17304.25, -4962.27, 14083.16, 10516.81, 54424.21, 6700.90, 0.00, 0.00, 0.00, 0.00
157, 40399.77, 17325.57, -4927.22, 14111.33, 10510.28, 54107.16, 6743.36, 0.00, 0.00, 0.00, 0.00
158, 40382.23, 17307.60, -4932.94, 14129.23, 10541.33, 54157.45, 6725.37, 0.00, 0.00, 0.00, 0.00
159, 40439.24, 17286.73, -4966.87, 14132.43, 10572.55, 54601.58, 6726.85, 0.00, 0.00, 0.00, 0.00
160, 40445.10, 17305.03, -4972.32, 14100.58, 10516.88, 54506.43, 6719.22, 0.00, 0.00, 0.00, 0.00
161, 40399.95, 17325.48, -4940.58, 14114.19, 10513.68, 54128.41, 6760.35, 0.00, 0.01, 0.96, 0.28
162, 40376.73, 17317.33, -4936.36, 14161.15, 10537.82, 54106.78, 6771.33, 0.00, 0.00, 0.00, 0.00
163, 40425.12, 17288.16, -4968.73, 14184.66, 10575.75, 54540.63, 6705.39, 0.00, 0.00, 0.00, 0.00
164, 40444.56, 17296.54, -4977.67, 14086.83, 10515.78, 54560.56, 6683.44, 0.00, 0.00, 0.00, 0.00
165, 40411.04, 17324.61, -4945.14, 14089.67, 10491.37, 54164.73, 6723.92, 0.00, 0.00, 0.00, 0.00
166, 40390.14, 17327.14, -4930.66, 14130.91, 10525.06, 54072.15, 6763.17, 0.00, 0.00, 0.00, 0.00
167, 40424.27, 17293.86, -4953.24, 14133.45, 10579.62, 54453.72, 6718.91, 0.00, 0.00, 0.00, 0.00
168, 40456.61, 17294.01, -4973.44, 14098.97, 10540.66, 54609.07, 6699.91, 0.00, 0.00, 0.00, 0.00
169, 40427.44, 17321.21, -4951.29, 14091.84, 10502.03, 54232.41, 6724.14, 0.00, 0.00, 0.00, 0.00
170, 40385.62, 17320.63, -4938.91, 14109.92, 10514.84, 54045.31, 6746.78, 0.00, 0.00, 0.00, 0.00
171, 40412.67, 17302.48, -4951.58, 14137.86, 10575.26, 54355.37, 6733.75, 0.00, 0.01, 0.95, 0.29
172, 40457.35, 17295.80, -4971.27, 14129.63, 10563.39, 54629.29, 6689.61, 0.00, 0.00, 0.00, 0.00
173, 40424.87, 17317.21, -4953.12, 14089.71, 10510.10, 54291.11, 6726.98, 0.00, 0.00, 0.00, 0.00
174, 40389.69, 17328.30, -4923.96, 14103.97, 10525.48, 54061.47, 6783.91, 0.00, 0.00, 0.00, 0.00
175, 40397.00, 17300.58, -4932.85, 14129.72, 10571.39, 54285.55, 6744.75, 0.00, 0.00, 0.00, 0.00
176, 40445.30, 17278.43, -4970.25, 14110.61, 10565.76, 54646.50, 6686.05, 0.00, 0.00, 0.00, 0.00
177, 40429.05, 17300.61, -4969.28, 14086.90, 10509.30, 54380.79, 6704.92, 0.00, 0.00, 0.00, 0.00
178, 40376.88, 17308.03, -4946.71, 14095.30, 10507.08, 54069.32, 6757.98, 0.00, 0.00, 0.00, 0.00
179, 40372.77, 17286.32, -4950.89, 14122.44, 10550.09, 54194.55, 6769.27, 0.00, 0.00, 0.00, 0.00
180, 40428.25, 17260.87, -4985.74, 14116.83, 10568.15, 54623.50, 6713.26, 0.00, 0.00, 0.00, 0.00
181, 40429.23, 17287.22, -4976.30, 14088.08, 10501.32, 54454.57, 6716.32, 0.00, 0.01, 0.95, 0.29
182, 40388.21, 17309.28, -4940.12, 14112.15, 10488.69, 54100.29, 6755.77, 0.00, 0.00, 0.00, 0.00
183, 40376.23, 17299.20, -4933.14, 14169.69, 10539.38, 54134.85, 6731.97, 0.00, 0.00, 0.00, 0.00
184, 40427.44, 17267.21, -4986.90, 14108.40, 10560.91, 54572.45, 6676.98, 0.00, 0.00, 0.00, 0.00
185, 40440.92, 17290.62, -4990.05, 14080.84, 10504.56, 54514.18, 6725.17, 0.00, 0.00, 0.00, 0.00
186, 40400.13, 17319.72, -4953.77, 14101.56, 10496.47, 54141.38, 6749.96, 0.00, 0.00, 0.00, 0.00
187, 40369.35, 17303.87, -4948.99, 14107.01, 10525.08, 54080.78, 6745.13, 0.00, 0.00, 0.00, 0.00
188, 40414.43, 17270.12, -4973.71, 14123.26, 10573.85, 54496.52, 6743.30, 0.00, 0.00, 0.00, 0.00
189, 40436.96, 17276.00, -4989.83, 14080.50, 10526.02, 54560.05, 6716.65, 0.00, 0.00, 0.00, 0.00
190, 40402.30, 17305.86, -4957.88, 14083.01, 10494.01, 54184.36, 6733.93, 0.00, 0.00, 0.00, 0.00
191, 40368.14, 17302.39, -4947.38, 14101.65, 10509.48, 54059.61, 6751.77, 0.00, 0.01, 0.95, 0.28
192, 40396.91, 17275.28, -4971.12, 14117.14, 10564.15, 54425.42, 6712.18, 0.00, 0.00, 0.00, 0.00
193, 40429.59, 17268.46, -4994.43, 14080.24, 10532.43, 54615.77, 6713.26, 0.00, 0.00, 0.00, 0.00
194, 40407.17, 17299.09, -4966.42, 14082.05, 10491.19, 54246.96, 6737.24, 0.00, 0.00, 0.00, 0.00
195, 40377.87, 17314.06, -4942.86, 14112.87, 10503.84, 54052.21, 6781.59, 0.00, 0.00, 0.00, 0.00
196, 40398.96, 17295.51, -4956.21, 14139.53, 10561.80, 54361.00, 6776.36, 0.00, 0.00, 0.00, 0.00
197, 40441.05, 17282.55, -4988.04, 14111.26, 10551.27, 54658.95, 6719.90, 0.00, 0.00, 0.00, 0.00
198, 40420.31, 17307.00, -4967.61, 14090.25, 10496.38, 54330.72, 6752.51, 0.00, 0.00, 0.00, 0.00
199, 40383.32, 17319.56, -4950.15, 14126.93, 10502.53, 54062.90, 6779.78, 0.00, 0.00, 0.00, 0.00
200, 40393.67, 17299.67, -4959.63, 14143.24, 10549.51, 54262.39, 6768.33, 0.00, 0.00, 0.00, 0.00
201, 40438.91, 17272.94, -4993.87, 14092.60, 10558.87, 54642.14, 6707.76, 0.00, 0.02, 0.95, 0.28
202, 40421.45, 17287.38, -4983.68, 14068.14, 10497.90, 54391.70, 6708.56, 0.00, 0.00, 0.00, 0.00
203, 40381.89, 17301.61, -4950.51, 14125.88, 10489.58, 54081.05, 6764.06, 0.00, 0.00, 0.00, 0.00
204, 40371.85, 17280.60, -4963.54, 14139.49, 10537.13, 54192.09, 6746.29, 0.00, 0.00, 0.00, 0.00
205, 40422.39, 17256.26, -5005.02, 14086.02, 10557.47, 54619.79, 6689.41, 0.00, 0.00, 0.00, 0.00
206, 40422.03, 17275.46, -4989.33, 14066.58, 10500.85, 54461.34, 6711.51, 0.00, 0.00, 0.00, 0.00
207, 40381.69, 17294.77, -4962.13, 14087.32, 10487.95, 54112.48, 6740.88, 0.00, 0.00, 0.00, 0.00
208, 40362.13, 17281.88, -4963.79, 14116.04, 10517.81, 54135.32, 6764.17, 0.00, 0.00, 0.00, 0.00
209, 40409.23, 17249.82, -4992.02, 14113.18, 10568.49, 54572.59, 6741.00, 0.00, 0.00, 0.00, 0.00
210, 40421.81, 17259.68, -4995.48, 14071.96, 10513.66, 54531.23, 6731.59, 0.00, 0.02, 0.95, 0.27
211, 40386.27, 17284.29, -4962.27, 14078.13, 10489.43, 54149.80, 6746.05, 0.00, 0.00, 0.00, 0.00
212, 40360.61, 17281.59, -4959.27, 14106.79, 10508.85, 54076.04, 6734.56, 0.00, 0.00, 0.00, 0.00
213, 40402.09, 17253.89, -4992.26, 14121.88, 10552.17, 54494.07, 6700.92, 0.00, 0.00, 0.00, 0.00
214, 40432.38, 17260.11, -5000.06, 14082.76, 10509.45, 54605.27, 6712.03, 0.00, 0.00, 0.00, 0.00
215, 40397.04, 17283.96, -4977.78, 14086.49, 10470.63, 54216.48, 6742.38, 0.00, 0.00, 0.00, 0.00
216, 40370.09, 17289.54, -4963.12, 14123.26, 10494.50, 54067.62, 6780.87, 0.00, 0.00, 0.00, 0.00
217, 40401.78, 17262.34, -4978.45, 14108.53, 10574.59, 54420.19, 6776.45, 0.00, 0.00, 0.00, 0.00
218, 40433.10, 17253.18, -5001.11, 14078.36, 10537.48, 54636.45, 6736.90, 0.00, 0.00, 0.00, 0.00
219, 40408.44, 17285.81, -4972.50, 14078.89, 10500.25, 54267.42, 6755.75, 0.00, 0.00, 0.00, 0.00
220, 40378.29, 17293.95, -4958.62, 14104.91, 10509.63, 54056.62, 6767.68, 0.00, 0.01, 0.95, 0.28
221, 40395.70, 17274.50, -4974.18, 14124.69, 10556.24, 54334.21, 6763.66, 0.00, 0.00, 0.00, 0.00
222, 40443.34, 17265.25, -5005.32, 14100.64, 10541.69, 54650.59, 6715.94, 0.00, 0.00, 0.00, 0.00
223, 40430.06, 17294.19, -4980.59, 14091.21, 10486.52, 54343.04, 6716.32, 0.00, 0.00, 0.00, 0.00
224, 40400.17, 17313.30, -4945.26, 14118.77, 10493.32, 54069.67, 6760.13, 0.00, 0.00, 0.00, 0.00
225, 40415.35, 17307.09, -4947.31, 14150.31, 10543.94, 54259.30, 6762.88, 0.00, 0.00, 0.00, 0.00
226, 40468.82, 17289.34, -4986.36, 14133.63, 10552.84, 54663.45, 6718.69, 0.00, 0.00, 0.00, 0.00
227, 40460.77, 17312.50, -4975.19, 14105.29, 10486.52, 54413.69, 6713.70, 0.00, 0.00, 0.00, 0.00
228, 40420.25, 17324.63, -4944.99, 14120.29, 10479.68, 54085.14, 6753.42, 0.00, 0.00, 0.00, 0.00
229, 40403.48, 17304.59, -4954.80, 14134.10, 10508.56, 54182.44, 6736.06, 0.00, 0.00, 0.00, 0.00
230, 40451.87, 17271.75, -4989.45, 14118.05, 10535.90, 54621.09, 6686.86, 0.00, 0.01, 0.95, 0.26
231, 40449.75, 17284.56, -4993.02, 14085.04, 10472.35, 54491.18, 6667.32, 0.00, 0.00, 0.00, 0.00
232, 40401.36, 17302.78, -4976.50, 14097.20, 10456.75, 54116.66, 6708.34, 0.00, 0.00, 0.00, 0.00
233, 40384.66, 17292.94, -4963.47, 14109.52, 10509.01, 54106.04, 6780.74, 0.00, 0.00, 0.00, 0.00
234, 40428.05, 17260.38, -4995.48, 14097.51, 10550.40, 54531.59, 6707.76, 0.00, 0.00, 0.00, 0.00
235, 40443.56, 17271.33, -5002.34, 14065.04, 10488.04, 54531.84, 6725.95, 0.00, 0.00, 0.00, 0.00
236, 40410.10, 17297.41, -4965.93, 14074.13, 10487.97, 54157.25, 6755.59, 0.00, 0.00, 0.00, 0.00
237, 40390.52, 17299.80, -4947.20, 14108.29, 10508.74, 54071.04, 6750.67, 0.00, 0.00, 0.00, 0.00
238, 40428.79, 17265.36, -4974.76, 14134.21, 10553.91, 54464.76, 6733.19, 0.00, 0.00, 0.00, 0.00
239, 40456.41, 17265.92, -4991.97, 14070.49, 10510.46, 54588.05, 6723.14, 0.00, 0.00, 0.00, 0.00
240, 40422.93, 17294.04, -4962.89, 14069.89, 10472.31, 54216.70, 6737.78, 0.00, 0.02, 0.95, 0.26
241, 40380.23, 17291.06, -4954.06, 14091.05, 10479.59, 54046.58, 6744.39, 0.00, 0.00, 0.00, 0.00
242, 40405.54, 17261.63, -4974.05, 14109.29, 10537.53, 54384.16, 6738.69, 0.00, 0.00, 0.00, 0.00
243, 40448.63, 17259.77, -4993.38, 14088.17, 10515.40, 54627.84, 6702.73, 0.00, 0.00, 0.00, 0.00
244, 40422.70, 17290.33, -4968.59, 14090.45, 10480.17, 54283.11, 6739.90, 0.00, 0.00, 0.00, 0.00
245, 40385.71, 17297.86, -4952.79, 14122.70, 10491.26, 54054.79, 6787.69, 0.00, 0.00, 0.00, 0.00
246, 40401.52, 17273.90, -4970.40, 14086.61, 10529.57, 54300.43, 6752.60, 0.00, 0.00, 0.00, 0.00
247, 40452.54, 17261.42, -4993.80, 14070.38, 10528.19, 54642.84, 6724.57, 0.00, 0.00, 0.00, 0.00
248, 40430.06, 17281.79, -4973.84, 14057.08, 10473.96, 54346.92, 6743.88, 0.00, 0.00, 0.00, 0.00
249, 40388.80, 17295.00, -4947.94, 14081.08, 10473.27, 54052.39, 6763.88, 0.00, 0.01, 0.95, 0.27
250, 40386.07, 17271.37, -4959.14, 14101.87, 10502.28, 54208.70, 6739.92, 0.00, 0.00, 0.00, 0.00
251, 40432.96, 17248.42, -5000.67, 14081.15, 10539.74, 54622.16, 6695.26, 0.00, 0.00, 0.00, 0.00
252, 40424.67, 17268.96, -4998.43, 14057.84, 10473.94, 54414.05, 6705.70, 0.00, 0.00, 0.00, 0.00
253, 40391.59, 17294.13, -4965.89, 14083.63, 10470.21, 54082.14, 6774.50, 0.00, 0.00, 0.00, 0.00
254, 40385.42, 17282.90, -4958.94, 14121.56, 10522.55, 54149.96, 6792.58, 0.00, 0.00, 0.00, 0.00
255, 40434.84, 17255.37, -4992.75, 14137.57, 10553.69, 54604.82, 6742.07, 0.00, 0.00, 0.00, 0.00
0, 40443.27, 17277.16, -4987.37, 14069.60, 10496.11, 54499.83, 6744.10, 0.00, 0.00, 0.00, 0.00
1, 40405.23, 17295.76, -4956.48, 14079.23, 10473.02, 54124.34, 6763.48, 0.00, 0.00, 0.00, 0.00
2, 40379.63, 17287.73, -4954.73, 14104.40, 10500.38, 54104.88, 6786.77, 0.00, 0.00, 0.00, 0.00
3, 40425.77, 17262.56, -4988.06, 14112.62, 10546.07, 54532.20, 6747.77, 0.00, 0.01, 0.96, 0.26
4, 40441.64, 17267.64, -4996.73, 14075.79, 10490.86, 54556.32, 6712.47, 0.00, 0.00, 0.00, 0.00
5, 40407.84, 17291.91, -4964.79, 14075.27, 10470.58, 54174.26, 6748.73, 0.00, 0.00, 0.00, 0.00
6, 40379.81, 17289.63, -4957.53, 14096.91, 10492.02, 54070.05, 6763.50, 0.00, 0.00, 0.00, 0.00
7, 40418.55, 17266.23, -4984.30, 14114.75, 10533.75, 54453.16, 6749.13, 0.00, 0.00, 0.00, 0.00
8, 40448.68, 17267.82, -5005.34, 14083.03, 10502.95, 54601.93, 6757.56, 0.00, 0.00, 0.00, 0.00
9, 40421.61, 17296.74, -4971.34, 14082.92, 10482.10, 54228.30, 6783.84, 0.00, 0.00, 0.00, 0.00
10, 40383.95, 17295.15, -4949.15, 14102.81, 10491.13, 54053.64, 6787.42, 0.00, 0.00, 0.00, 0.00
11, 40403.73, 17267.01, -4967.50, 14115.73, 10543.67, 54369.45, 6737.46, 0.00, 0.00, 0.00, 0.00
12, 40444.77, 17260.02, -4997.72, 14085.13, 10523.47, 54639.24, 6706.75, 0.00, 0.00, 0.00, 0.00
13, 40418.88, 17281.85, -4984.13, 14066.15, 10468.71, 54296.07, 6724.97, 0.00, 0.01, 0.96, 0.27
14, 40383.59, 17291.22, -4959.40, 14105.85, 10478.07, 54050.88, 6766.12, 0.00, 0.00, 0.00, 0.00
15, 40400.06, 17274.43, -4961.71, 14150.46, 10549.02, 54283.13, 6782.95, 0.00, 0.00, 0.00, 0.00
16, 40444.95, 17253.82, -4998.83, 14063.45, 10543.38, 54640.43, 6733.82, 0.00, 0.00, 0.00, 0.00
17, 40431.91, 17284.25, -4978.96, 14051.85, 10479.03, 54363.44, 6748.15, 0.00, 0.00, 0.00, 0.00
18, 40390.32, 17297.81, -4953.57, 14093.85, 10475.28, 54067.62, 6767.12, 0.00, 0.00, 0.00, 0.00
19, 40388.04, 17280.76, -4959.07, 14137.57, 10516.63, 54205.35, 6762.65, 0.00, 0.00, 0.00, 0.00
20, 40441.61, 17263.28, -4982.05, 14093.07, 10547.01, 54633.96, 6727.05, 0.00, 0.00, 0.00, 0.00
21, 40437.88, 17279.08, -4976.86, 14062.80, 10484.85, 54453.90, 6752.24, 0.00, 0.00, 0.00, 0.00
22, 40398.88, 17301.01, -4954.15, 14083.19, 10462.67, 54110.24, 6798.10, 0.00, 0.00, 0.00, 0.00
23, 40376.28, 17287.08, -4960.84, 14100.44, 10496.58, 54143.07, 6761.72, 0.00, 0.01, 0.96, 0.27
24, 40423.35, 17258.07, -4990.34, 14099.23, 10545.87, 54576.43, 6697.16, 0.00, 0.00, 0.00, 0.00
25, 40434.59, 17274.79, -4988.62, 14066.02, 10487.75, 54504.14, 6719.90, 0.00, 0.00, 0.00, 0.00
26, 40396.29, 17295.33, -4955.14, 14072.37, 10474.03, 54128.39, 6786.32, 0.00, 0.00, 0.00, 0.00
27, 40372.99, 17288.13, -4954.71, 14094.70, 10497.32, 54100.12, 6797.50, 0.00, 0.00, 0.00, 0.00
28, 40418.30, 17259.86, -4987.32, 14096.55, 10538.09, 54521.69, 6715.49, 0.00, 0.00, 0.00, 0.00
29, 40442.24, 17275.24, -4991.08, 14062.11, 10493.45, 54567.38, 6716.88, 0.00, 0.00, 0.00, 0.00
30, 40406.45, 17302.02, -4967.43, 14067.99, 10463.43, 54184.27, 6788.58, 0.00, 0.00, 0.00, 0.00
31, 40370.38, 17296.63, -4959.83, 14092.89, 10479.35, 54063.86, 6790.57, 0.00, 0.00, 0.00, 0.00
32, 40398.47, 17263.50, -4983.37, 14099.64, 10535.56, 54431.05, 6745.40, 0.00, 0.00, 0.00, 0.00
33, 40433.30, 17259.90, -5000.00, 14061.04, 10507.82, 54600.64, 6712.09, 0.00, 0.01, 0.96, 0.27
34, 40404.53, 17284.34, -4973.08, 14057.55, 10458.85, 54241.56, 6729.80, 0.00, 0.00, 0.00, 0.00
35, 40367.23, 17288.47, -4955.54, 14083.10, 10470.38, 54048.28, 6767.82, 0.00, 0.00, 0.00, 0.00
36, 40380.84, 17262.16, -4972.37, 14101.16, 10530.20, 54342.57, 6771.55, 0.00, 0.00, 0.00, 0.00
37, 40425.74, 17254.61, -5000.58, 14082.60, 10532.90, 54633.45, 6740.64, 0.00, 0.00, 0.00, 0.00
38, 40405.87, 17280.18, -4983.41, 14081.53, 10468.06, 54308.72, 6741.93, 0.00, 0.00, 0.00, 0.00
39, 40367.11, 17284.09, -4963.29, 14065.30, 10465.00, 54034.85, 6743.86, 0.00, 0.00, 0.00, 0.00
40, 40383.19, 17272.78, -4967.32, 14083.14, 10518.08, 54237.76, 6749.02, 0.00, 0.00, 0.00, 0.00
41, 40431.71, 17256.62, -5005.20, 14057.30, 10524.18, 54617.58, 6714.37, 0.00, 0.00, 0.00, 0.00
42, 40418.19, 17279.13, -4995.32, 14037.10, 10461.44, 54365.74, 6717.84, 0.00, 0.01, 0.95, 0.27
43, 40380.23, 17298.97, -4969.49, 14059.36, 10464.66, 54055.03, 6753.89, 0.00, 0.00, 0.00, 0.00
44, 40373.48, 17282.26, -4974.27, 14090.45, 10504.38, 54175.57, 6782.66, 0.00, 0.00, 0.00, 0.00
45, 40424.96, 17256.13, -5005.96, 14079.97, 10533.68, 54609.64, 6741.64, 0.00, 0.00, 0.00, 0.00
46, 40429.59, 17280.09, -4994.94, 14052.12, 10478.03, 54443.10, 6740.41, 0.00, 0.00, 0.00, 0.00
47, 40385.36, 17291.76, -4976.86, 14061.42, 10456.84, 54092.76, 6772.02, 0.00, 0.00, 0.00, 0.00
48, 40369.73, 17278.10, -4976.71, 14084.44, 10486.52, 54113.88, 6780.54, 0.00, 0.00, 0.00, 0.00
49, 40424.98, 17255.86, -5003.15, 14090.07, 10538.69, 54557.45, 6752.24, 0.00, 0.00, 0.00, 0.00
50, 40440.32, 17271.53, -5003.64, 14057.26, 10480.51, 54514.54, 6724.77, 0.00, 0.00, 0.00, 0.00
51, 40399.39, 17291.02, -4984.75, 14057.75, 10438.26, 54130.58, 6756.98, 0.00, 0.00, 0.00, 0.00
52, 40373.20, 17287.58, -4974.51, 14100.04, 10472.51, 54064.13, 6766.27, 0.00, 0.02, 0.95, 0.27
53, 40409.41, 17253.71, -4996.96, 14120.89, 10542.85, 54480.72, 6738.78, 0.00, 0.00, 0.00, 0.00
54, 40433.50, 17258.43, -5007.55, 14040.87, 10493.72, 54565.95, 6740.62, 0.00, 0.00, 0.00, 0.00
55, 40400.93, 17287.51, -4976.15, 14068.03, 10461.47, 54191.22, 6784.56, 0.00, 0.00, 0.00, 0.00
56, 40372.10, 17292.78, -4961.37, 14072.28, 10478.34, 54045.80, 6789.61, 0.00, 0.00, 0.00, 0.00
57, 40399.12, 17258.09, -4984.13, 14068.61, 10530.00, 54390.31, 6738.29, 0.00, 0.00, 0.00, 0.00
58, 40432.45, 17244.95, -5012.98, 14042.28, 10493.27, 54597.69, 6704.76, 0.00, 0.00, 0.00, 0.00
59, 40402.95, 17272.11, -4992.64, 14046.84, 10449.19, 54244.17, 6755.21, 0.00, 0.00, 0.00, 0.00
60, 40367.59, 17284.00, -4968.06, 14072.48, 10465.00, 54037.26, 6772.04, 0.00, 0.00, 0.00, 0.00
61, 40384.06, 17258.16, -4980.08, 14081.73, 10524.45, 54316.61, 6748.84, 0.00, 0.00, 0.00, 0.00
62, 40430.91, 17243.79, -5011.31, 14059.00, 10510.17, 54632.38, 6717.32, 0.00, 0.02, 0.95, 0.27
63, 40412.64, 17272.06, -4990.41, 14042.75, 10453.24, 54310.89, 6738.65, 0.00, 0.00, 0.00, 0.00
64, 40369.55, 17282.03, -4964.59, 14056.21, 10456.30, 54030.67, 6759.19, 0.00, 0.00, 0.00, 0.00
65, 40373.89, 17262.38, -4971.77, 14081.80, 10501.92, 54224.97, 6775.77, 0.00, 0.00, 0.00, 0.00
66, 40422.48, 17237.75, -5007.01, 14064.70, 10519.16, 54623.30, 6733.49, 0.00, 0.00, 0.00, 0.00
67, 40405.43, 17253.40, -4997.85, 14034.46, 10446.78, 54375.96, 6749.91, 0.00, 0.00, 0.00, 0.00
68, 40357.86, 17262.43, -4972.57, 14046.95, 10446.00, 54043.57, 6770.90, 0.00, 0.00, 0.00, 0.00
69, 40349.30, 17249.27, -4964.88, 14070.74, 10509.25, 54144.71, 6757.25, 0.00, 0.00, 0.00, 0.00
70, 40403.32, 17223.22, -5000.76, 14054.73, 10528.39, 54581.13, 6724.46, 0.00, 0.00, 0.00, 0.00
71, 40405.80, 17240.77, -5010.50, 14022.32, 10458.09, 54430.50, 6720.72, 0.00, 0.00, 0.00, 0.00
72, 40367.27, 17270.43, -4980.84, 14046.01, 10450.40, 54078.34, 6758.25, 0.00, 0.02, 0.96, 0.27
73, 40348.16, 17261.00, -4974.45, 14066.58, 10481.96, 54087.62, 6768.56, 0.00, 0.00, 0.00, 0.00
74, 40400.98, 17229.57, -5002.21, 14073.62, 10527.81, 54520.62, 6727.74, 0.00, 0.00, 0.00, 0.00
75, 40416.69, 17235.07, -5010.97, 14046.42, 10467.43, 54500.37, 6718.04, 0.00, 0.00, 0.00, 0.00
76, 40380.21, 17265.11, -4978.90, 14022.92, 10440.97, 54130.20, 6750.52, 0.00, 0.00, 0.00, 0.00
77, 40344.36, 17252.30, -4977.71, 14042.68, 10455.88, 54052.86, 6750.61, 0.00, 0.00, 0.00, 0.00
78, 40386.38, 17225.01, -5000.80, 14066.02, 10514.06, 54454.23, 6732.79, 0.00, 0.00, 0.00, 0.00
79, 40413.27, 17226.11, -5018.53, 14034.30, 10468.57, 54565.25, 6720.01, 0.00, 0.00, 0.00, 0.00
80, 40386.16, 17258.21, -4985.51, 14035.49, 10439.23, 54187.42, 6766.86, 0.00, 0.00, 0.00, 0.00
81, 40352.56, 17261.54, -4970.74, 14056.09, 10455.56, 54027.14, 6776.60, 0.00, 0.02, 0.96, 0.27
82, 40381.22, 17234.33, -4992.62, 14070.94, 10512.56, 54361.34, 6745.51, 0.00, 0.00, 0.00, 0.00
83, 40424.11, 17232.77, -5017.05, 14041.43, 10473.98, 54597.26, 6716.56, 0.00, 0.00, 0.00, 0.00
84, 40401.94, 17260.98, -4990.94, 14033.12, 10439.56, 54246.48, 6753.67, 0.00, 0.00, 0.00, 0.00
85, 40362.93, 17264.80, -4967.92, 14049.59, 10466.41, 54020.27, 6774.34, 0.00, 0.00, 0.00, 0.00
86, 40372.01, 17238.09, -4989.67, 14065.73, 10500.36, 54274.59, 6742.07, 0.00, 0.00, 0.00, 0.00
87, 40420.09, 17229.48, -5019.96, 14044.99, 10491.46, 54610.20, 6703.58, 0.00, 0.00, 0.00, 0.00
88, 40399.12, 17253.76, -4996.49, 14024.07, 10441.91, 54309.75, 6749.09, 0.00, 0.00, 0.00, 0.00
89, 40361.80, 17269.87, -4969.69, 14056.48, 10447.34, 54031.05, 6780.29, 0.00, 0.00, 0.00, 0.00
90, 40361.17, 17245.46, -4984.80, 14079.23, 10490.17, 54202.17, 6762.54, 0.00, 0.00, 0.00, 0.00
91, 40411.42, 17219.22, -5018.12, 14042.21, 10506.06, 54605.55, 6698.82, 0.00, 0.02, 0.97, 0.27
92, 40400.84, 17238.36, -5008.56, 14011.03, 10437.15, 54382.48, 6712.97, 0.00, 0.00, 0.00, 0.00
93, 40369.15, 17262.95, -4973.29, 14032.94, 10430.60, 54049.60, 6768.09, 0.00, 0.00, 0.00, 0.00
94, 40359.11, 17246.65, -4975.19, 14053.12, 10468.66, 54120.03, 6748.08, 0.00, 0.00, 0.00, 0.00
95, 40411.53, 17217.62, -5008.15, 14044.94, 10500.83, 54557.84, 6669.29, 0.00, 0.00, 0.00, 0.00
96, 40408.67, 17232.39, -5008.22, 14011.28, 10444.21, 54450.14, 6687.89, 0.00, 0.00, 0.00, 0.00
97, 40368.16, 17258.32, -4976.48, 14024.13, 10424.21, 54076.00, 6771.77, 0.00, 0.00, 0.00, 0.00
98, 40347.31, 17250.36, -4965.64, 14050.55, 10470.25, 54053.31, 6793.97, 0.00, 0.00, 0.00, 0.00
99, 40390.74, 17215.78, -4998.21, 14051.80, 10516.18, 54488.50, 6746.61, 0.00, 0.00, 0.00, 0.00
100, 40402.45, 17221.26, -5014.75, 14009.69, 10459.95, 54488.50, 6720.77, 0.00, 0.00, 0.00, 0.00
101, 40366.89, 17248.19, -4981.06, 14007.46, 10443.32, 54086.61, 6713.30, 0.00, 0.02, 0.97, 0.27
102, 40345.43, 17253.62, -4975.07, 14036.96, 10456.46, 53995.02, 6764.08, 0.00, 0.00, 0.00, 0.00
103, 40396.33, 17235.99, -4993.42, 14072.79, 10521.21, 54433.45, 6787.20, 0.00, 0.00, 0.00, 0.00
104, 40426.77, 17231.32, -5014.23, 14035.64, 10471.23, 54583.58, 6741.38, 0.00, 0.00, 0.00, 0.00
105, 40394.03, 17256.39, -4983.08, 14032.16, 10436.59, 54182.84, 6751.23, 0.00, 0.00, 0.00, 0.00
106, 40361.48, 17259.81, -4961.13, 14074.76, 10453.71, 54017.64, 6777.47, 0.00, 0.00, 0.00, 0.00
107, 40392.91, 17240.88, -4981.73, 14069.82, 10508.20, 54348.89, 6775.08, 0.00, 0.00, 0.00, 0.00
108, 40432.94, 17229.24, -5008.69, 14036.20, 10482.77, 54607.75, 6722.35, 0.00, 0.00, 0.00, 0.00
109, 40404.22, 17246.92, -4988.33, 14012.71, 10429.75, 54256.11, 6702.98, 0.00, 0.00, 0.00, 0.00
110, 40367.25, 17256.26, -4970.38, 14035.31, 10431.98, 54012.36, 6754.29, 0.00, 0.00, 0.00, 0.00
111, 40374.83, 17241.42, -4987.37, 14060.95, 10482.36, 54244.48, 6763.28, 0.00, 0.02, 0.95, 0.27
112, 40423.71, 17228.79, -5016.96, 14042.17, 10486.50, 54600.13, 6720.70, 0.00, 0.00, 0.00, 0.00
113, 40409.96, 17254.36, -4995.41, 14028.11, 10434.35, 54321.91, 6747.39, 0.00, 0.00, 0.00, 0.00
114, 40363.36, 17259.03, -4971.12, 14050.78, 10429.10, 54021.32, 6769.18, 0.00, 0.00, 0.00, 0.00
115, 40362.85, 17236.39, -4976.86, 14057.41, 10493.05, 54159.30, 6786.91, 0.00, 0.00, 0.00, 0.00
116, 40419.04, 17217.26, -5009.92, 14036.85, 10501.61, 54577.46, 6734.65, 0.00, 0.00, 0.00, 0.00
117, 40415.84, 17242.87, -5001.78, 14017.16, 10438.02, 54391.96, 6745.15, 0.00, 0.00, 0.00, 0.00
118, 40370.49, 17254.67, -4976.03, 14026.93, 10429.06, 54044.17, 6764.22, 0.00, 0.00, 0.00, 0.00
119, 40351.69, 17236.50, -4981.42, 14041.88, 10456.12, 54079.89, 6727.41, 0.00, 0.00, 0.00, 0.00
120, 40403.44, 17219.20, -5015.64, 14040.34, 10492.27, 54522.79, 6689.52, 0.00, 0.00, 0.00, 0.00
121, 40420.43, 17242.49, -5007.04, 14018.16, 10438.76, 54468.56, 6741.64, 0.00, 0.02, 0.95, 0.28
122, 40390.34, 17269.72, -4972.23, 14032.38, 10423.22, 54101.81, 6787.26, 0.00, 0.00, 0.00, 0.00
123, 40359.00, 17256.35, -4978.56, 14046.26, 10442.67, 54048.33, 6764.62, 0.00, 0.00, 0.00, 0.00
124, 40402.59, 17224.77, -5008.67, 14050.55, 10489.79, 54465.93, 6724.66, 0.00, 0.00, 0.00, 0.00
125, 40425.88, 17231.34, -5018.03, 14015.50, 10441.86, 54516.19, 6725.44, 0.00, 0.00, 0.00, 0.00
126, 40392.17, 17256.02, -4984.91, 14022.79, 10419.24, 54139.86, 6763.10, 0.00, 0.00, 0.00, 0.00
127, 40358.55, 17252.53, -4974.36, 14061.75, 10437.26, 54025.35, 6766.68, 0.00, 0.00, 0.00, 0.00
128, 40397.43, 17231.72, -4996.91, 14054.35, 10494.41, 54399.20, 6748.42, 0.00, 0.00, 0.00, 0.00
129, 40428.05, 17227.07, -5019.37, 14003.57, 10454.11, 54565.70, 6720.79, 0.00, 0.00, 0.00, 0.00
130, 40400.93, 17255.75, -4990.41, 14006.59, 10408.40, 54191.15, 6746.63, 0.00, 0.01, 0.95, 0.28
131, 40366.31, 17259.21, -4971.23, 14030.50, 10445.19, 54000.70, 6783.26, 0.00, 0.00, 0.00, 0.00
132, 40386.49, 17233.75, -4987.48, 14048.85, 10497.29, 54301.08, 6740.48, 0.00, 0.00, 0.00, 0.00
133, 40432.61, 17225.68, -5011.02, 14019.19, 10479.37, 54584.77, 6715.87, 0.00, 0.00, 0.00, 0.00
134, 40418.73, 17260.02, -4983.19, 14012.17, 10431.83, 54257.20, 6740.53, 0.00, 0.00, 0.00, 0.00
135, 40383.10, 17267.95, -4960.10, 14037.10, 10434.26, 54010.44, 6762.39, 0.00, 0.00, 0.00, 0.00
136, 40389.11, 17242.34, -4983.34, 14052.70, 10481.65, 54216.34, 6742.02, 0.00, 0.00, 0.00, 0.00
137, 40439.31, 17226.06, -5017.74, 14039.04, 10492.62, 54589.77, 6748.46, 0.00, 0.00, 0.00, 0.00
138, 40430.88, 17262.10, -4997.27, 14012.06, 10435.22, 54323.97, 6759.08, 0.00, 0.00, 0.00, 0.00
139, 40393.71, 17275.60, -4959.36, 14023.64, 10442.80, 54016.52, 6777.00, 0.00, 0.00, 0.00, 0.00
140, 40376.50, 17239.79, -4974.11, 14038.75, 10478.56, 54127.86, 6767.62, 0.00, 0.01, 0.95, 0.28
141, 40427.40, 17216.61, -5014.23, 14038.39, 10508.23, 54568.18, 6734.65, 0.00, 0.00, 0.00, 0.00
142, 40432.49, 17248.82, -5002.21, 14025.00, 10446.83, 54417.36, 6729.84, 0.00, 0.00, 0.00, 0.00
143, 40392.68, 17267.88, -4971.18, 14036.92, 10430.98, 54064.26, 6760.53, 0.00, 0.00, 0.00, 0.00
144, 40374.85, 17251.54, -4972.30, 14056.68, 10457.53, 54090.80, 6786.06, 0.00, 0.00, 0.00, 0.00
145, 40423.69, 17223.54, -5006.37, 14088.71, 10517.48, 54528.06, 6746.63, 0.00, 0.00, 0.00, 0.00
146, 40434.39, 17241.15, -5012.31, 14032.27, 10453.58, 54481.73, 6705.81, 0.00, 0.00, 0.00, 0.00
147, 40398.23, 17265.74, -4977.11, 14023.24, 10425.75, 54107.22, 6771.44, 0.00, 0.00, 0.00, 0.00
148, 40376.23, 17262.72, -4967.41, 14028.45, 10453.53, 54043.57, 6798.98, 0.00, 0.00, 0.00, 0.00
149, 40413.83, 17230.45, -5002.63, 14038.44, 10496.29, 54450.19, 6735.34, 0.00, 0.00, 0.00, 0.00
150, 40439.31, 17235.97, -5011.51, 14009.33, 10454.89, 54520.78, 6713.52, 0.00, 0.02, 0.95, 0.27
151, 40403.44, 17256.46, -4982.25, 14011.37, 10422.95, 54142.23, 6728.48, 0.00, 0.00, 0.00, 0.00
152, 40373.57, 17257.13, -4964.30, 14038.26, 10451.99, 54018.93, 6782.48, 0.00, 0.00, 0.00, 0.00
153, 40410.25, 17231.90, -4988.37, 14057.08, 10505.72, 54374.35, 6750.92, 0.00, 0.00, 0.00, 0.00
154, 40445.35, 17226.18, -5011.13, 14022.95, 10476.26, 54570.75, 6710.98, 0.00, 0.00, 0.00, 0.00
155, 40412.78, 17253.67, -4989.07, 14010.14, 10428.09, 54206.09, 6757.63, 0.00, 0.00, 0.00, 0.00
156, 40379.39, 17264.02, -4966.69, 14035.35, 10445.57, 54000.88, 6793.43, 0.00, 0.00, 0.00, 0.00
157, 40397.60, 17241.82, -4981.58, 14052.21, 10496.31, 54278.66, 6781.99, 0.00, 0.00, 0.00, 0.00
158, 40437.01, 17222.87, -5007.33, 14017.43, 10480.04, 54580.23, 6728.05, 0.00, 0.00, 0.00, 0.00
159, 40419.17, 17247.54, -4986.14, 14009.69, 10416.65, 54269.27, 6742.43, 0.00, 0.00, 0.00, 0.00
160, 40381.38, 17259.37, -4970.98, 14026.08, 10425.43, 54004.63, 6756.31, 0.00, 0.01, 0.95, 0.27
161, 40389.36, 17239.88, -4975.50, 14055.18, 10489.63, 54195.65, 6758.14, 0.00, 0.00, 0.00, 0.00
162, 40443.18, 17220.79, -5004.91, 14032.49, 10497.18, 54580.86, 6733.26, 0.00, 0.00, 0.00, 0.00
163, 40434.71, 17249.64, -4983.97, 14012.78, 10440.03, 54341.61, 6751.57, 0.00, 0.00, 0.00, 0.00
164, 40391.19, 17266.88, -4960.17, 14034.08, 10436.45, 54020.39, 6769.20, 0.00, 0.00, 0.00, 0.00
165, 40385.15, 17251.57, -4968.06, 14057.32, 10476.02, 54126.65, 6771.01, 0.00, 0.00, 0.00, 0.00
166, 40440.36, 17226.82, -5006.12, 14050.06, 10495.44, 54568.72, 6730.65, 0.00, 0.00, 0.00, 0.00
167, 40451.52, 17256.42, -4992.91, 14029.16, 10432.54, 54436.87, 6746.52, 0.00, 0.00, 0.00, 0.00
168, 40428.40, 17291.15, -4949.75, 14055.13, 10426.57, 54076.11, 6778.57, 0.00, 0.00, 0.00, 0.00
169, 40408.58, 17282.99, -4953.88, 14090.58, 10453.64, 54081.36, 6777.14, 0.00, 0.01, 0.96, 0.27
170, 40462.07, 17264.46, -4984.24, 14106.14, 10498.35, 54527.44, 6737.17, 0.00, 0.00, 0.00, 0.00
171, 40478.07, 17276.09, -4991.08, 14035.06, 10436.25, 54502.45, 6707.53, 0.00, 0.00, 0.00, 0.00
172, 40438.55, 17295.42, -4962.80, 14037.90, 10408.33, 54107.34, 6727.81, 0.00, 0.00, 0.00, 0.00
173, 40409.23, 17285.79, -4956.97, 14062.47, 10438.31, 54034.71, 6721.08, 0.00, 0.00, 0.00, 0.00
174, 40444.00, 17249.64, -4988.53, 14063.11, 10488.09, 54445.34, 6731.59, 0.00, 0.00, 0.00, 0.00
175, 40465.46, 17244.04, -5004.15, 14021.50, 10446.49, 54535.28, 6722.85, 0.00, 0.00, 0.00, 0.00
176, 40425.79, 17262.88, -4981.47, 14014.90, 10407.40, 54146.94, 6739.50, 0.00, 0.00, 0.00, 0.00
177, 40388.71, 17260.58, -4971.99, 14031.84, 10405.00, 53990.84, 6744.21, 0.00, 0.00, 0.00, 0.00
178, 40416.98, 17233.64, -4995.88, 14046.08, 10467.23, 54333.76, 6728.95, 0.00, 0.00, 0.00, 0.00
179, 40458.33, 17225.33, -5014.81, 14013.85, 10459.43, 54561.03, 6726.73, 0.00, 0.01, 0.96, 0.27
180, 40434.62, 17256.78, -4982.02, 14007.50, 10414.53, 54206.29, 6752.39, 0.00, 0.00, 0.00, 0.00
181, 40391.50, 17259.95, -4959.56, 14028.71, 10425.95, 53985.07, 6761.25, 0.00, 0.00, 0.00, 0.00
182, 40408.24, 17233.62, -4976.39, 14048.58, 10478.59, 54252.02, 6756.06, 0.00, 0.00, 0.00, 0.00
183, 40454.33, 17219.96, -5013.09, 14018.32, 10468.53, 54583.94, 6713.55, 0.00, 0.00, 0.00, 0.00
184, 40429.45, 17245.51, -4995.86, 13995.50, 10411.29, 54276.85, 6736.77, 0.00, 0.00, 0.00, 0.00
185, 40388.44, 17252.04, -4971.30, 14022.30, 10413.25, 54003.36, 6732.14, 0.00, 0.00, 0.00, 0.00
186, 40393.18, 17231.96, -4969.44, 14046.44, 10473.38, 54176.04, 6754.81, 0.00, 0.00, 0.00, 0.00
187, 40439.87, 17205.90, -5006.92, 14017.70, 10485.07, 54588.32, 6748.17, 0.00, 0.00, 0.00, 0.00
188, 40437.57, 17234.33, -4991.68, 14001.36, 10428.43, 54376.67, 6777.99, 0.00, 0.00, 0.00, 0.00
189, 40395.23, 17251.81, -4956.72, 14018.52, 10429.17, 54039.32, 6810.98, 0.00, 0.01, 0.96, 0.27
190, 40379.61, 17233.82, -4968.50, 14043.29, 10459.52, 54117.01, 6794.48, 0.00, 0.00, 0.00, 0.00
191, 40429.23, 17205.46, -5006.84, 14034.39, 10486.05, 54546.32, 6723.14, 0.00, 0.00, 0.00, 0.00
192, 40438.95, 17227.07, -5003.15, 14021.61, 10426.60, 54427.84, 6731.97, 0.00, 0.00, 0.00, 0.00
193, 40404.11, 17252.86, -4973.42, 14023.91, 10417.05, 54055.73, 6778.70, 0.00, 0.00, 0.00, 0.00
194, 40388.62, 17246.90, -4967.50, 14023.06, 10448.68, 54043.48, 6784.00, 0.00, 0.00, 0.00, 0.00
195, 40433.16, 17217.88, -5000.96, 14027.93, 10487.44, 54491.70, 6722.53, 0.00, 0.00, 0.00, 0.00
196, 40451.22, 17230.47, -5008.94, 13995.79, 10426.42, 54501.51, 6702.46, 0.00, 0.00, 0.00, 0.00
197, 40414.79, 17257.20, -4979.66, 14010.48, 10402.95, 54123.99, 6775.15, 0.00, 0.00, 0.00, 0.00
198, 40382.76, 17241.55, -4971.41, 14030.12, 10441.93, 54028.70, 6798.60, 0.00, 0.00, 0.00, 0.00
199, 40422.43, 17212.09, -4987.93, 14040.00, 10495.37, 54424.13, 6776.22, 0.00, 0.01, 0.95, 0.27
200, 40449.26, 17210.24, -5005.16, 14002.50, 10455.61, 54554.71, 6740.37, 0.00, 0.00, 0.00, 0.00
201, 40416.76, 17234.16, -4986.41, 13999.14, 10413.14, 54173.95, 6771.37, 0.00, 0.00, 0.00, 0.00
202, 40379.74, 17240.57, -4970.96, 14025.88, 10419.15, 54002.89, 6783.98, 0.00, 0.00, 0.00, 0.00
203, 40406.34, 17220.92, -4986.83, 14044.38, 10472.89, 54325.87, 6753.22, 0.00, 0.00, 0.00, 0.00
204, 40444.83, 17211.40, -5012.69, 14009.65, 10448.32, 54581.48, 6732.55, 0.00, 0.00, 0.00, 0.00
205, 40424.89, 17242.76, -4986.07, 14006.70, 10406.93, 54242.68, 6746.96, 0.00, 0.00, 0.00, 0.00
206, 40388.35, 17250.45, -4966.89, 14032.45, 10421.34, 54000.56, 6766.77, 0.00, 0.00, 0.00, 0.00
207, 40402.61, 17228.86, -4983.66, 14051.74, 10462.31, 54224.66, 6759.17, 0.00, 0.00, 0.00, 0.00
208, 40457.10, 17220.05, -5012.62, 14039.49, 10470.25, 54583.32, 6711.07, 0.00, 0.00, 0.00, 0.00
209, 40441.25, 17242.96, -4994.88, 14012.15, 10423.15, 54324.71, 6771.86, 0.00, 0.01, 0.97, 0.27
210, 40403.91, 17253.89, -4965.69, 14033.88, 10424.76, 54033.15, 6821.15, 0.00, 0.00, 0.00, 0.00
211, 40406.07, 17237.51, -4969.51, 14060.81, 10446.74, 54176.74, 6797.63, 0.00, 0.00, 0.00, 0.00
212, 40460.10, 17219.74, -5008.00, 14044.25, 10479.46, 54589.57, 6744.48, 0.00, 0.00, 0.00, 0.00
213, 40455.67, 17244.86, -4999.79, 14017.29, 10418.53, 54386.89, 6759.35, 0.00, 0.00, 0.00, 0.00
214, 40417.56, 17262.68, -4966.76, 14048.58, 10410.15, 54041.89, 6789.52, 0.00, 0.00, 0.00, 0.00
215, 40403.30, 17244.95, -4964.79, 14060.05, 10443.47, 54091.49, 6783.96, 0.00, 0.00, 0.00, 0.00
216, 40448.34, 17219.18, -5005.56, 14061.53, 10469.58, 54534.95, 6727.58, 0.00, 0.00, 0.00, 0.00
217, 40457.73, 17241.84, -5003.55, 13991.10, 10415.82, 54459.84, 6750.96, 0.00, 0.00, 0.00, 0.00
218, 40413.56, 17258.50, -4975.63, 14001.47, 10391.86, 54087.00, 6805.50, 0.00, 0.02, 0.96, 0.28
219, 40396.30, 17251.79, -4957.30, 14038.84, 10436.23, 54064.91, 6825.42, 0.00, 0.00, 0.00, 0.00
220, 40441.75, 17221.82, -4984.39, 14044.99, 10492.11, 54489.21, 6770.81, 0.00, 0.00, 0.00, 0.00
221, 40453.73, 17221.01, -5004.58, 14001.56, 10428.47, 54513.69, 6734.11, 0.00, 0.00, 0.00, 0.00
222, 40419.66, 17249.47, -4972.35, 14005.29, 10398.54, 54130.22, 6777.47, 0.00, 0.00, 0.00, 0.00
223, 40390.81, 17248.79, -4965.55, 14028.40, 10419.60, 54025.64, 6808.65, 0.00, 0.00, 0.00, 0.00
224, 40430.55, 17224.97, -4987.99, 14045.50, 10474.12, 54405.93, 6776.49, 0.00, 0.00, 0.00, 0.00
225, 40462.09, 17227.43, -5004.85, 14010.92, 10430.75, 54568.00, 6751.05, 0.00, 0.00, 0.00, 0.00
226, 40435.67, 17261.78, -4971.41, 14013.02, 10392.85, 54191.49, 6787.31, 0.00, 0.00, 0.00, 0.00
227, 40399.64, 17262.23, -4968.75, 14028.92, 10393.02, 53996.58, 6798.80, 0.00, 0.00, 0.00, 0.00
228, 40420.98, 17234.54, -4991.97, 14040.87, 10456.10, 54300.41, 6762.72, 0.00, 0.01, 0.95, 0.28
229, 40456.34, 17214.22, -5020.22, 14004.28, 10440.97, 54577.88, 6705.55, 0.00, 0.00, 0.00, 0.00
230, 40430.32, 17238.89, -4995.19, 13994.29, 10397.03, 54239.05, 6765.07, 0.00, 0.00, 0.00, 0.00
231, 40390.43, 17243.79, -4971.23, 14011.57, 10412.25, 53987.95, 6823.12, 0.00, 0.00, 0.00, 0.00
232, 40399.59, 17221.04, -4983.32, 14029.88, 10455.54, 54206.96, 6798.91, 0.00, 0.00, 0.00, 0.00
233, 40449.39, 17208.79, -5014.97, 14010.03, 10452.82, 54577.57, 6746.49, 0.00, 0.00, 0.00, 0.00
234, 40437.43, 17239.01, -4997.98, 13989.42, 10395.48, 54297.50, 6742.09, 0.00, 0.00, 0.00, 0.00
235, 40396.91, 17252.93, -4971.16, 14013.72, 10397.43, 53986.21, 6794.21, 0.00, 0.00, 0.00, 0.00
236, 40394.14, 17236.21, -4982.70, 14023.71, 10434.31, 54117.17, 6787.51, 0.00, 0.00, 0.00, 0.00
237, 40450.31, 17213.84, -5014.08, 14028.60, 10456.62, 54556.38, 6743.66, 0.00, 0.00, 0.00, 0.00
238, 40445.10, 17233.17, -5002.30, 13979.99, 10403.60, 54385.35, 6773.79, 0.00, 0.01, 0.95, 0.27
239, 40410.25, 17257.36, -4970.00, 13983.61, 10392.00, 54029.06, 6795.00, 0.00, 0.00, 0.00, 0.00
240, 40394.70, 17241.04, -4980.01, 14013.74, 10417.43, 54058.90, 6778.46, 0.00, 0.00, 0.00, 0.00
241, 40433.93, 17200.20, -5025.72, 14004.06, 10448.30, 54494.13, 6729.80, 0.00, 0.00, 0.00, 0.00
242, 40436.29, 17208.47, -5030.73, 13968.30, 10386.68, 54434.88, 6728.97, 0.00, 0.00, 0.00, 0.00
243, 40404.87, 17238.07, -4990.27, 13989.15, 10377.18, 54061.58, 6779.87, 0.00, 0.00, 0.00, 0.00
244, 40387.43, 17243.68, -4979.54, 14016.20, 10403.57, 54011.29, 6827.94, 0.00, 0.00, 0.00, 0.00
245, 40426.77, 17216.21, -5006.61, 14022.66, 10468.62, 54433.71, 6774.55, 0.00, 0.00, 0.00, 0.00
246, 40441.41, 17209.66, -5021.68, 13982.94, 10415.11, 54493.98, 6718.73, 0.00, 0.00, 0.00, 0.00
247, 40411.37, 17232.43, -5001.14, 13985.69, 10375.03, 54111.98, 6759.46, 0.00, 0.00, 0.00, 0.00
248, 40385.49, 17233.89, -4986.76, 14009.04, 10393.47, 53980.20, 6794.66, 0.00, 0.01, 0.96, 0.27
249, 40415.48, 17199.62, -5010.72, 14015.19, 10441.48, 54336.06, 6741.00, 0.00, 0.00, 0.00, 0.00
250, 40450.38, 17197.83, -5028.05, 13983.00, 10405.16, 54523.57, 6722.26, 0.00, 0.00, 0.00, 0.00
251, 40425.99, 17232.93, -4994.16, 13977.84, 10373.35, 54162.72, 6772.98, 0.00, 0.00, 0.00, 0.00
252, 40389.15, 17240.41, -4971.32, 13998.09, 10395.66, 53965.40, 6815.31, 0.00, 0.00, 0.00, 0.00
253, 40411.84, 17219.18, -4985.85, 14017.87, 10454.74, 54261.52, 6797.25, 0.00, 0.00, 0.00, 0.00
254, 40454.46, 17201.63, -5016.11, 13978.98, 10430.17, 54559.20, 6740.82, 0.00, 0.00, 0.00, 0.00
255, 40439.09, 17235.47, -4994.43, 13966.15, 10377.65, 54239.50, 6763.82, 0.00, 0.00, 0.00, 0.00
0, 40398.43, 17243.99, -4979.23, 13982.58, 10372.86, 53973.07, 6760.35, 0.00, 0.00, 0.00, 0.00
1, 40402.43, 17222.78, -4984.55, 14013.58, 10425.68, 54175.08, 6788.38, 0.00, 0.00, 0.00, 0.00
2, 40451.27, 17200.67, -5015.51, 14026.72, 10442.47, 54563.60, 6751.50, 0.00, 0.01, 0.96, 0.27
3, 40439.87, 17226.80, -5008.60, 14013.96, 10371.46, 54305.44, 6752.31, 0.00, 0.00, 0.00, 0.00
4, 40397.89, 17245.51, -4979.39, 13960.85, 10384.49, 53988.96, 6803.76, 0.00, 0.00, 0.00, 0.00
5, 40387.19, 17225.17, -4986.25, 13984.12, 10413.41, 54090.75, 6774.59, 0.00, 0.00, 0.00, 0.00
6, 40443.29, 17201.48, -5021.16, 13989.04, 10442.31, 54536.22, 6758.59, 0.00, 0.00, 0.00, 0.00
7, 40449.14, 17225.35, -5008.06, 13969.71, 10381.69, 54391.11, 6763.06, 0.00, 0.00, 0.00, 0.00
8, 40410.48, 17244.91, -4976.10, 13977.80, 10367.95, 54019.11, 6776.36, 0.00, 0.00, 0.00, 0.00
9, 40397.40, 17238.09, -4978.98, 14003.34, 10394.77, 54032.03, 6769.47, 0.00, 0.00, 0.00, 0.00
10, 40447.61, 17210.46, -5011.57, 14001.76, 10432.86, 54474.53, 6729.66, 0.00, 0.00, 0.00, 0.00
11, 40461.37, 17224.99, -5015.69, 13965.62, 10379.90, 54436.00, 6740.03, 0.00, 0.01, 0.96, 0.26
12, 40421.18, 17248.04, -4985.67, 13973.26, 10361.31, 54053.24, 6780.60, 0.00, 0.00, 0.00, 0.00
13, 40394.83, 17240.66, -4981.62, 13992.28, 10379.77, 53982.72, 6808.41, 0.00, 0.00, 0.00, 0.00
14, 40442.64, 17215.71, -5007.33, 14010.27, 10434.38, 54406.34, 6770.59, 0.00, 0.00, 0.00, 0.00
15, 40462.76, 17220.23, -5023.64, 13973.84, 10384.53, 54498.45, 6735.23, 0.00, 0.00, 0.00, 0.00
16, 40433.99, 17250.99, -4988.75, 13979.72, 10354.76, 54112.21, 6762.01, 0.00, 0.00, 0.00, 0.00
17, 40394.12, 17240.41, -4977.11, 13998.36, 10375.90, 53965.56, 6770.07, 0.00, 0.00, 0.00, 0.00
18, 40425.14, 17213.75, -5003.59, 14007.70, 10423.20, 54306.04, 6749.31, 0.00, 0.00, 0.00, 0.00
19, 40459.70, 17215.18, -5030.44, 13981.37, 10390.41, 54547.48, 6699.11, 0.00, 0.00, 0.00, 0.00
20, 40428.22, 17240.32, -4998.81, 13977.84, 10365.60, 54196.03, 6760.22, 0.00, 0.00, 0.00, 0.00
21, 40398.39, 17246.85, -4972.21, 14002.00, 10381.71, 53977.67, 6813.44, 0.00, 0.02, 0.96, 0.26
22, 40421.09, 17227.23, -4976.86, 14024.00, 10443.72, 54243.77, 6799.49, 0.00, 0.00, 0.00, 0.00
23, 40466.31, 17213.39, -5007.60, 14017.70, 10431.13, 54560.20, 6736.28, 0.00, 0.00, 0.00, 0.00
24, 40443.76, 17234.60, -4997.58, 13980.66, 10375.25, 54254.48, 6764.31, 0.00, 0.00, 0.00, 0.00
25, 40402.63, 17243.12, -4972.53, 13978.20, 10376.60, 53973.29, 6795.42, 0.00, 0.00, 0.00, 0.00
26, 40404.18, 17220.39, -4984.06, 14004.80, 10416.27, 54142.65, 6778.12, 0.00, 0.00, 0.00, 0.00
27, 40461.89, 17204.72, -5010.97, 13993.96, 10432.92, 54543.11, 6731.54, 0.00, 0.00, 0.00, 0.00
28, 40447.40, 17220.57, -5000.46, 13970.73, 10373.73, 54326.00, 6753.83, 0.00, 0.00, 0.00, 0.00
29, 40403.84, 17232.70, -4974.02, 13983.27, 10369.40, 53993.97, 6784.94, 0.00, 0.00, 0.00, 0.00
30, 40392.08, 17215.94, -4977.11, 14007.26, 10409.07, 54081.07, 6791.22, 0.00, 0.00, 0.00, 0.00
31, 40444.23, 17190.55, -5011.53, 14002.21, 10437.33, 54526.50, 6738.94, 0.00, 0.02, 0.96, 0.27
32, 40452.83, 17213.17, -5006.37, 13974.82, 10372.48, 54403.99, 6732.39, 0.00, 0.00, 0.00, 0.00
33, 40411.42, 17233.44, -4974.65, 13987.01, 10370.99, 54038.80, 6803.85, 0.00, 0.00, 0.00, 0.00
34, 40385.78, 17223.56, -4971.90, 14004.95, 10405.09, 54028.32, 6798.98, 0.00, 0.00, 0.00, 0.00
35, 40432.36, 17195.78, -5007.22, 14003.68, 10441.64, 54459.42, 6749.29, 0.00, 0.00, 0.00, 0.00
36, 40450.09, 17202.95, -5020.54, 13972.25, 10381.16, 54464.63, 6730.27, 0.00, 0.00, 0.00, 0.00
37, 40415.06, 17224.54, -4988.66, 13976.68, 10348.28, 54077.00, 6773.45, 0.00, 0.00, 0.00, 0.00
38, 40384.86, 17220.63, -4971.52, 13997.73, 10394.66, 53990.21, 6802.60, 0.00, 0.00, 0.00, 0.00
39, 40422.55, 17192.11, -5002.92, 14005.83, 10442.56, 54391.80, 6769.87, 0.00, 0.00, 0.00, 0.00
40, 40453.73, 17199.42, -5017.92, 13974.69, 10398.84, 54518.34, 6748.80, 0.00, 0.00, 0.00, 0.00
41, 40420.31, 17226.13, -4985.27, 13974.49, 10369.24, 54140.01, 6770.41, 0.00, 0.02, 0.95, 0.28
42, 40382.83, 17224.77, -4971.52, 13990.47, 10381.38, 53966.68, 6771.93, 0.00, 0.00, 0.00, 0.00
43, 40411.73, 17198.08, -4989.74, 14005.20, 10436.72, 54300.72, 6766.97, 0.00, 0.00, 0.00, 0.00
44, 40451.49, 17187.91, -5013.76, 13970.91, 10415.78, 54547.69, 6728.55, 0.00, 0.00, 0.00, 0.00
45, 40426.05, 17216.95, -4992.15, 13963.94, 10370.14, 54193.50, 6754.65, 0.00, 0.00, 0.00, 0.00
46, 40394.50, 17227.83, -4967.25, 14001.83, 10381.80, 53963.34, 6801.90, 0.00, 0.00, 0.00, 0.00
47, 40407.80, 17206.33, -4981.18, 14008.46, 10431.58, 54209.91, 6798.46, 0.00, 0.00, 0.00, 0.00
48, 40452.01, 17190.84, -5015.44, 13976.79, 10425.90, 54554.59, 6747.10, 0.00, 0.00, 0.00, 0.00
49, 40437.41, 17217.19, -4994.54, 13963.83, 10376.82, 54272.56, 6760.80, 0.00, 0.00, 0.00, 0.00
50, 40395.46, 17231.18, -4966.49, 13998.23, 10378.99, 53982.97, 6789.63, 0.00, 0.02, 0.95, 0.27
51, 40398.14, 17218.58, -4973.37, 14032.07, 10421.37, 54132.14, 6777.90, 0.00, 0.00, 0.00, 0.00
52, 40454.71, 17199.20, -5005.87, 13988.30, 10437.82, 54547.20, 6729.84, 0.00, 0.00, 0.00, 0.00
53, 40458.18, 17224.07, -4994.09, 13975.23, 10380.22, 54353.92, 6762.12, 0.00, 0.00, 0.00, 0.00
54, 40420.60, 17243.97, -4963.92, 13997.42, 10379.72, 54019.14, 6806.08, 0.00, 0.00, 0.00, 0.00
55, 40402.01, 17226.69, -4970.76, 14019.44, 10413.01, 54077.45, 6786.24, 0.00, 0.00, 0.00, 0.00
56, 40456.07, 17201.68, -4998.74, 14012.80, 10449.24, 54514.34, 6745.62, 0.00, 0.00, 0.00, 0.00
57, 40465.73, 17218.02, -4994.32, 13978.96, 10390.83, 54406.31, 6742.34, 0.00, 0.00, 0.00, 0.00
58, 40428.70, 17237.96, -4965.86, 13981.31, 10355.74, 54023.65, 6756.62, 0.00, 0.00, 0.00, 0.00
59, 40410.97, 17233.04, -4954.71, 14004.84, 10404.80, 54013.23, 6781.83, 0.00, 0.00, 0.00, 0.00
60, 40461.17, 17212.36, -4977.40, 14021.67, 10467.41, 54471.47, 6765.96, 0.00, 0.02, 0.95, 0.28
61, 40477.11, 17217.73, -4989.92, 13983.47, 10408.63, 54492.05, 6750.18, 0.00, 0.00, 0.00, 0.00
62, 40443.67, 17248.42, -4951.07, 13991.03, 10378.41, 54100.65, 6797.34, 0.00, 0.00, 0.00, 0.00
63, 40413.70, 17248.28, -4939.44, 14021.43, 10405.61, 54005.30, 6832.19, 0.00, 0.00, 0.00, 0.00
64, 40452.19, 17217.08, -4968.61, 14033.77, 10457.24, 54393.68, 6782.06, 0.00, 0.00, 0.00, 0.00
65, 40477.02, 17212.16, -4996.98, 13990.16, 10411.29, 54535.50, 6736.75, 0.00, 0.00, 0.00, 0.00
66, 40447.80, 17240.37, -4962.96, 13990.72, 10380.66, 54171.35, 6794.77, 0.00, 0.00, 0.00, 0.00
67, 40418.48, 17246.83, -4940.03, 14018.99, 10401.18, 53995.58, 6820.77, 0.00, 0.00, 0.00, 0.00
68, 40441.08, 17219.74, -4964.75, 14037.14, 10443.41, 54308.23, 6765.60, 0.00, 0.00, 0.00, 0.00
69, 40482.92, 17210.64, -4988.95, 14004.93, 10422.37, 54573.75, 6745.06, 0.00, 0.00, 0.00, 0.00
70, 40457.01, 17235.05, -4968.14, 13993.35, 10378.12, 54234.98, 6788.43, 0.00, 0.01, 0.95, 0.27
71, 40418.01, 17242.49, -4948.74, 14020.62, 10394.32, 53987.98, 6808.50, 0.00, 0.00, 0.00, 0.00
72, 40426.84, 17219.65, -4963.83, 14041.99, 10439.56, 54207.45, 6790.26, 0.00, 0.00, 0.00, 0.00
73, 40477.02, 17207.74, -4994.65, 14023.82, 10438.67, 54581.71, 6758.74, 0.00, 0.00, 0.00, 0.00
74, 40459.00, 17235.72, -4979.83, 13982.27, 10378.61, 54312.57, 6775.93, 0.00, 0.00, 0.00, 0.00
75, 40418.08, 17249.64, -4952.36, 14007.64, 10394.48, 54008.12, 6784.38, 0.00, 0.00, 0.00, 0.00
76, 40415.28, 17230.42, -4963.32, 14032.60, 10418.82, 54139.86, 6779.93, 0.00, 0.00, 0.00, 0.00
77, 40472.77, 17208.25, -4993.85, 14027.42, 10444.72, 54580.07, 6756.33, 0.00, 0.00, 0.00, 0.00
78, 40468.77, 17230.36, -4984.10, 14000.01, 10385.47, 54400.81, 6768.49, 0.00, 0.00, 0.00, 0.00
79, 40433.01, 17256.57, -4948.77, 14019.15, 10384.13, 54054.43, 6816.23, 0.00, 0.00, 0.00, 0.00
80, 40421.68, 17247.81, -4947.60, 14044.18, 10418.84, 54099.89, 6798.39, 0.00, 0.01, 0.95, 0.27
81, 40467.72, 17213.90, -4981.02, 14038.33, 10449.62, 54538.90, 6748.95, 0.00, 0.00, 0.00, 0.00
82, 40476.39, 17225.17, -4983.01, 14009.58, 10393.70, 54469.32, 6741.80, 0.00, 0.00, 0.00, 0.00
83, 40441.43, 17253.45, -4949.61, 14022.21, 10378.25, 54108.50, 6785.61, 0.00, 0.00, 0.00, 0.00
84, 40421.03, 17251.66, -4941.32, 14041.72, 10406.61, 54063.30, 6813.12, 0.00, 0.00, 0.00, 0.00
85, 40462.51, 17218.40, -4980.28, 14047.11, 10452.84, 54479.31, 6788.22, 0.00, 0.00, 0.00, 0.00
86, 40487.23, 17225.06, -4984.55, 14017.85, 10406.88, 54533.29, 6776.42, 0.00, 0.00, 0.00, 0.00
87, 40453.68, 17254.18, -4949.91, 14023.46, 10386.21, 54150.32, 6808.05, 0.00, 0.00, 0.00, 0.00
88, 40418.19, 17246.40, -4944.14, 14037.61, 10399.57, 54017.57, 6783.89, 0.00, 0.00, 0.00, 0.00
89, 40453.04, 17217.95, -4968.77, 14048.03, 10448.70, 54392.70, 6771.13, 0.00, 0.00, 0.00, 0.00
90, 40489.58, 17220.74, -4984.71, 14013.94, 10421.70, 54581.93, 6788.16, 0.00, 0.02, 0.96, 0.27
91, 40460.46, 17246.49, -4957.59, 14008.49, 10384.84, 54210.20, 6805.68, 0.00, 0.00, 0.00, 0.00
92, 40422.52, 17247.37, -4939.47, 14033.83, 10404.02, 54007.42, 6797.63, 0.00, 0.00, 0.00, 0.00
93, 40447.22, 17226.62, -4954.04, 14076.30, 10447.23, 54320.30, 6784.11, 0.00, 0.00, 0.00, 0.00
94, 40491.14, 17216.77, -4986.16, 14039.40, 10445.13, 54614.30, 6783.37, 0.00, 0.00, 0.00, 0.00
95, 40469.06, 17241.53, -4964.12, 14009.76, 10388.75, 54283.69, 6803.07, 0.00, 0.00, 0.00, 0.00
96, 40435.55, 17255.61, -4938.17, 14033.88, 10397.76, 54021.24, 6814.73, 0.00, 0.00, 0.00, 0.00
97, 40446.75, 17239.63, -4946.49, 14056.52, 10453.87, 54222.87, 6792.27, 0.00, 0.00, 0.00, 0.00
98, 40494.81, 17222.29, -4982.36, 14050.60, 10456.57, 54617.78, 6760.91, 0.00, 0.00, 0.00, 0.00
99, 40495.48, 17256.93, -4961.26, 14040.27, 10401.21, 54364.83, 6779.35, 0.00, 0.02, 0.95, 0.28
100, 40453.93, 17269.38, -4935.69, 14027.71, 10397.61, 54042.85, 6807.96, 0.00, 0.00, 0.00, 0.00
101, 40440.81, 17245.73, -4948.70, 14055.18, 10427.02, 54153.89, 6774.66, 0.00, 0.00, 0.00, 0.00
102, 40489.65, 17218.08, -4985.15, 14042.73, 10446.80, 54578.84, 6744.37, 0.00, 0.00, 0.00, 0.00
103, 40495.08, 17244.46, -4970.54, 14018.63, 10398.75, 54420.64, 6774.81, 0.00, 0.00, 0.00, 0.00
104, 40464.88, 17276.98, -4932.92, 14043.89, 10397.27, 54080.45, 6819.94, 0.00, 0.00, 0.00, 0.00
105, 40451.96, 17266.37, -4930.66, 14065.53, 10425.21, 54101.86, 6814.55, 0.00, 0.00, 0.00, 0.00
106, 40501.54, 17236.37, -4966.89, 14061.33, 10459.90, 54540.89, 6738.69, 0.00, 0.00, 0.00, 0.00
107, 40520.27, 17258.65, -4964.61, 14035.33, 10414.01, 54503.57, 6782.66, 0.00, 0.00, 0.00, 0.00
108, 40483.46, 17281.65, -4930.88, 14048.07, 10399.75, 54138.32, 6836.46, 0.00, 0.00, 0.00, 0.00
109, 40451.20, 17267.15, -4931.78, 14064.97, 10412.74, 54074.77, 6822.78, 0.00, 0.02, 0.96, 0.27
110, 40488.64, 17233.40, -4958.04, 14068.95, 10483.88, 54480.43, 6751.97, 0.00, 0.00, 0.00, 0.00
111, 40512.25, 17238.02, -4969.49, 14036.38, 10430.08, 54561.86, 6767.37, 0.00, 0.00, 0.00, 0.00
112, 40483.93, 17268.31, -4935.09, 14053.14, 10401.18, 54200.65, 6826.58, 0.00, 0.00, 0.00, 0.00
113, 40451.14, 17265.58, -4920.94, 14080.66, 10414.93, 54060.44, 6827.32, 0.00, 0.00, 0.00, 0.00
114, 40481.67, 17235.05, -4945.70, 14093.09, 10462.69, 54416.62, 6768.00, 0.00, 0.00, 0.00, 0.00
115, 40520.45, 17232.59, -4959.34, 14066.87, 10433.75, 54632.80, 6746.61, 0.00, 0.00, 0.00, 0.00
116, 40495.30, 17262.38, -4927.96, 14072.84, 10387.15, 54279.38, 6781.81, 0.00, 0.00, 0.00, 0.00
117, 40456.16, 17262.97, -4915.19, 14088.88, 10384.35, 54071.57, 6809.70, 0.00, 0.00, 0.00, 0.00
118, 40463.77, 17227.94, -4931.82, 14098.99, 10432.01, 54330.36, 6766.27, 0.00, 0.00, 0.00, 0.00
119, 40492.69, 17198.30, -4962.31, 14065.80, 10430.96, 54638.70, 6705.79, 0.00, 0.02, 0.95, 0.27
120, 40462.00, 17212.81, -4941.86, 14043.15, 10385.94, 54328.35, 6746.45, 0.00, 0.00, 0.00, 0.00
121, 40415.44, 17210.69, -4918.10, 14060.39, 10387.19, 54063.57, 6774.03, 0.00, 0.00, 0.00, 0.00
122, 40411.06, 17177.16, -4933.79, 14079.03, 10413.21, 54249.09, 6783.62, 0.00, 0.00, 0.00, 0.00
123, 40456.66, 17152.08, -4966.20, 14058.71, 10443.92, 54638.91, 6772.53, 0.00, 0.00, 0.00, 0.00
124, 40435.91, 17165.11, -4948.32, 14050.57, 10377.42, 54409.82, 6769.69, 0.00, 0.00, 0.00, 0.00
125, 40393.69, 17173.13, -4921.16, 14027.78, 10367.25, 54077.09, 6785.79, 0.00, 0.00, 0.00, 0.00
126, 40386.65, 17155.32, -4936.96, 14044.99, 10408.80, 54170.93, 6770.03, 0.00, 0.00, 0.00, 0.00
127, 40443.09, 17133.82, -4968.55, 14077.02, 10445.77, 54613.42, 6744.19, 0.00, 0.00, 0.00, 0.00
128, 40442.75, 17148.77, -4962.18, 14048.56, 10389.18, 54481.50, 6754.81, 0.00, 0.00, 0.00, 0.00
129, 40402.12, 17166.29, -4932.05, 14011.95, 10377.98, 54122.87, 6804.25, 0.00, 0.02, 0.95, 0.27
130, 40392.08, 17161.29, -4925.34, 14040.34, 10406.14, 54128.01, 6790.77, 0.00, 0.00, 0.00, 0.00
131, 40444.41, 17134.02, -4952.83, 14046.64, 10451.88, 54567.11, 6736.61, 0.00, 0.00, 0.00, 0.00
132, 40461.21, 17154.45, -4963.81, 14022.72, 10401.85, 54552.54, 6751.08, 0.00, 0.00, 0.00, 0.00
133, 40428.56, 17184.27, -4932.05, 14030.28, 10374.92, 54179.51, 6786.30, 0.00, 0.00, 0.00, 0.00
134, 40411.39, 17191.46, -4909.83, 14064.70, 10402.30, 54120.72, 6795.76, 0.00, 0.00, 0.00, 0.00
135, 40452.63, 17172.69, -4951.34, 14079.32, 10446.94, 54521.85, 6773.61, 0.00, 0.00, 0.00, 0.00
136, 40492.26, 17188.45, -4974.63, 14043.51, 10395.08, 54631.68, 6756.44, 0.00, 0.00, 0.00, 0.00
137, 40464.14, 17222.42, -4938.55, 14046.44, 10379.75, 54265.27, 6802.06, 0.00, 0.00, 0.00, 0.00
138, 40438.46, 17231.16, -4923.35, 14072.84, 10389.83, 54113.62, 6793.99, 0.00, 0.01, 0.95, 0.28
139, 40485.78, 17220.25, -4934.06, 14102.34, 10467.72, 54456.63, 6792.34, 0.00, 0.00, 0.00, 0.00
140, 40532.12, 17222.26, -4952.95, 14069.24, 10443.54, 54694.29, 6781.99, 0.00, 0.00, 0.00, 0.00
141, 40511.26, 17256.55, -4922.39, 14065.97, 10389.38, 54344.67, 6785.79, 0.00, 0.00, 0.00, 0.00
142, 40477.20, 17266.43, -4907.41, 14098.76, 10401.63, 54120.46, 6808.03, 0.00, 0.00, 0.00, 0.00
143, 40495.53, 17246.70, -4927.87, 14104.04, 10443.43, 54384.41, 6800.23, 0.00, 0.00, 0.00, 0.00
144, 40547.32, 17242.49, -4954.73, 14070.78, 10437.12, 54733.74, 6745.71, 0.00, 0.00, 0.00, 0.00
145, 40537.05, 17274.46, -4932.31, 14065.44, 10391.73, 54443.13, 6788.78, 0.00, 0.00, 0.00, 0.00
146, 40506.50, 17290.10, -4904.20, 14092.13, 10398.34, 54157.00, 6843.19, 0.00, 0.00, 0.00, 0.00
147, 40508.42, 17275.24, -4913.54, 14112.20, 10439.43, 54313.82, 6809.68, 0.00, 0.00, 0.00, 0.00
148, 40569.04, 17256.96, -4942.31, 14095.79, 10464.17, 54718.75, 6754.23, 0.00, 0.02, 0.95, 0.29
149, 40571.95, 17288.69, -4926.77, 14075.21, 10410.53, 54506.34, 6770.28, 0.00, 0.00, 0.00, 0.00
150, 40533.30, 17306.42, -4899.75, 14092.08, 10400.07, 54177.72, 6799.15, 0.00, 0.00, 0.00, 0.00
151, 40522.28, 17288.72, -4906.92, 14114.54, 10434.15, 54250.10, 6803.22, 0.00, 0.00, 0.00, 0.00
152, 40569.78, 17262.34, -4945.10, 14110.01, 10460.91, 54692.28, 6745.22, 0.00, 0.00, 0.00, 0.00
153, 40578.38, 17284.96, -4942.42, 14082.63, 10399.71, 54589.82, 6768.35, 0.00, 0.00, 0.00, 0.00
154, 40545.59, 17311.94, -4911.44, 14098.94, 10388.49, 54230.49, 6808.32, 0.00, 0.00, 0.00, 0.00
155, 40526.41, 17302.73, -4910.45, 14122.19, 10400.80, 54216.86, 6816.28, 0.00, 0.00, 0.00, 0.00
156, 40572.48, 17272.53, -4939.22, 14124.80, 10466.54, 54648.52, 6757.29, 0.00, 0.00, 0.00, 0.00
157, 40601.34, 17288.16, -4933.95, 14092.86, 10438.87, 54683.81, 6788.29, 0.00, 0.00, 0.00, 0.00
158, 40579.43, 17329.11, -4895.28, 14095.72, 10422.08, 54297.75, 6818.20, 0.00, 0.02, 0.96, 0.29
159, 40553.08, 17329.44, -4889.44, 14117.05, 10433.41, 54204.30, 6820.46, 0.00, 0.00, 0.00, 0.00
160, 40594.63, 17305.99, -4916.60, 14129.97, 10474.54, 54596.97, 6770.81, 0.00, 0.00, 0.00, 0.00
161, 40623.49, 17304.72, -4935.73, 14085.35, 10422.77, 54735.04, 6738.45, 0.00, 0.00, 0.00, 0.00
162, 40593.25, 17329.33, -4902.65, 14077.96, 10385.16, 54354.46, 6753.89, 0.00, 0.00, 0.00, 0.00
163, 40558.31, 17330.45, -4879.99, 14098.94, 10406.37, 54179.00, 6784.51, 0.00, 0.00, 0.00, 0.00
164, 40583.84, 17309.64, -4902.90, 14126.70, 10465.85, 54517.24, 6797.81, 0.00, 0.00, 0.00, 0.00
165, 40627.09, 17309.37, -4934.17, 14104.40, 10452.46, 54782.65, 6794.57, 0.00, 0.00, 0.00, 0.00
166, 40613.63, 17346.14, -4900.40, 14088.33, 10402.61, 54447.30, 6807.47, 0.00, 0.00, 0.00, 0.00
167, 40576.13, 17350.18, -4886.20, 14106.05, 10399.10, 54203.43, 6805.64, 0.00, 0.00, 0.00, 0.00
168, 40588.02, 17324.01, -4900.11, 14123.04, 10451.14, 54426.56, 6796.65, 0.00, 0.02, 0.96, 0.28
169, 40639.58, 17314.38, -4927.46, 14107.75, 10463.97, 54790.27, 6772.94, 0.00, 0.00, 0.00, 0.00
170, 40625.10, 17344.19, -4909.43, 14095.64, 10412.63, 54526.90, 6774.95, 0.00, 0.00, 0.00, 0.00
171, 40584.26, 17359.95, -4883.74, 14128.27, 10403.40, 54230.79, 6790.82, 0.00, 0.00, 0.00, 0.00
172, 40579.88, 17340.73, -4890.32, 14153.97, 10441.39, 54375.45, 6783.37, 0.00, 0.00, 0.00, 0.00
173, 40631.85, 17318.00, -4921.05, 14110.34, 10467.23, 54794.14, 6766.95, 0.00, 0.00, 0.00, 0.00
174, 40632.30, 17341.24, -4911.82, 14091.41, 10403.82, 54601.91, 6803.16, 0.00, 0.00, 0.00, 0.00
175, 40590.16, 17357.18, -4881.00, 14106.66, 10420.23, 54258.86, 6822.67, 0.00, 0.00, 0.00, 0.00
176, 40573.82, 17342.70, -4888.35, 14128.63, 10443.83, 54318.47, 6802.60, 0.00, 0.00, 0.00, 0.00
177, 40631.29, 17320.41, -4924.11, 14128.40, 10474.72, 54768.84, 6751.21, 0.00, 0.00, 0.00, 0.00
178, 40643.43, 17340.04, -4921.54, 14090.63, 10421.63, 54674.40, 6793.81, 0.00, 0.02, 0.96, 0.28
179, 40612.07, 17367.44, -4889.24, 14105.47, 10409.23, 54319.41, 6833.04, 0.00, 0.00, 0.00, 0.00
180, 40594.75, 17367.48, -4881.40, 14127.89, 10442.20, 54285.59, 6830.20, 0.00, 0.00, 0.00, 0.00
181, 40635.94, 17335.41, -4915.01, 14125.39, 10483.55, 54704.82, 6774.10, 0.00, 0.00, 0.00, 0.00
182, 40654.11, 17338.02, -4928.05, 14083.25, 10426.04, 54740.49, 6728.77, 0.00, 0.00, 0.00, 0.00
183, 40623.60, 17363.24, -4891.61, 14088.13, 10400.58, 54353.14, 6787.58, 0.00, 0.00, 0.00, 0.00
184, 40594.32, 17361.49, -4877.26, 14108.98, 10421.19, 54232.84, 6822.58, 0.00, 0.00, 0.00, 0.00
185, 40625.70, 17333.60, -4899.66, 14122.32, 10481.36, 54609.80, 6776.27, 0.00, 0.00, 0.00, 0.00
186, 40656.64, 17326.56, -4924.49, 14079.01, 10437.73, 54771.23, 6768.58, 0.00, 0.00, 0.00, 0.00
187, 40632.77, 17355.88, -4895.05, 14072.28, 10393.63, 54402.33, 6810.67, 0.00, 0.01, 0.95, 0.28
188, 40606.88, 17371.51, -4874.58, 14104.08, 10408.07, 54229.78, 6818.62, 0.00, 0.00, 0.00, 0.00
189, 40629.34, 17353.63, -4895.97, 14133.14, 10477.65, 54544.40, 6808.81, 0.00, 0.00, 0.00, 0.00
190, 40663.75, 17340.64, -4930.19, 14100.55, 10456.62, 54826.73, 6759.75, 0.00, 0.00, 0.00, 0.00
191, 40646.67, 17374.97, -4904.13, 14089.96, 10400.58, 54492.19, 6782.64, 0.00, 0.00, 0.00, 0.00
192, 40613.16, 17388.45, -4876.14, 14119.33, 10419.96, 54248.80, 6845.49, 0.00, 0.00, 0.00, 0.00
193, 40626.06, 17373.99, -4888.77, 14144.56, 10469.18, 54468.81, 6817.86, 0.00, 0.00, 0.00, 0.00
194, 40681.47, 17360.85, -4918.52, 14130.21, 10474.90, 54844.03, 6766.05, 0.00, 0.00, 0.00, 0.00
195, 40669.67, 17383.40, -4903.95, 14098.70, 10412.36, 54577.21, 6764.22, 0.00, 0.00, 0.00, 0.00
196, 40627.78, 17392.29, -4885.73, 14128.13, 10392.69, 54271.46, 6813.12, 0.00, 0.00, 0.00, 0.00
197, 40624.63, 17373.32, -4887.70, 14131.51, 10460.46, 54391.38, 6819.36, 0.00, 0.01, 0.96, 0.28
198, 40686.72, 17354.92, -4916.62, 14109.94, 10485.83, 54822.86, 6769.16, 0.00, 0.00, 0.00, 0.00
199, 40684.71, 17374.08, -4909.60, 14084.97, 10430.13, 54652.11, 6790.19, 0.00, 0.00, 0.00, 0.00
200, 40643.61, 17394.04, -4877.66, 14098.38, 10419.18, 54300.81, 6820.68, 0.00, 0.00, 0.00, 0.00
201, 40633.26, 17385.77, -4884.79, 14121.59, 10443.58, 54345.23, 6792.54, 0.00, 0.00, 0.00, 0.00
202, 40685.85, 17360.78, -4914.77, 14121.52, 10489.63, 54782.13, 6771.04, 0.00, 0.00, 0.00, 0.00
203, 40697.43, 17374.64, -4912.15, 14086.61, 10436.70, 54727.21, 6773.54, 0.00, 0.00, 0.00, 0.00
204, 40668.66, 17402.60, -4880.21, 14098.05, 10426.10, 54345.61, 6821.55, 0.00, 0.00, 0.00, 0.00
205, 40643.20, 17393.14, -4878.40, 14118.68, 10448.05, 54291.87, 6813.44, 0.00, 0.00, 0.00, 0.00
206, 40684.18, 17366.61, -4909.43, 14124.78, 10494.84, 54702.27, 6761.22, 0.00, 0.00, 0.00, 0.00
207, 40709.99, 17380.29, -4919.08, 14093.31, 10448.86, 54764.50, 6737.89, 0.00, 0.02, 0.96, 0.29
208, 40679.97, 17408.37, -4885.62, 14098.94, 10421.37, 54389.79, 6816.37, 0.00, 0.00, 0.00, 0.00
209, 40658.89, 17414.47, -4868.59, 14134.21, 10440.57, 54276.98, 6836.37, 0.00, 0.00, 0.00, 0.00
210, 40689.85, 17383.24, -4905.07, 14147.63, 10480.35, 54635.33, 6753.98, 0.00, 0.00, 0.00, 0.00
211, 40723.85, 17374.66, -4927.26, 14106.95, 10452.70, 54823.64, 6773.45, 0.00, 0.00, 0.00, 0.00
212, 40699.46, 17406.40, -4892.17, 14104.04, 10417.99, 54466.73, 6811.00, 0.00, 0.00, 0.00, 0.00
213, 40666.54, 17414.04, -4871.47, 14132.45, 10440.32, 54266.39, 6829.46, 0.00, 0.00, 0.00, 0.00
214, 40686.68, 17387.40, -4891.90, 14154.96, 10498.48, 54556.56, 6815.25, 0.00, 0.00, 0.00, 0.00
215, 40730.78, 17379.20, -4925.74, 14138.42, 10478.81, 54862.33, 6780.69, 0.00, 0.00, 0.00, 0.00
216, 40713.50, 17412.52, -4899.86, 14098.88, 10432.30, 54544.38, 6804.70, 0.00, 0.00, 0.00, 0.00
217, 40675.55, 17421.13, -4877.11, 14117.94, 10441.97, 54282.13, 6846.29, 0.00, 0.02, 0.96, 0.28
218, 40687.41, 17403.43, -4880.68, 14143.18, 10499.89, 54471.31, 6826.92, 0.00, 0.00, 0.00, 0.00
219, 40738.24, 17382.19, -4913.92, 14131.69, 10512.87, 54852.63, 6760.58, 0.00, 0.00, 0.00, 0.00
220, 40727.96, 17402.55, -4906.41, 14096.19, 10446.07, 54606.79, 6765.83, 0.00, 0.00, 0.00, 0.00
221, 40695.21, 17420.23, -4875.12, 14112.85, 10444.77, 54289.03, 6822.04, 0.00, 0.00, 0.00, 0.00
222, 40689.70, 17404.50, -4881.17, 14134.37, 10479.28, 54388.23, 6801.99, 0.00, 0.00, 0.00, 0.00
223, 40742.16, 17382.62, -4917.56, 14126.21, 10510.71, 54811.71, 6767.46, 0.00, 0.00, 0.00, 0.00
224, 40742.63, 17403.56, -4911.89, 14095.86, 10455.12, 54679.59, 6791.20, 0.00, 0.00, 0.00, 0.00
225, 40706.17, 17424.66, -4878.71, 14111.84, 10440.72, 54337.40, 6821.82, 0.00, 0.00, 0.00, 0.00
226, 40688.38, 17412.14, -4875.52, 14136.81, 10472.13, 54347.66, 6810.08, 0.00, 0.01, 0.95, 0.28
227, 40731.74, 17379.02, -4914.23, 14135.09, 10513.86, 54782.09, 6761.94, 0.00, 0.00, 0.00, 0.00
228, 40743.36, 17392.63, -4918.12, 14101.07, 10462.47, 54752.86, 6749.65, 0.00, 0.00, 0.00, 0.00
229, 40711.02, 17422.63, -4882.65, 14108.85, 10446.80, 54370.21, 6799.60, 0.00, 0.00, 0.00, 0.00
230, 40690.48, 17419.45, -4871.81, 14130.01, 10474.12, 54299.31, 6817.82, 0.00, 0.00, 0.00, 0.00
231, 40740.12, 17395.71, -4900.64, 14145.64, 10524.90, 54718.10, 6769.00, 0.00, 0.00, 0.00, 0.00
232, 40766.65, 17399.25, -4925.94, 14110.86, 10473.96, 54812.60, 6731.63, 0.00, 0.00, 0.00, 0.00
233, 40739.76, 17431.39, -4888.53, 14119.89, 10450.76, 54441.81, 6838.78, 0.00, 0.00, 0.00, 0.00
234, 40705.97, 17429.55, -4873.04, 14140.50, 10473.87, 54291.11, 6852.24, 0.00, 0.00, 0.00, 0.00
235, 40730.87, 17394.19, -4899.32, 14148.32, 10526.78, 54630.37, 6790.21, 0.00, 0.00, 0.00, 0.00
236, 40771.14, 17390.26, -4921.21, 14116.85, 10501.99, 54849.88, 6773.32, 0.00, 0.02, 0.96, 0.27
237, 40743.90, 17422.92, -4890.61, 14116.49, 10463.61, 54502.80, 6829.44, 0.00, 0.00, 0.00, 0.00
238, 40703.55, 17431.81, -4865.39, 14138.89, 10483.57, 54285.43, 6842.54, 0.00, 0.00, 0.00, 0.00
239, 40716.68, 17403.94, -4878.07, 14156.07, 10541.44, 54545.77, 6802.37, 0.00, 0.00, 0.00, 0.00
240, 40765.29, 17386.48, -4911.15, 14150.17, 10533.75, 54873.87, 6781.88, 0.00, 0.00, 0.00, 0.00
241, 40750.43, 17413.06, -4891.28, 14110.34, 10478.74, 54572.72, 6799.38, 0.00, 0.00, 0.00, 0.00
242, 40703.29, 17422.54, -4867.87, 14120.67, 10484.80, 54299.11, 6827.97, 0.00, 0.00, 0.00, 0.00
244, 40752.44, 17378.66, -4921.94, 14128.83, 10540.43, 54869.33, 6756.95, 0.00, 0.00, 0.00, 0.00
245, 40747.52, 17403.38, -4908.78, 14113.29, 10478.70, 54648.07, 6777.47, 0.00, 0.00, 0.00, 0.00
246, 40708.36, 17418.13, -4883.01, 14128.56, 10468.53, 54322.27, 6801.70, 0.00, 0.01, 0.96, 0.28
247, 40703.60, 17404.39, -4881.82, 14142.53, 10513.37, 54396.84, 6827.90, 0.00, 0.00, 0.00, 0.00
248, 40760.64, 17378.99, -4911.62, 14141.19, 10548.82, 54834.80, 6775.28, 0.00, 0.00, 0.00, 0.00
249, 40766.85, 17397.68, -4906.74, 14113.18, 10494.05, 54715.19, 6799.94, 0.00, 0.00, 0.00, 0.00
250, 40737.77, 17426.67, -4870.82, 14134.77, 10492.69, 54360.65, 6851.75, 0.00, 0.00, 0.00, 0.00
251, 40719.76, 17418.76, -4866.82, 14159.38, 10518.64, 54355.44, 6801.14, 0.00, 0.00, 0.00, 0.00
252, 40754.25, 17382.48, -4895.75, 14168.01, 10557.71, 54790.83, 6777.85, 0.00, 0.00, 0.00, 0.00
253, 40771.64, 17397.44, -4896.33, 14167.70, 10518.42, 54789.24, 6829.53, 0.00, 0.00, 0.00, 0.00
254, 40731.16, 17412.25, -4889.87, 14113.65, 10485.85, 54395.61, 6842.34, 0.00, 0.00, 0.00, 0.00
255, 40696.63, 17399.63, -4882.78, 14129.48, 10506.53, 54308.46, 6864.11, 0.00, 0.00, 0.00, 0.00
0, 40734.91, 17376.20, -4899.86, 14149.12, 10564.64, 54713.96, 6830.16, 0.00, 0.01, 0.95, 0.28
1, 40760.50, 17375.98, -4915.98, 14122.57, 10525.39, 54845.93, 6805.12, 0.00, 0.00, 0.00, 0.00
2, 40732.21, 17405.30, -4887.79, 14139.04, 10494.52, 54467.96, 6819.92, 0.00, 0.00, 0.00, 0.00
3, 40695.21, 17404.19, -4872.41, 14124.47, 10520.05, 54293.08, 6811.90, 0.00, 0.00, 0.00, 0.00
4, 40724.86, 17375.33, -4897.07, 14141.41, 10565.78, 54616.39, 6781.88, 0.00, 0.00, 0.00, 0.00
5, 40770.61, 17370.08, -4921.21, 14120.36, 10537.64, 54866.91, 6769.09, 0.00, 0.00, 0.00, 0.00
6, 40751.99, 17404.52, -4892.44, 14128.25, 10495.95, 54533.85, 6838.23, 0.00, 0.00, 0.00, 0.00
7, 40717.57, 17417.11, -4872.66, 14148.68, 10512.00, 54305.89, 6864.67, 0.00, 0.00, 0.00, 0.00
8, 40735.11, 17394.42, -4894.29, 14157.95, 10553.91, 54545.61, 6820.19, 0.00, 0.00, 0.00, 0.00
9, 40787.62, 17380.47, -4923.53, 14137.75, 10549.29, 54889.60, 6760.78, 0.00, 0.00, 0.00, 0.00
10, 40762.47, 17401.55, -4903.35, 14116.20, 10493.43, 54605.55, 6780.85, 0.00, 0.01, 0.96, 0.27
11, 40714.62, 17405.17, -4873.91, 14130.50, 10500.83, 54318.80, 6810.20, 0.00, 0.00, 0.00, 0.00
12, 40716.94, 17389.66, -4883.41, 14154.58, 10546.92, 54470.13, 6826.65, 0.00, 0.00, 0.00, 0.00
13, 40763.66, 17361.43, -4925.59, 14138.01, 10560.71, 54882.05, 6780.71, 0.00, 0.00, 0.00, 0.00
14, 40765.13, 17388.88, -4906.07, 14117.67, 10500.42, 54677.48, 6804.34, 0.00, 0.00, 0.00, 0.00
15, 40731.61, 17417.51, -4864.57, 14141.68, 10509.97, 54349.18, 6870.12, 0.00, 0.00, 0.00, 0.00
16, 40715.22, 17395.58, -4870.11, 14157.66, 10540.59, 54407.30, 6852.11, 0.00, 0.00, 0.00, 0.00
17, 40764.64, 17361.56, -4910.70, 14147.27, 10566.00, 54835.71, 6762.32, 0.00, 0.00, 0.00, 0.00
18, 40773.18, 17381.25, -4907.01, 14116.11, 10509.77, 54738.39, 6752.31, 0.00, 0.00, 0.00, 0.00
19, 40740.70, 17411.31, -4862.98, 14139.91, 10507.62, 54368.20, 6847.48, 0.00, 0.01, 0.95, 0.29
20, 40721.43, 17403.78, -4859.65, 14174.72, 10538.36, 54346.84, 6851.79, 0.00, 0.00, 0.00, 0.00
21, 40766.88, 17376.51, -4902.61, 14145.50, 10568.87, 54793.04, 6783.22, 0.00, 0.00, 0.00, 0.00
22, 40789.23, 17392.99, -4911.10, 14112.26, 10523.74, 54818.41, 6773.56, 0.00, 0.00, 0.00, 0.00
23, 40755.99, 17410.76, -4875.30, 14125.32, 10506.35, 54440.02, 6829.37, 0.00, 0.00, 0.00, 0.00
24, 40731.36, 17409.15, -4862.76, 14153.53, 10526.75, 54339.14, 6867.73, 0.00, 0.00, 0.00, 0.00
25, 40767.05, 17385.50, -4892.22, 14165.60, 10582.05, 54717.83, 6818.44, 0.00, 0.00, 0.00, 0.00
26, 40795.02, 17385.14, -4912.33, 14131.31, 10538.31, 54866.18, 6773.90, 0.00, 0.00, 0.00, 0.00
27, 40765.42, 17413.21, -4888.62, 14121.27, 10489.85, 54488.63, 6786.06, 0.00, 0.00, 0.00, 0.00
28, 40737.62, 17428.82, -4863.45, 14150.62, 10516.92, 54318.22, 6849.40, 0.00, 0.00, 0.00, 0.00
29, 40765.85, 17402.33, -4876.12, 14172.39, 10587.98, 54640.49, 6851.17, 0.00, 0.01, 0.95, 0.28
30, 40811.69, 17395.04, -4910.99, 14142.35, 10565.71, 54916.09, 6806.64, 0.00, 0.00, 0.00, 0.00
31, 40793.70, 17427.41, -4885.40, 14133.48, 10514.30, 54575.11, 6817.21, 0.00, 0.00, 0.00, 0.00
32, 40757.38, 17433.58, -4862.20, 14165.53, 10519.80, 54335.55, 6852.55, 0.00, 0.00, 0.00, 0.00
33, 40770.61, 17411.49, -4871.18, 14176.35, 10570.21, 54552.94, 6833.69, 0.00, 0.00, 0.00, 0.00
34, 40812.09, 17383.31, -4910.43, 14140.03, 10565.07, 54911.39, 6744.95, 0.00, 0.00, 0.00, 0.00
35, 40797.36, 17410.53, -4890.32, 14116.65, 10509.48, 54632.76, 6787.80, 0.00, 0.00, 0.00, 0.00
36, 40763.50, 17431.14, -4862.26, 14138.89, 10520.21, 54328.10, 6864.87, 0.00, 0.00, 0.00, 0.00
37, 40768.06, 17418.69, -4872.05, 14167.67, 10559.99, 54467.62, 6840.71, 0.00, 0.00, 0.00, 0.00
38, 40825.93, 17404.74, -4909.25, 14156.19, 10575.64, 54890.79, 6769.20, 0.00, 0.00, 0.00, 0.00
39, 40821.10, 17427.41, -4905.29, 14124.33, 10512.03, 54700.21, 6766.88, 0.00, 0.01, 0.95, 0.28
40, 40777.09, 17433.44, -4878.45, 14131.73, 10507.87, 54350.86, 6844.01, 0.00, 0.00, 0.00, 0.00
41, 40765.98, 17424.82, -4877.40, 14163.52, 10544.64, 54393.21, 6836.62, 0.00, 0.00, 0.00, 0.00
42, 40817.79, 17403.43, -4909.83, 14187.81, 10583.15, 54844.92, 6791.04, 0.00, 0.00, 0.00, 0.00
43, 40828.63, 17419.18, -4912.13, 14131.17, 10527.96, 54777.66, 6787.98, 0.00, 0.00, 0.00, 0.00
44, 40797.09, 17447.50, -4878.42, 14132.74, 10516.05, 54401.39, 6836.26, 0.00, 0.00, 0.00, 0.00
45, 40776.98, 17442.76, -4870.51, 14163.25, 10548.95, 54348.51, 6862.90, 0.00, 0.00, 0.00, 0.00
46, 40807.78, 17397.35, -4909.27, 14178.78, 10587.28, 54761.35, 6807.13, 0.00, 0.00, 0.00, 0.00
47, 40832.95, 17407.13, -4921.88, 14165.73, 10530.87, 54835.60, 6758.77, 0.00, 0.00, 0.00, 0.00
48, 40801.30, 17438.61, -4887.25, 14119.31, 10513.50, 54464.45, 6825.84, 0.00, 0.00, 0.00, 0.00
49, 40768.91, 17437.40, -4874.83, 14153.15, 10541.22, 54349.14, 6868.65, 0.00, 0.01, 0.96, 0.27
50, 40805.14, 17414.58, -4897.45, 14179.14, 10596.36, 54718.97, 6838.74, 0.00, 0.00, 0.00, 0.00
51, 40838.94, 17413.66, -4920.11, 14141.23, 10554.92, 54894.30, 6789.59, 0.00, 0.00, 0.00, 0.00
52, 40812.79, 17440.82, -4891.08, 14136.54, 10509.43, 54523.91, 6773.20, 0.00, 0.00, 0.00, 0.00
53, 40781.05, 17444.20, -4878.09, 14160.48, 10516.85, 54326.89, 6852.04, 0.00, 0.00, 0.00, 0.00
54, 40804.79, 17423.23, -4892.08, 14183.59, 10576.89, 54611.61, 6844.28, 0.00, 0.00, 0.00, 0.00
55, 40842.87, 17408.86, -4921.90, 14143.60, 10571.57, 54916.29, 6812.23, 0.00, 0.00, 0.00, 0.00
56, 40829.48, 17447.08, -4899.66, 14142.04, 10522.58, 54615.82, 6832.41, 0.00, 0.00, 0.00, 0.00
57, 40796.07, 17467.40, -4870.20, 14179.97, 10528.65, 54355.26, 6852.06, 0.00, 0.00, 0.00, 0.00
58, 40805.81, 17450.61, -4882.25, 14206.10, 10569.11, 54557.03, 6831.90, 0.00, 0.01, 0.96, 0.28
59, 40861.51, 17433.60, -4916.40, 14199.37, 10575.79, 54947.67, 6808.14, 0.00, 0.00, 0.00, 0.00
60, 40858.47, 17467.62, -4899.52, 14206.41, 10520.27, 54712.84, 6847.50, 0.00, 0.00, 0.00, 0.00
61, 40809.66, 17473.12, -4878.20, 14177.91, 10512.03, 54381.46, 6844.46, 0.00, 0.00, 0.00, 0.00
62, 40794.86, 17447.28, -4885.47, 14189.87, 10546.00, 54477.61, 6810.71, 0.00, 0.00, 0.00, 0.00
63, 40845.53, 17418.67, -4915.95, 14175.99, 10570.99, 54906.57, 6760.91, 0.00, 0.00, 0.00, 0.00
64, 40841.24, 17431.19, -4925.07, 14134.42, 10503.73, 54738.62, 6750.99, 0.00, 0.00, 0.00, 0.00
65, 40793.18, 17444.04, -4907.64, 14139.40, 10490.03, 54368.11, 6826.09, 0.00, 0.00, 0.00, 0.00
66, 40768.82, 17427.54, -4903.44, 14157.97, 10529.42, 54384.23, 6847.46, 0.00, 0.00, 0.00, 0.00
67, 40816.72, 17398.75, -4934.53, 14157.91, 10574.01, 54839.42, 6790.97, 0.00, 0.00, 0.00, 0.00
68, 40841.20, 17419.70, -4936.56, 14135.15, 10519.31, 54809.80, 6785.03, 0.00, 0.00, 0.95, 0.27
69, 40804.45, 17442.56, -4904.71, 14142.31, 10504.05, 54426.12, 6824.30, 0.00, 0.00, 0.00, 0.00
70, 40775.35, 17432.10, -4900.20, 14157.73, 10523.40, 54351.80, 6804.47, 0.00, 0.00, 0.00, 0.00
71, 40822.58, 17414.02, -4930.71, 14177.35, 10571.70, 54754.15, 6779.60, 0.00, 0.00, 0.00, 0.00
72, 40852.13, 17424.37, -4944.79, 14143.80, 10526.64, 54858.78, 6787.13, 0.00, 0.00, 0.00, 0.00
73, 40816.25, 17448.62, -4916.47, 14151.51, 10484.76, 54486.53, 6800.94, 0.00, 0.00, 0.00, 0.00
74, 40792.76, 17460.38, -4888.13, 14186.88, 10511.67, 54343.55, 6823.90, 0.00, 0.00, 0.00, 0.00
75, 40828.88, 17434.72, -4909.56, 14192.55, 10574.57, 54707.43, 6812.36, 0.00, 0.00, 0.00, 0.00
76, 40855.57, 17420.68, -4951.34, 14152.45, 10544.46, 54916.58, 6823.05, 0.00, 0.00, 0.00, 0.00
77, 40824.63, 17447.39, -4926.01, 14145.97, 10500.04, 54543.98, 6852.22, 0.00, 0.00, 0.00, 0.00
78, 40786.97, 17451.32, -4909.54, 14177.35, 10504.25, 54312.75, 6839.28, 0.00, 0.00, 0.95, 0.26
79, 40809.50, 17430.22, -4921.88, 14175.81, 10561.11, 54589.95, 6818.04, 0.00, 0.00, 0.00, 0.00
80, 40862.25, 17415.34, -4943.78, 14143.02, 10560.17, 54928.74, 6789.79, 0.00, 0.00, 0.00, 0.00
81, 40853.69, 17452.20, -4915.89, 14134.55, 10513.10, 54615.21, 6816.30, 0.00, 0.00, 0.00, 0.00
82, 40827.43, 17474.95, -4884.44, 14156.21, 10520.94, 54330.94, 6833.22, 0.00, 0.00, 0.00, 0.00
83, 40840.10, 17453.31, -4894.07, 14174.72, 10563.21, 54513.69, 6811.96, 0.00, 0.00, 0.00, 0.00
84, 40896.18, 17434.52, -4926.37, 14155.45, 10575.37, 54922.64, 6780.18, 0.00, 0.00, 0.00, 0.00
85, 40895.60, 17460.36, -4906.97, 14133.52, 10522.33, 54685.04, 6812.97, 0.00, 0.00, 0.00, 0.00
86, 40851.97, 17464.76, -4878.74, 14141.39, 10519.67, 54347.46, 6835.30, 0.00, 0.00, 0.00, 0.00
87, 40847.75, 17449.85, -4877.69, 14188.53, 10562.65, 54441.43, 6842.43, 0.00, 0.00, 0.00, 0.00
88, 40908.18, 17429.64, -4909.27, 14183.59, 10594.61, 54886.88, 6790.15, 0.00, 0.00, 0.97, 0.26
89, 40913.28, 17449.65, -4905.22, 14099.95, 10529.95, 54744.47, 6780.76, 0.00, 0.00, 0.00, 0.00
90, 40883.89, 17468.54, -4873.04, 14119.15, 10520.65, 54373.59, 6853.04, 0.00, 0.00, 0.00, 0.00
91, 40868.24, 17460.06, -4870.89, 14146.71, 10535.85, 54375.38, 6841.85, 0.00, 0.00, 0.00, 0.00
92, 40931.65, 17456.22, -4892.44, 14175.34, 10601.25, 54847.51, 6820.70, 0.00, 0.00, 0.00, 0.00
93, 40952.37, 17478.57, -4904.06, 14154.22, 10555.52, 54839.80, 6831.65, 0.00, 0.00, 0.00, 0.00
94, 40909.88, 17495.11, -4883.19, 14141.93, 10521.88, 54444.69, 6857.60, 0.00, 0.00, 0.00, 0.00
95, 40873.43, 17481.05, -4881.55, 14158.76, 10539.72, 54363.66, 6849.89, 0.00, 0.00, 0.00, 0.00
96, 40910.98, 17448.82, -4906.48, 14178.14, 10586.79, 54757.10, 6802.22, 0.00, 0.00, 0.00, 0.00
97, 40943.10, 17455.04, -4914.28, 14137.41, 10544.66, 54873.64, 6801.41, 0.00, 0.00, 0.00, 0.00
98, 40908.05, 17483.13, -4888.48, 14118.79, 10516.92, 54489.95, 6826.42, 0.00, 0.01, 0.95, 0.26
99, 40871.01, 17481.59, -4874.78, 14153.37, 10536.92, 54332.75, 6833.89, 0.00, 0.00, 0.00, 0.00
100, 40902.64, 17459.93, -4891.77, 14178.07, 10591.66, 54685.30, 6803.89, 0.00, 0.00, 0.00, 0.00
101, 40943.03, 17453.61, -4912.60, 14141.52, 10562.83, 54925.92, 6802.13, 0.00, 0.00, 0.00, 0.00
102, 40916.75, 17480.43, -4890.96, 14124.63, 10523.04, 54557.30, 6832.55, 0.00, 0.00, 0.00, 0.00
103, 40882.77, 17493.10, -4865.71, 14151.54, 10544.64, 54337.71, 6851.84, 0.00, 0.00, 0.00, 0.00
104, 40898.28, 17474.68, -4877.35, 14181.78, 10589.79, 54596.23, 6833.06, 0.00, 0.00, 0.00, 0.00
105, 40951.10, 17468.65, -4907.48, 14163.47, 10587.15, 54946.46, 6807.76, 0.00, 0.00, 0.00, 0.00
106, 40929.17, 17486.46, -4892.48, 14136.81, 10528.36, 54647.64, 6806.62, 0.00, 0.00, 0.00, 0.00
107, 40878.30, 17486.30, -4867.02, 14150.17, 10524.83, 54346.63, 6838.72, 0.00, 0.02, 0.96, 0.26
108, 40876.85, 17466.26, -4875.12, 14175.90, 10565.31, 54510.94, 6824.93, 0.00, 0.00, 0.00, 0.00
109, 40932.30, 17446.63, -4909.29, 14192.11, 10581.92, 54924.85, 6771.66, 0.00, 0.00, 0.00, 0.00
110, 40930.11, 17473.01, -4895.32, 14158.53, 10523.02, 54712.09, 6778.08, 0.00, 0.00, 0.00, 0.00
111, 40891.73, 17499.16, -4857.12, 14142.64, 10531.29, 54378.80, 6868.94, 0.00, 0.00, 0.00, 0.00
112, 40882.70, 17490.22, -4850.46, 14183.10, 10574.90, 54458.41, 6875.24, 0.00, 0.00, 0.00, 0.00
113, 40929.30, 17458.54, -4888.73, 14175.45, 10600.22, 54899.10, 6797.01, 0.00, 0.00, 0.00, 0.00
114, 40934.40, 17474.28, -4885.22, 14141.32, 10538.38, 54785.87, 6794.17, 0.00, 0.00, 0.00, 0.00
115, 40888.76, 17492.68, -4861.86, 14153.21, 10520.00, 54411.48, 6835.19, 0.00, 0.00, 0.00, 0.00
116, 40869.38, 17490.37, -4857.37, 14205.45, 10549.75, 54407.81, 6859.77, 0.00, 0.00, 0.00, 0.00
117, 40919.70, 17465.59, -4892.44, 14206.01, 10596.74, 54843.45, 6814.40, 0.00, 0.02, 0.96, 0.27
118, 40937.64, 17474.04, -4907.26, 14127.22, 10541.24, 54846.98, 6785.01, 0.00, 0.00, 0.00, 0.00
119, 40899.87, 17492.38, -4873.95, 14129.23, 10515.24, 54442.57, 6826.54, 0.00, 0.00, 0.00, 0.00
120, 40877.63, 17499.63, -4856.18, 14162.27, 10542.94, 54340.80, 6852.06, 0.00, 0.00, 0.00, 0.00
121, 40911.74, 17472.54, -4883.57, 14179.75, 10593.68, 54744.94, 6813.50, 0.00, 0.00, 0.00, 0.00
122, 40937.02, 17467.04, -4906.45, 14141.79, 10544.73, 54889.36, 6748.39, 0.00, 0.00, 0.00, 0.00
123, 40905.66, 17495.63, -4881.06, 14142.89, 10494.17, 54513.69, 6760.24, 0.00, 0.00, 0.00, 0.00
124, 40868.15, 17497.04, -4860.10, 14163.96, 10518.53, 54341.13, 6881.68, 0.00, 0.00, 0.00, 0.00
125, 40892.98, 17471.64, -4875.23, 14178.22, 10589.36, 54656.34, 6861.49, 0.00, 0.00, 0.00, 0.00
126, 40929.60, 17459.28, -4905.36, 14140.94, 10562.09, 54919.26, 6806.33, 0.00, 0.00, 0.00, 0.00
127, 40903.73, 17482.30, -4882.90, 14125.63, 10504.98, 54569.46, 6797.46, 0.00, 0.02, 0.95, 0.27
128, 40869.25, 17497.44, -4855.67, 14157.77, 10513.34, 54333.13, 6845.06, 0.00, 0.00, 0.00, 0.00
129, 40882.93, 17478.37, -4870.96, 14179.52, 10567.70, 54572.86, 6841.44, 0.00, 0.00, 0.00, 0.00
130, 40930.69, 17460.09, -4907.75, 14158.76, 10565.20, 54930.89, 6795.02, 0.00, 0.00, 0.00, 0.00
131, 40912.32, 17487.38, -4889.29, 14137.61, 10504.85, 54643.42, 6811.98, 0.00, 0.00, 0.00, 0.00
132, 40865.60, 17493.84, -4868.19, 14143.42, 10506.95, 54324.41, 6848.08, 0.00, 0.00, 0.00, 0.00
133, 40859.17, 17467.04, -4879.32, 14158.62, 10554.65, 54466.77, 6835.45, 0.00, 0.00, 0.00, 0.00
134, 40913.17, 17446.14, -4914.41, 14149.28, 10572.55, 54902.21, 6772.15, 0.00, 0.00, 0.00, 0.00
135, 40913.08, 17474.46, -4900.82, 14132.14, 10513.99, 54715.79, 6803.13, 0.00, 0.00, 0.00, 0.00
136, 40882.86, 17503.40, -4861.44, 14182.87, 10515.91, 54381.86, 6864.96, 0.00, 0.00, 0.00, 0.00
137, 40867.97, 17487.63, -4866.51, 14195.12, 10548.73, 54433.18, 6877.68, 0.00, 0.02, 0.95, 0.26
138, 40900.63, 17439.99, -4915.55, 14147.85, 10579.77, 54868.48, 6816.37, 0.00, 0.00, 0.00, 0.00
139, 40904.27, 17456.29, -4916.82, 14127.60, 10530.24, 54793.98, 6811.87, 0.00, 0.00, 0.00, 0.00
140, 40857.45, 17472.36, -4895.01, 14136.18, 10504.51, 54413.06, 6843.41, 0.00, 0.00, 0.00, 0.00
141, 40828.30, 17458.32, -4892.91, 14157.84, 10527.76, 54370.35, 6844.57, 0.00, 0.00, 0.00, 0.00
142, 40877.38, 17437.94, -4918.19, 14175.19, 10576.46, 54804.89, 6793.28, 0.00, 0.00, 0.00, 0.00
143, 40892.20, 17440.57, -4932.00, 14135.60, 10523.18, 54841.75, 6763.10, 0.00, 0.00, 0.00, 0.00
144, 40853.51, 17461.12, -4903.03, 14122.93, 10485.20, 54443.06, 6818.49, 0.00, 0.00, 0.00, 0.00
145, 40832.43, 17463.98, -4883.83, 14164.37, 10531.81, 54355.71, 6871.98, 0.00, 0.00, 0.00, 0.00
146, 40870.21, 17440.69, -4911.21, 14185.69, 10593.45, 54743.33, 6863.62, 0.00, 0.02, 0.96, 0.25
147, 40898.48, 17437.78, -4935.91, 14149.55, 10551.19, 54916.58, 6828.48, 0.00, 0.00, 0.00, 0.00
148, 40867.04, 17462.48, -4907.17, 14145.21, 10508.34, 54543.24, 6851.21, 0.00, 0.00, 0.00, 0.00
149, 40832.99, 17469.14, -4885.38, 14178.02, 10532.30, 54353.20, 6872.00, 0.00, 0.00, 0.00, 0.00
150, 40848.73, 17435.97, -4908.04, 14185.74, 10584.71, 54654.24, 6828.77, 0.00, 0.00, 0.00, 0.00
151, 40885.21, 17414.58, -4938.26, 14140.00, 10561.22, 54932.36, 6800.36, 0.00, 0.00, 0.00, 0.00
152, 40868.09, 17449.38, -4913.47, 14161.64, 10510.71, 54605.06, 6836.50, 0.00, 0.00, 0.00, 0.00
153, 40835.72, 17464.38, -4888.15, 14215.44, 10515.06, 54358.12, 6859.50, 0.00, 0.00, 0.00, 0.00
154, 40844.53, 17439.52, -4896.84, 14175.50, 10566.92, 54573.32, 6856.26, 0.00, 0.00, 0.00, 0.00
155, 40889.88, 17415.88, -4931.67, 14138.93, 10572.38, 54954.98, 6823.12, 0.00, 0.00, 0.00, 0.00
156, 40872.11, 17436.91, -4920.51, 14122.17, 10510.84, 54673.57, 6826.80, 0.00, 0.02, 0.96, 0.25
157, 40831.90, 17456.80, -4888.42, 14151.58, 10516.70, 54370.15, 6865.87, 0.00, 0.00, 0.00, 0.00
158, 40830.91, 17445.83, -4889.27, 14185.60, 10566.70, 54508.68, 6843.01, 0.00, 0.00, 0.00, 0.00
159, 40885.81, 17420.46, -4924.47, 14172.77, 10590.84, 54940.54, 6807.42, 0.00, 0.00, 0.00, 0.00
160, 40889.39, 17440.57, -4915.82, 14142.31, 10527.74, 54762.98, 6821.77, 0.00, 0.00, 0.00, 0.00
161, 40847.63, 17457.45, -4882.07, 14154.31, 10522.98, 54399.29, 6850.94, 0.00, 0.00, 0.00, 0.00
162, 40831.79, 17449.09, -4886.69, 14179.68, 10561.62, 54426.18, 6850.32, 0.00, 0.00, 0.00, 0.00
163, 40877.79, 17420.01, -4921.61, 14175.68, 10599.91, 54871.99, 6780.54, 0.00, 0.00, 0.00, 0.00
164, 40895.96, 17442.72, -4913.07, 14140.03, 10547.09, 54808.18, 6813.46, 0.00, 0.00, 0.00, 0.00
165, 40867.79, 17479.15, -4879.30, 14159.52, 10537.60, 54422.72, 6881.27, 0.00, 0.00, 0.00, 0.00
166, 40844.41, 17473.32, -4877.02, 14197.96, 10556.48, 54386.31, 6892.90, 0.00, 0.03, 0.96, 0.25
167, 40885.99, 17443.59, -4897.45, 14199.46, 10603.42, 54818.66, 6831.56, 0.00, 0.00, 0.00, 0.00
168, 40908.90, 17454.16, -4912.60, 14154.96, 10557.02, 54896.69, 6849.27, 0.00, 0.00, 0.00, 0.00
169, 40869.02, 17482.10, -4899.88, 14152.45, 10522.17, 54495.63, 6876.54, 0.00, 0.00, 0.00, 0.00
170, 40838.38, 17477.57, -4882.78, 14173.89, 10540.61, 54351.95, 6882.06, 0.00, 0.00, 0.00, 0.00
171, 40860.73, 17438.56, -4910.52, 14189.49, 10591.91, 54718.84, 6845.24, 0.00, 0.00, 0.00, 0.00
172, 40901.21, 17439.08, -4934.35, 14172.53, 10555.63, 54924.89, 6806.80, 0.00, 0.00, 0.00, 0.00
173, 40877.36, 17471.33, -4904.22, 14139.15, 10512.92, 54538.57, 6832.50, 0.00, 0.00, 0.00, 0.00
174, 40842.98, 17478.37, -4880.95, 14157.91, 10528.81, 54340.48, 6856.93, 0.00, 0.00, 0.00, 0.00
175, 40864.20, 17453.27, -4896.10, 14186.21, 10578.90, 54640.22, 6839.16, 0.00, 0.00, 0.00, 0.00
176, 40911.43, 17444.42, -4925.41, 14166.36, 10570.12, 54952.99, 6797.86, 0.00, 0.03, 0.96, 0.26
177, 40896.74, 17479.60, -4896.98, 14157.62, 10521.66, 54627.06, 6838.58, 0.00, 0.00, 0.00, 0.00
178, 40839.70, 17473.28, -4883.14, 14159.85, 10520.81, 54331.55, 6842.14, 0.00, 0.00, 0.00, 0.00
179, 40840.14, 17453.65, -4891.54, 14181.49, 10566.47, 54523.43, 6816.30, 0.00, 0.00, 0.00, 0.00
180, 40891.58, 17432.66, -4924.96, 14185.33, 10576.91, 54936.70, 6801.70, 0.00, 0.00, 0.00, 0.00
181, 40878.99, 17448.42, -4924.92, 14176.08, 10510.04, 54696.50, 6821.06, 0.00, 0.00, 0.00, 0.00
182, 40841.78, 17461.45, -4889.35, 14142.71, 10518.24, 54370.62, 6895.67, 0.00, 0.00, 0.00, 0.00
183, 40834.63, 17450.36, -4886.14, 14180.13, 10573.25, 54476.05, 6887.67, 0.00, 0.00, 0.00, 0.00
184, 40889.63, 17434.47, -4917.83, 14183.66, 10600.63, 54931.73, 6837.24, 0.00, 0.00, 0.00, 0.00
185, 40890.30, 17452.69, -4915.80, 14148.18, 10533.53, 54781.71, 6816.07, 0.00, 0.00, 0.00, 0.00
186, 40847.05, 17468.31, -4890.11, 14153.19, 10511.56, 54397.24, 6830.87, 0.00, 0.03, 0.96, 0.26
187, 40826.15, 17452.24, -4890.70, 14168.82, 10532.23, 54400.25, 6805.50, 0.00, 0.00, 0.00, 0.00
188, 40877.34, 17424.93, -4917.45, 14181.09, 10585.58, 54852.23, 6818.02, 0.00, 0.00, 0.00, 0.00
189, 40892.34, 17437.76, -4921.41, 14176.62, 10540.95, 54842.93, 6852.20, 0.00, 0.00, 0.00, 0.00
190, 40847.10, 17453.89, -4892.24, 14138.51, 10514.95, 54447.77, 6873.12, 0.00, 0.00, 0.00, 0.00
191, 40820.41, 17450.39, -4881.00, 14151.02, 10543.83, 54368.40, 6866.99, 0.00, 0.00, 0.00, 0.00
192, 40856.53, 17419.92, -4915.19, 14161.24, 10592.22, 54769.57, 6851.77, 0.00, 0.00, 0.00, 0.00
193, 40883.95, 17430.25, -4934.57, 14127.51, 10548.39, 54876.79, 6831.39, 0.00, 0.00, 0.00, 0.00
194, 40857.38, 17457.83, -4903.84, 14133.10, 10511.56, 54493.84, 6848.33, 0.00, 0.00, 0.00, 0.00
195, 40820.77, 17448.51, -4893.00, 14155.94, 10519.18, 54340.40, 6860.29, 0.00, 0.02, 0.96, 0.26
196, 40846.16, 17417.57, -4912.87, 14167.00, 10576.42, 54690.20, 6830.63, 0.00, 0.00, 0.00, 0.00
197, 40884.58, 17413.89, -4942.73, 14131.71, 10550.83, 54916.22, 6797.28, 0.00, 0.00, 0.00, 0.00
198, 40857.33, 17441.18, -4922.39, 14124.54, 10505.43, 54541.32, 6827.68, 0.00, 0.00, 0.00, 0.00
199, 40825.01, 17454.05, -4895.30, 14160.57, 10521.46, 54317.40, 6869.74, 0.00, 0.00, 0.00, 0.00
200, 40848.35, 17433.31, -4900.91, 14181.58, 10576.08, 54600.10, 6866.52, 0.00, 0.00, 0.00, 0.00
201, 40893.48, 17416.54, -4941.50, 14145.50, 10567.23, 54937.34, 6806.58, 0.00, 0.00, 0.00, 0.00
202, 40864.22, 17441.27, -4934.28, 14122.86, 10501.77, 54621.47, 6819.92, 0.00, 0.00, 0.00, 0.00
203, 40820.86, 17449.34, -4906.86, 14146.78, 10506.64, 54337.71, 6846.54, 0.00, 0.00, 0.00, 0.00
204, 40823.92, 17429.85, -4908.91, 14177.00, 10558.92, 54513.02, 6837.02, 0.00, 0.00, 0.00, 0.00
205, 40873.27, 17406.96, -4942.55, 14155.16, 10574.92, 54920.63, 6816.59, 0.00, 0.01, 0.96, 0.26
206, 40878.61, 17444.73, -4925.01, 14144.63, 10518.80, 54706.81, 6848.42, 0.00, 0.00, 0.00, 0.00
207, 40834.11, 17457.11, -4887.41, 14173.33, 10515.85, 54362.55, 6865.07, 0.00, 0.00, 0.00, 0.00
208, 40818.06, 17438.81, -4901.22, 14197.81, 10547.63, 54443.68, 6864.60, 0.00, 0.00, 0.00, 0.00
209, 40872.69, 17415.09, -4947.60, 14194.39, 10575.86, 54893.40, 6836.91, 0.00, 0.00, 0.00, 0.00
210, 40885.54, 17437.82, -4940.20, 14103.73, 10520.07, 54770.78, 6833.73, 0.00, 0.00, 0.00, 0.00
211, 40847.81, 17461.32, -4904.62, 14121.41, 10512.56, 54389.62, 6865.36, 0.00, 0.00, 0.00, 0.00
212, 40818.06, 17446.88, -4905.83, 14145.90, 10531.52, 54373.63, 6844.31, 0.00, 0.00, 0.00, 0.00
213, 40862.09, 17413.97, -4939.98, 14150.69, 10574.07, 54819.75, 6768.51, 0.00, 0.00, 0.00, 0.00
214, 40883.98, 17428.35, -4947.51, 14114.32, 10526.87, 54824.00, 6795.73, 0.00, 0.00, 0.00, 0.00
215, 40854.56, 17458.70, -4913.94, 14118.95, 10496.74, 54418.43, 6891.80, 0.00, 0.02, 0.95, 0.26
216, 40829.10, 17453.27, -4907.53, 14138.95, 10504.22, 54309.75, 6893.03, 0.00, 0.00, 0.00, 0.00
217, 40873.49, 17432.44, -4931.91, 14158.73, 10567.70, 54730.37, 6836.12, 0.00, 0.00, 0.00, 0.00
