%OpenBCI Raw EEG Data
%
%Sample Rate = 250.0 Hz
%First Column = SampleIndex
%Other Columns = EEG data in microvolts followed by Accel Data (in G) interleaved with Aux Data
0, 13437.76, 38493.97, -9179.88, -20983.04, -16132.44, -9305.92, -19701.56, -18981.01, 0.10, 0.89, 0.40
1, 13446.81, 38663.38, -9289.52, -20962.07, -16115.61, -9289.63, -19690.50, -18965.54, 0.00, 0.00, 0.00
2, 13418.89, 38403.49, -9051.14, -20972.31, -16177.99, -9328.77, -19700.69, -18986.02, 0.00, 0.00, 0.00
3, 13410.89, 38228.43, -8941.37, -20999.71, -16191.09, -9353.36, -19725.50, -19020.93, 0.00, 0.00, 0.00
4, 13445.60, 38448.33, -9131.04, -20995.31, -16146.59, -9323.58, -19719.47, -18994.98, 0.00, 0.00, 0.00
5, 13455.95, 38671.20, -9301.83, -20970.23, -16115.54, -9301.03, -19693.88, -18972.72, 0.00, 0.00, 0.00
6, 13430.80, 38470.64, -9108.38, -20967.86, -16166.17, -9332.88, -19692.58, -18978.64, 0.00, 0.00, 0.00
7, 13408.74, 38226.49, -8942.60, -21002.97, -16195.07, -9362.41, -19736.21, -19007.59, 0.06, 0.90, 0.40
8, 13436.33, 38396.41, -9095.08, -21004.89, -16154.50, -9344.28, -19738.22, -18999.16, 0.00, 0.00, 0.00
9, 13464.20, 38652.54, -9318.49, -20959.72, -16100.07, -9300.61, -19679.37, -18961.50, 0.00, 0.00, 0.00
10, 13444.22, 38543.05, -9167.21, -20965.49, -16145.27, -9324.07, -19680.58, -18975.60, 0.00, 0.00, 0.00
11, 13416.28, 38250.41, -8950.13, -21000.18, -16191.94, -9363.55, -19713.21, -19003.86, 0.00, 0.00, 0.00
12, 13427.30, 38350.09, -9054.47, -21015.53, -16168.40, -9351.46, -19730.31, -19000.66, 0.00, 0.00, 0.00
13, 13451.68, 38618.34, -9303.02, -20982.83, -16117.10, -9311.54, -19698.26, -18970.01, 0.00, 0.00, 0.00
14, 13440.51, 38589.93, -9220.79, -20962.45, -16144.46, -9322.60, -19672.96, -18966.88, 0.00, 0.00, 0.00
15, 13411.45, 38268.71, -8973.64, -20989.58, -16199.40, -9367.30, -19703.49, -18995.88, 0.00, 0.00, 0.00
16, 13420.08, 38299.24, -9017.23, -21012.79, -16181.97, -9367.08, -19732.95, -19011.14, 0.00, 0.00, 0.00
17, 13443.30, 38579.51, -9268.64, -20998.72, -16129.58, -9337.37, -19723.38, -18995.90, 0.06, 0.89, 0.41
18, 13442.00, 38631.84, -9268.84, -20974.81, -16131.68, -9325.91, -19688.78, -18967.71, 0.00, 0.00, 0.00
19, 13407.94, 38311.34, -9004.74, -20993.94, -16193.08, -9364.93, -19701.45, -18982.71, 0.00, 0.00, 0.00
20, 13410.67, 38261.87, -8993.81, -21008.61, -16187.38, -9377.43, -19717.79, -19007.30, 0.00, 0.00, 0.00
21, 13438.43, 38524.97, -9230.38, -20993.99, -16139.68, -9344.46, -19703.22, -18981.37, 0.00, 0.00, 0.00
22, 13443.66, 38657.07, -9300.31, -20977.58, -16133.42, -9336.03, -19691.15, -18967.27, 0.00, 0.00, 0.00
23, 13413.82, 38367.66, -9049.93, -20997.03, -16199.74, -9383.80, -19707.26, -18998.63, 0.00, 0.00, 0.00
24, 13410.69, 38242.94, -8974.22, -21019.24, -16202.64, -9398.84, -19738.69, -19026.77, 0.00, 0.00, 0.00
25, 13434.58, 38483.64, -9188.56, -21016.36, -16164.49, -9377.76, -19738.38, -19014.83, 0.00, 0.00, 0.00
26, 13453.89, 38672.18, -9372.40, -20983.91, -16130.87, -9341.71, -19698.12, -18970.46, 0.00, 0.00, 0.00
27, 13429.42, 38438.29, -9167.95, -20991.13, -16187.29, -9373.90, -19693.70, -18981.35, 0.06, 0.89, 0.42
28, 13412.57, 38238.56, -9052.25, -21025.53, -16214.22, -9403.36, -19734.33, -19010.09, 0.00, 0.00, 0.00
29, 13434.67, 38438.83, -9239.25, -21024.63, -16179.47, -9384.13, -19741.87, -19004.23, 0.00, 0.00, 0.00
30, 13450.36, 38673.64, -9427.05, -20994.86, -16141.60, -9352.51, -19716.99, -18976.70, 0.00, 0.00, 0.00
31, 13435.45, 38502.80, -9245.44, -20986.14, -16184.70, -9368.33, -19706.39, -18973.79, 0.00, 0.00, 0.00
32, 13411.16, 38246.43, -9057.51, -21015.91, -16215.50, -9403.45, -19726.53, -19004.28, 0.00, 0.00, 0.00
33, 13427.21, 38394.26, -9200.67, -21029.39, -16188.16, -9400.83, -19744.28, -19015.57, 0.00, 0.00, 0.00
34, 13445.11, 38658.21, -9423.52, -21001.99, -16142.16, -9360.93, -19719.36, -18987.52, 0.00, 0.00, 0.00
35, 13431.90, 38570.46, -9300.23, -20986.88, -16175.11, -9374.92, -19702.08, -18978.96, 0.00, 0.00, 0.00
36, 13417.84, 38270.86, -9073.11, -21011.53, -16213.53, -9410.22, -19725.64, -19001.06, 0.00, 0.00, 0.00
37, 13436.13, 38356.11, -9151.09, -21022.75, -16184.65, -9400.23, -19734.00, -19001.02, 0.06, 0.89, 0.42
38, 13450.07, 38629.27, -9389.57, -20992.56, -16126.67, -9350.99, -19712.94, -18968.23, 0.00, 0.00, 0.00
39, 13444.75, 38630.99, -9337.26, -20979.48, -16142.97, -9354.45, -19712.18, -18966.28, 0.00, 0.00, 0.00
40, 13412.97, 38310.91, -9091.50, -21009.90, -16203.85, -9411.07, -19739.54, -19014.88, 0.00, 0.00, 0.00
41, 13417.60, 38315.89, -9121.86, -21032.70, -16192.72, -9423.09, -19756.01, -19038.23, 0.00, 0.00, 0.00
42, 13434.94, 38586.60, -9373.11, -21024.72, -16152.20, -9396.65, -19751.32, -19009.96, 0.00, 0.00, 0.00
43, 13434.02, 38662.13, -9402.06, -20999.49, -16158.72, -9388.60, -19711.18, -18988.23, 0.00, 0.00, 0.00
44, 13408.07, 38352.33, -9146.80, -21007.42, -16223.34, -9429.24, -19723.11, -19017.96, 0.00, 0.00, 0.00
45, 13410.40, 38276.78, -9114.91, -21023.33, -16219.59, -9434.76, -19753.55, -19033.22, 0.00, 0.00, 0.00
46, 13432.53, 38534.56, -9346.81, -21016.54, -16175.55, -9406.64, -19752.39, -19010.27, 0.00, 0.00, 0.00
47, 13436.84, 38676.14, -9436.41, -20990.77, -16158.39, -9384.07, -19723.49, -18985.59, 0.06, 0.89, 0.42
48, 13410.20, 38406.02, -9179.35, -20995.82, -16217.91, -9421.08, -19721.84, -19002.58, 0.00, 0.00, 0.00
49, 13399.07, 38248.50, -9090.23, -21022.35, -16229.11, -9438.65, -19756.86, -19030.30, 0.00, 0.00, 0.00
50, 13424.73, 38474.91, -9297.14, -21016.09, -16184.99, -9412.59, -19756.15, -19021.38, 0.00, 0.00, 0.00
51, 13441.53, 38686.15, -9448.13, -20981.74, -16149.78, -9370.50, -19710.93, -18971.09, 0.00, 0.00, 0.00
52, 13417.55, 38474.55, -9228.50, -20985.81, -16207.38, -9401.97, -19709.81, -18981.30, 0.00, 0.00, 0.00
53, 13397.93, 38252.53, -9080.66, -21018.62, -16233.89, -9434.87, -19746.00, -19020.93, 0.00, 0.00, 0.00
54, 13414.26, 38434.29, -9246.83, -21021.75, -16203.74, -9422.65, -19753.71, -19022.90, 0.00, 0.00, 0.00
55, 13433.91, 38675.67, -9455.30, -20986.74, -16161.70, -9381.67, -19719.24, -18983.09, 0.00, 0.00, 0.00
56, 13414.91, 38538.70, -9290.82, -20987.42, -16207.34, -9402.73, -19717.17, -18991.43, 0.00, 0.00, 0.00
57, 13390.28, 38265.65, -9087.33, -21017.50, -16244.40, -9436.73, -19739.27, -19026.34, 0.07, 0.89, 0.42
58, 13409.06, 38389.50, -9206.33, -21021.19, -16214.29, -9419.05, -19748.62, -19019.21, 0.00, 0.00, 0.00
59, 13434.27, 38654.75, -9443.28, -20985.94, -16165.61, -9381.85, -19728.97, -18984.45, 0.00, 0.00, 0.00
60, 13422.00, 38599.56, -9344.08, -20984.04, -16198.35, -9394.04, -19728.97, -18984.07, 0.00, 0.00, 0.00
61, 13389.68, 38292.49, -9105.47, -21025.19, -16251.19, -9441.20, -19785.41, -19024.51, 0.00, 0.00, 0.00
62, 13400.23, 38346.83, -9173.02, -21039.41, -16231.88, -9449.07, -19790.72, -19036.35, 0.00, 0.00, 0.00
63, 13431.19, 38621.20, -9426.11, -21002.64, -16176.81, -9409.82, -19731.45, -19001.31, 0.00, 0.00, 0.00
64, 13427.27, 38648.24, -9391.67, -20977.92, -16194.04, -9409.66, -19697.43, -18989.30, 0.00, 0.00, 0.00
65, 13392.87, 38331.70, -9132.61, -21007.35, -16256.38, -9454.00, -19734.73, -19011.21, 0.00, 0.00, 0.00
66, 13397.61, 38310.08, -9147.81, -21028.97, -16246.16, -9455.17, -19766.52, -19017.45, 0.00, 0.00, 0.00
67, 13426.94, 38579.87, -9397.52, -21011.62, -16190.69, -9417.08, -19753.73, -18997.22, 0.06, 0.89, 0.43
68, 13430.72, 38688.43, -9452.75, -20989.74, -16185.97, -9403.18, -19724.90, -18976.70, 0.00, 0.00, 0.00
69, 13401.90, 38394.84, -9190.12, -21009.46, -16251.33, -9447.12, -19743.68, -19007.41, 0.00, 0.00, 0.00
70, 13396.58, 38291.91, -9144.54, -21034.00, -16250.52, -9461.74, -19766.94, -19033.27, 0.00, 0.00, 0.00
71, 13420.08, 38534.56, -9368.51, -21025.88, -16203.41, -9425.91, -19755.68, -19007.41, 0.00, 0.00, 0.00
72, 13428.88, 38701.60, -9485.12, -20997.94, -16179.62, -9396.20, -19727.34, -18969.68, 0.00, 0.00, 0.00
73, 13402.71, 38447.91, -9239.07, -21006.26, -16238.97, -9434.16, -19743.14, -18998.36, 0.00, 0.00, 0.00
74, 13397.17, 38279.69, -9118.30, -21021.72, -16247.82, -9447.10, -19763.10, -19020.22, 0.00, 0.00, 0.00
75, 13418.91, 38495.83, -9310.95, -21019.47, -16208.57, -9419.16, -19753.17, -19005.11, 0.00, 0.00, 0.00
76, 13433.55, 38712.50, -9496.74, -20991.17, -16173.34, -9380.47, -19727.80, -18968.52, 0.00, 0.00, 0.00
77, 13411.40, 38525.31, -9295.51, -20996.24, -16228.39, -9414.20, -19736.59, -18991.88, 0.07, 0.89, 0.42
78, 13388.72, 38291.24, -9129.77, -21031.81, -16262.64, -9452.91, -19773.07, -19034.59, 0.00, 0.00, 0.00
79, 13407.40, 38450.68, -9285.61, -21038.62, -16226.40, -9435.14, -19782.46, -19023.88, 0.00, 0.00, 0.00
80, 13427.23, 38696.41, -9504.68, -21008.56, -16179.33, -9388.72, -19759.54, -18979.16, 0.00, 0.00, 0.00
81, 13410.80, 38587.29, -9349.51, -20997.47, -16221.91, -9406.73, -19736.57, -18989.84, 0.00, 0.00, 0.00
82, 13383.75, 38297.54, -9139.00, -21025.75, -16263.80, -9445.22, -19746.69, -19015.70, 0.00, 0.00, 0.00
83, 13404.45, 38397.43, -9247.52, -21037.84, -16229.44, -9433.31, -19759.77, -19007.70, 0.00, 0.00, 0.00
84, 13425.53, 38664.45, -9481.30, -21011.24, -16184.34, -9397.10, -19727.78, -18978.49, 0.00, 0.00, 0.00
85, 13419.65, 38636.75, -9397.77, -20988.78, -16210.00, -9407.98, -19710.08, -18982.24, 0.00, 0.00, 0.00
86, 13394.77, 38330.58, -9144.41, -21014.04, -16263.17, -9450.03, -19730.35, -19002.27, 0.00, 0.00, 0.00
87, 13403.87, 38360.64, -9186.81, -21030.96, -16242.36, -9446.38, -19749.15, -19001.29, 0.08, 0.88, 0.42
88, 13433.24, 38627.32, -9439.45, -21016.67, -16196.65, -9416.54, -19743.59, -18988.63, 0.00, 0.00, 0.00
89, 13436.50, 38682.62, -9435.95, -20993.43, -16197.91, -9405.86, -19713.88, -18966.28, 0.00, 0.00, 0.00
90, 13406.93, 38376.11, -9169.96, -21016.63, -16254.10, -9442.74, -19726.69, -18984.92, 0.00, 0.00, 0.00
91, 13407.13, 38331.86, -9160.28, -21039.05, -16247.10, -9448.69, -19744.66, -19003.50, 0.00, 0.00, 0.00
92, 13422.42, 38587.43, -9399.02, -21034.04, -16205.26, -9423.70, -19748.64, -18995.21, 0.00, 0.00, 0.00
93, 13428.06, 38706.27, -9478.41, -21003.75, -16191.87, -9407.02, -19705.52, -18971.31, 0.00, 0.00, 0.00
94, 13406.33, 38427.65, -9213.03, -21009.32, -16247.39, -9440.35, -19698.68, -18992.05, 0.00, 0.00, 0.00
95, 13396.90, 38304.77, -9139.94, -21045.26, -16255.66, -9458.39, -19742.33, -19013.98, 0.00, 0.00, 0.00
96, 13415.18, 38536.55, -9358.99, -21037.37, -16213.22, -9435.25, -19735.16, -18998.33, 0.00, 0.00, 0.00
97, 13427.39, 38720.57, -9496.43, -21006.44, -16183.44, -9398.39, -19701.81, -18961.54, 0.07, 0.88, 0.42
98, 13405.41, 38494.66, -9255.75, -21013.90, -16237.96, -9427.76, -19711.27, -18974.48, 0.00, 0.00, 0.00
99, 13388.31, 38299.24, -9124.14, -21037.17, -16255.13, -9457.85, -19740.08, -19005.51, 0.00, 0.00, 0.00
100, 13412.41, 38493.52, -9308.47, -21026.08, -16209.55, -9434.25, -19737.91, -18997.02, 0.00, 0.00, 0.00
101, 13421.37, 38718.74, -9503.56, -20997.74, -16176.76, -9407.11, -19714.04, -18969.79, 0.00, 0.00, 0.00
102, 13404.94, 38560.20, -9319.05, -20996.83, -16225.29, -9438.38, -19716.07, -18980.05, 0.00, 0.00, 0.00
103, 13384.65, 38302.33, -9146.20, -21022.98, -16253.54, -9470.68, -19742.15, -19013.40, 0.00, 0.00, 0.00
104, 13401.64, 38441.40, -9284.13, -21029.71, -16220.75, -9454.54, -19763.05, -19018.52, 0.00, 0.00, 0.00
105, 13425.37, 38697.44, -9515.16, -20993.29, -16171.49, -9409.59, -19735.38, -18977.73, 0.00, 0.00, 0.00
106, 13411.54, 38620.66, -9387.49, -20988.44, -16212.43, -9435.52, -19716.79, -18987.20, 0.00, 0.00, 0.00
107, 13379.02, 38329.75, -9160.84, -21018.89, -16267.42, -9488.70, -19738.31, -19036.98, 0.06, 0.88, 0.43
108, 13389.68, 38411.92, -9250.74, -21029.10, -16248.22, -9472.27, -19746.02, -19022.03, 0.00, 0.00, 0.00
109, 13414.71, 38673.39, -9504.05, -21000.27, -16189.46, -9423.99, -19721.23, -18985.53, 0.00, 0.00, 0.00
110, 13408.48, 38672.47, -9451.03, -20985.36, -16202.76, -9423.85, -19707.73, -18985.73, 0.00, 0.00, 0.00
111, 13375.98, 38359.19, -9201.45, -21009.90, -16260.85, -9469.25, -19741.60, -19023.86, 0.00, 0.00, 0.00
112, 13379.51, 38363.15, -9237.55, -21030.40, -16245.29, -9470.25, -19764.62, -19035.04, 0.00, 0.00, 0.00
113, 13403.89, 38627.23, -9496.70, -21011.87, -16195.56, -9431.34, -19747.74, -19006.49, 0.00, 0.00, 0.00
114, 13407.54, 38708.17, -9516.55, -20983.24, -16198.17, -9422.06, -19720.68, -18994.42, 0.00, 0.00, 0.00
115, 13377.32, 38411.79, -9242.71, -20994.79, -16258.95, -9458.68, -19721.17, -19006.07, 0.00, 0.00, 0.00
116, 13371.89, 38333.93, -9212.03, -21022.60, -16259.31, -9473.92, -19756.77, -19029.80, 0.00, 0.00, 0.00
117, 13393.19, 38577.84, -9443.79, -21016.32, -16212.93, -9446.41, -19757.44, -19022.03, 0.06, 0.88, 0.43
118, 13396.94, 38723.93, -9545.42, -20996.36, -16199.00, -9431.47, -19732.14, -18997.78, 0.00, 0.00, 0.00
119, 13372.04, 38458.05, -9293.94, -21006.55, -16255.46, -9463.82, -19733.17, -18994.51, 0.00, 0.00, 0.00
120, 13365.29, 38306.64, -9197.23, -21023.31, -16261.47, -9480.42, -19747.18, -19023.39, 0.00, 0.00, 0.00
121, 13387.00, 38528.91, -9397.25, -21015.53, -16218.98, -9460.69, -19744.57, -19012.91, 0.00, 0.00, 0.00
122, 13398.48, 38728.75, -9561.83, -20991.21, -16188.03, -9429.24, -19722.44, -18976.94, 0.00, 0.00, 0.00
123, 13381.47, 38524.73, -9339.23, -20987.73, -16235.12, -9452.53, -19706.66, -18984.07, 0.00, 0.00, 0.00
124, 13364.29, 38307.76, -9185.78, -21020.83, -16256.11, -9480.36, -19744.48, -19016.33, 0.00, 0.00, 0.00
125, 13380.80, 38477.50, -9360.17, -21015.58, -16222.05, -9470.63, -19755.99, -19025.16, 0.00, 0.00, 0.00
126, 13394.80, 38718.52, -9568.42, -20983.26, -16182.13, -9440.91, -19729.44, -19001.69, 0.00, 0.00, 0.00
127, 13382.46, 38594.58, -9400.99, -20981.67, -16222.09, -9457.40, -19718.96, -18990.82, 0.06, 0.88, 0.43
128, 13358.30, 38324.03, -9199.20, -21006.21, -16261.38, -9491.00, -19744.55, -19023.61, 0.00, 0.00, 0.00
129, 13369.45, 38431.61, -9322.31, -21009.90, -16237.13, -9475.22, -19749.02, -19020.62, 0.00, 0.00, 0.00
130, 13391.73, 38689.24, -9563.10, -20987.71, -16189.90, -9438.27, -19731.52, -18993.08, 0.00, 0.00, 0.00
131, 13383.58, 38638.34, -9455.21, -20979.59, -16220.46, -9450.47, -19722.57, -18993.44, 0.00, 0.00, 0.00
132, 13349.96, 38336.73, -9226.00, -21010.91, -16270.33, -9490.42, -19750.72, -19027.64, 0.00, 0.00, 0.00
133, 13364.26, 38390.02, -9298.71, -21026.08, -16245.47, -9484.78, -19766.81, -19037.52, 0.00, 0.00, 0.00
134, 13388.72, 38661.18, -9548.82, -21002.35, -16193.57, -9442.70, -19737.84, -19002.60, 0.00, 0.00, 0.00
135, 13389.81, 38691.25, -9523.30, -20980.91, -16199.49, -9432.75, -19715.71, -18979.80, 0.00, 0.00, 0.00
136, 13360.87, 38382.48, -9251.48, -21001.74, -16257.07, -9478.21, -19739.27, -19015.10, 0.00, 0.00, 0.00
137, 13355.73, 38359.91, -9258.36, -21029.39, -16256.69, -9494.53, -19772.44, -19045.72, 0.06, 0.89, 0.42
138, 13379.15, 38620.84, -9518.56, -21017.70, -16208.57, -9457.65, -19759.88, -19021.20, 0.00, 0.00, 0.00
139, 13388.87, 38720.46, -9574.48, -20988.15, -16195.74, -9439.72, -19722.26, -18992.72, 0.00, 0.00, 0.00
140, 13367.30, 38435.23, -9301.34, -20994.61, -16251.37, -9476.07, -19716.67, -19000.70, 0.00, 0.00, 0.00
141, 13366.07, 38337.22, -9253.82, -21020.74, -16252.67, -9492.74, -19755.52, -19032.64, 0.00, 0.00, 0.00
142, 13384.81, 38573.88, -9485.34, -21016.58, -16210.36, -9470.34, -19767.88, -19023.12, 0.00, 0.00, 0.00
143, 13392.09, 38735.88, -9607.81, -20986.54, -16193.62, -9451.93, -19735.27, -18997.84, 0.00, 0.00, 0.00
144, 13369.92, 38492.90, -9363.73, -20989.88, -16254.75, -9490.24, -19729.50, -19013.44, 0.00, 0.00, 0.00
145, 13359.17, 38321.59, -9248.91, -21014.62, -16271.76, -9510.80, -19745.11, -19031.26, 0.00, 0.00, 0.00
146, 13382.91, 38528.62, -9449.78, -21018.37, -16232.42, -9484.58, -19757.58, -19019.01, 0.00, 0.00, 0.00
147, 13397.61, 38738.28, -9627.61, -20991.01, -16196.54, -9456.33, -19733.88, -18994.82, 0.07, 0.88, 0.42
148, 13378.61, 38557.12, -9417.82, -20989.96, -16248.62, -9491.47, -19716.52, -19006.56, 0.00, 0.00, 0.00
149, 13358.70, 38323.88, -9255.43, -21022.17, -16275.69, -9522.54, -19759.14, -19036.51, 0.00, 0.00, 0.00
150, 13382.06, 38484.05, -9409.06, -21016.70, -16238.79, -9502.26, -19763.05, -19024.62, 0.00, 0.00, 0.00
151, 13406.98, 38728.48, -9626.81, -20983.17, -16189.52, -9461.52, -19732.12, -18999.43, 0.00, 0.00, 0.00
152, 13390.46, 38621.93, -9472.47, -20984.98, -16230.09, -9481.34, -19737.89, -19011.97, 0.00, 0.00, 0.00
153, 13368.69, 38348.68, -9251.14, -21017.50, -16270.75, -9514.89, -19774.97, -19041.99, 0.00, 0.00, 0.00
154, 13384.51, 38452.66, -9354.29, -21029.06, -16244.60, -9508.72, -19778.66, -19046.05, 0.00, 0.00, 0.00
155, 13399.51, 38710.74, -9603.02, -21004.54, -16201.59, -9475.06, -19747.25, -19014.07, 0.00, 0.00, 0.00
156, 13392.70, 38679.76, -9522.83, -20984.42, -16225.40, -9477.83, -19729.28, -19008.68, 0.00, 0.00, 0.00
157, 13362.27, 38378.68, -9269.71, -21017.63, -16283.67, -9524.28, -19754.11, -19043.02, 0.07, 0.89, 0.42
158, 13376.13, 38404.32, -9326.78, -21031.58, -16260.98, -9517.31, -19764.66, -19035.53, 0.00, 0.00, 0.00
159, 13399.33, 38664.05, -9577.97, -21010.51, -16212.17, -9478.37, -19754.38, -19010.87, 0.00, 0.00, 0.00
160, 13394.13, 38716.89, -9571.73, -20990.95, -16226.79, -9479.93, -19748.08, -19012.68, 0.00, 0.00, 0.00
161, 13368.71, 38418.20, -9304.00, -21009.83, -16277.57, -9517.35, -19763.21, -19035.28, 0.00, 0.00, 0.00
162, 13365.18, 38371.42, -9295.49, -21037.75, -16269.41, -9530.65, -19790.14, -19055.53, 0.00, 0.00, 0.00
163, 13387.78, 38626.29, -9545.63, -21027.27, -16225.40, -9503.36, -19785.29, -19038.63, 0.00, 0.00, 0.00
164, 13395.87, 38748.29, -9614.13, -20999.57, -16211.25, -9482.82, -19758.29, -19012.53, 0.00, 0.00, 0.00
165, 13369.67, 38468.02, -9351.88, -21014.35, -16271.22, -9532.88, -19768.20, -19038.66, 0.00, 0.00, 0.00
166, 13367.59, 38347.12, -9273.78, -21035.76, -16276.52, -9550.43, -19760.06, -19048.65, 0.00, 0.00, 0.00
167, 13389.12, 38576.61, -9497.84, -21029.50, -16235.90, -9528.53, -19764.17, -19040.42, 0.07, 0.89, 0.42
168, 13403.31, 38758.97, -9639.46, -20996.78, -16209.10, -9492.45, -19742.78, -19004.08, 0.00, 0.00, 0.00
169, 13378.10, 38533.98, -9403.87, -21001.50, -16266.19, -9526.92, -19747.38, -19020.35, 0.00, 0.00, 0.00
170, 13359.03, 38336.04, -9279.75, -21033.75, -16282.28, -9549.72, -19778.21, -19054.79, 0.00, 0.00, 0.00
171, 13381.81, 38526.34, -9472.31, -21038.04, -16241.54, -9525.91, -19791.24, -19050.10, 0.00, 0.00, 0.00
172, 13391.24, 38754.44, -9669.12, -21021.97, -16211.70, -9497.97, -19779.97, -19023.81, 0.00, 0.00, 0.00
173, 13375.60, 38592.32, -9492.76, -21006.68, -16259.46, -9526.27, -19749.13, -19026.74, 0.00, 0.00, 0.00
174, 13359.68, 38334.78, -9294.01, -21028.16, -16285.23, -9558.50, -19762.58, -19052.02, 0.00, 0.00, 0.00
175, 13372.78, 38472.80, -9433.58, -21040.79, -16256.78, -9552.84, -19779.39, -19059.02, 0.00, 0.00, 0.00
176, 13396.67, 38727.37, -9672.31, -21013.90, -16208.12, -9519.29, -19757.87, -19028.58, 0.00, 0.00, 0.00
177, 13388.49, 38649.27, -9541.89, -21001.16, -16240.62, -9529.04, -19750.29, -19019.93, 0.06, 0.88, 0.42
178, 13364.49, 38358.41, -9310.48, -21024.43, -16282.40, -9566.52, -19779.82, -19049.18, 0.00, 0.00, 0.00
179, 13381.25, 38441.22, -9393.88, -21034.38, -16251.62, -9557.09, -19793.38, -19046.99, 0.00, 0.00, 0.00
180, 13401.70, 38710.20, -9647.33, -21004.58, -16198.22, -9518.49, -19754.98, -19015.50, 0.00, 0.00, 0.00
181, 13399.69, 38714.98, -9600.52, -20984.42, -16218.63, -9524.91, -19731.76, -19012.68, 0.00, 0.00, 0.00
182, 13367.37, 38409.04, -9333.57, -21021.08, -16281.64, -9577.10, -19769.07, -19051.53, 0.00, 0.00, 0.00
183, 13376.29, 38408.43, -9369.76, -21035.20, -16269.07, -9579.40, -19791.84, -19064.96, 0.00, 0.00, 0.00
184, 13395.13, 38667.49, -9623.25, -21013.75, -16224.10, -9543.95, -19769.65, -19039.82, 0.00, 0.00, 0.00
185, 13395.53, 38748.45, -9646.57, -20989.83, -16226.07, -9532.06, -19739.70, -19014.00, 0.00, 0.00, 0.00
186, 13374.12, 38448.91, -9375.64, -21004.74, -16278.75, -9571.37, -19748.68, -19037.11, 0.00, 0.00, 0.00
187, 13367.86, 38368.82, -9337.71, -21034.24, -16279.78, -9587.45, -19780.20, -19066.13, 0.06, 0.89, 0.42
188, 13395.69, 38613.00, -9568.71, -21021.75, -16232.35, -9557.76, -19777.18, -19056.27, 0.00, 0.00, 0.00
189, 13403.83, 38759.40, -9669.14, -20982.41, -16209.37, -9529.67, -19743.09, -19019.59, 0.00, 0.00, 0.00
190, 13376.47, 38498.64, -9419.85, -20996.27, -16270.26, -9563.89, -19750.16, -19021.02, 0.00, 0.00, 0.00
191, 13364.58, 38348.84, -9317.57, -21027.29, -16283.89, -9588.85, -19778.54, -19050.77, 0.00, 0.00, 0.00
192, 13381.99, 38568.71, -9525.89, -21030.46, -16246.90, -9574.95, -19780.02, -19053.21, 0.00, 0.00, 0.00
193, 13395.09, 38771.71, -9707.79, -21001.63, -16214.20, -9548.31, -19754.67, -19029.98, 0.00, 0.00, 0.00
194, 13370.90, 38566.64, -9482.57, -21003.20, -16268.20, -9579.20, -19746.29, -19036.51, 0.00, 0.00, 0.00
195, 13347.92, 38343.88, -9312.43, -21044.48, -16300.28, -9616.30, -19794.21, -19074.22, 0.00, 0.00, 0.00
196, 13367.35, 38516.01, -9477.45, -21053.51, -16261.81, -9599.05, -19811.04, -19063.69, 0.00, 0.00, 0.00
197, 13383.75, 38755.82, -9694.46, -21021.68, -16218.42, -9566.26, -19764.62, -19026.45, 0.07, 0.89, 0.42
198, 13374.59, 38621.13, -9522.87, -21001.77, -16255.60, -9582.04, -19739.52, -19022.79, 0.00, 0.00, 0.00
199, 13346.05, 38342.56, -9308.99, -21030.62, -16296.17, -9619.05, -19767.79, -19063.60, 0.00, 0.00, 0.00
200, 13366.59, 38453.07, -9438.45, -21035.43, -16265.79, -9608.30, -19773.40, -19061.61, 0.00, 0.00, 0.00
201, 13389.50, 38718.47, -9682.48, -21009.37, -16212.48, -9566.48, -19747.68, -19019.32, 0.00, 0.00, 0.00
202, 13375.44, 38669.25, -9588.72, -21003.78, -16241.65, -9581.75, -19733.91, -19021.98, 0.00, 0.00, 0.00
203, 13349.62, 38371.71, -9348.84, -21029.08, -16285.37, -9619.90, -19753.00, -19047.60, 0.00, 0.00, 0.00
204, 13359.59, 38422.20, -9420.05, -21046.98, -16266.30, -9619.12, -19776.58, -19064.34, 0.00, 0.00, 0.00
205, 13377.54, 38692.63, -9672.29, -21026.49, -16222.34, -9581.57, -19761.98, -19036.78, 0.00, 0.00, 0.00
206, 13373.76, 38721.98, -9651.19, -21006.06, -16234.38, -9583.91, -19745.64, -19026.01, 0.00, 0.00, 0.00
207, 13350.18, 38414.40, -9387.60, -21033.24, -16286.42, -9626.81, -19773.58, -19053.34, 0.06, 0.89, 0.42
208, 13358.65, 38394.51, -9398.60, -21049.15, -16268.36, -9624.12, -19774.97, -19047.64, 0.00, 0.00, 0.00
209, 13382.91, 38658.86, -9642.34, -21032.07, -16221.02, -9591.07, -19761.11, -19021.15, 0.00, 0.00, 0.00
210, 13384.96, 38770.30, -9699.36, -21015.09, -16220.08, -9587.27, -19753.00, -19012.28, 0.00, 0.00, 0.00
211, 13361.27, 38477.97, -9434.83, -21028.90, -16278.28, -9633.02, -19773.76, -19040.22, 0.00, 0.00, 0.00
212, 13356.44, 38375.75, -9373.32, -21058.16, -16280.43, -9650.81, -19800.49, -19062.66, 0.00, 0.00, 0.00
213, 13381.03, 38616.73, -9600.23, -21051.39, -16235.39, -9623.03, -19791.06, -19049.01, 0.00, 0.00, 0.00
214, 13396.23, 38781.91, -9717.80, -21014.30, -16206.11, -9587.09, -19745.49, -19006.04, 0.00, 0.00, 0.00
215, 13364.91, 38535.01, -9463.66, -21028.23, -16270.79, -9626.05, -19761.67, -19024.26, 0.00, 0.00, 0.00
216, 13349.74, 38358.36, -9347.70, -21057.78, -16285.82, -9646.83, -19791.60, -19055.31, 0.00, 0.00, 0.00
217, 13374.28, 38560.25, -9540.89, -21054.56, -16241.69, -9627.28, -19795.20, -19051.62, 0.06, 0.89, 0.42
218, 13391.91, 38774.60, -9725.91, -21024.74, -16200.25, -9590.06, -19770.63, -19016.95, 0.00, 0.00, 0.00
219, 13372.31, 38599.41, -9522.04, -21028.56, -16256.65, -9622.34, -19754.43, -19024.06, 0.00, 0.00, 0.00
220, 13356.98, 38356.51, -9361.33, -21055.32, -16281.84, -9654.39, -19783.84, -19060.25, 0.00, 0.00, 0.00
221, 13376.02, 38516.97, -9505.91, -21060.95, -16247.17, -9638.45, -19807.85, -19065.32, 0.00, 0.00, 0.00
222, 13391.76, 38769.23, -9713.53, -21032.50, -16204.88, -9597.08, -19766.65, -19025.60, 0.00, 0.00, 0.00
223, 13380.33, 38664.00, -9578.28, -21027.87, -16243.59, -9615.97, -19754.38, -19026.07, 0.00, 0.00, 0.00
224, 13352.55, 38381.36, -9365.72, -21061.40, -16289.08, -9661.83, -19790.90, -19063.89, 0.00, 0.00, 0.00
225, 13363.17, 38477.52, -9475.02, -21071.75, -16267.89, -9663.75, -19794.95, -19067.65, 0.00, 0.00, 0.00
226, 13386.71, 38737.61, -9720.91, -21041.35, -16215.52, -9622.60, -19772.91, -19032.46, 0.00, 0.00, 0.00
227, 13383.82, 38710.70, -9642.48, -21022.87, -16229.51, -9615.21, -19752.44, -19004.95, 0.07, 0.89, 0.42
228, 13353.22, 38402.29, -9380.51, -21048.77, -16286.02, -9655.73, -19767.70, -19032.67, 0.00, 0.00, 0.00
229, 13358.99, 38425.46, -9429.58, -21071.97, -16270.66, -9663.35, -19789.18, -19057.41, 0.00, 0.00, 0.00
230, 13376.36, 38691.52, -9691.29, -21059.57, -16222.72, -9637.76, -19781.67, -19046.68, 0.00, 0.00, 0.00
231, 13375.46, 38747.29, -9696.90, -21036.84, -16221.49, -9621.91, -19747.59, -19016.33, 0.00, 0.00, 0.00
232, 13345.53, 38442.41, -9432.15, -21057.49, -16281.64, -9664.36, -19771.68, -19038.37, 0.00, 0.00, 0.00
233, 13343.07, 38386.91, -9420.68, -21079.95, -16281.08, -9681.19, -19803.40, -19061.08, 0.00, 0.00, 0.00
234, 13369.20, 38639.30, -9661.21, -21066.34, -16231.43, -9653.70, -19788.71, -19043.95, 0.00, 0.00, 0.00
235, 13379.13, 38765.50, -9730.72, -21035.74, -16214.09, -9629.06, -19752.19, -19011.99, 0.00, 0.00, 0.00
236, 13350.50, 38490.71, -9466.05, -21052.75, -16278.48, -9670.77, -19759.61, -19030.63, 0.00, 0.00, 0.00
237, 13342.27, 38360.66, -9398.75, -21082.43, -16291.07, -9699.00, -19793.30, -19072.32, 0.00, 0.00, 0.00
238, 13365.67, 38594.49, -9615.32, -21081.56, -16251.10, -9667.46, -19798.64, -19053.68, 0.07, 0.89, 0.42
239, 13380.71, 38779.23, -9762.66, -21052.75, -16217.69, -9633.53, -19767.90, -19007.86, 0.00, 0.00, 0.00
240, 13363.55, 38551.44, -9529.75, -21049.58, -16268.81, -9671.62, -19755.25, -19017.45, 0.00, 0.00, 0.00
241, 13347.92, 38355.82, -9395.71, -21080.49, -16295.85, -9710.89, -19796.56, -19063.18, 0.00, 0.00, 0.00
242, 13365.49, 38542.30, -9576.07, -21085.96, -16263.49, -9701.01, -19810.93, -19059.09, 0.00, 0.00, 0.00
243, 13379.75, 38769.23, -9766.77, -21052.97, -16221.46, -9663.15, -19765.47, -19013.91, 0.00, 0.00, 0.00
244, 13357.98, 38611.12, -9585.12, -21038.62, -16267.62, -9686.60, -19750.60, -19019.34, 0.00, 0.00, 0.00
245, 13340.28, 38351.73, -9394.17, -21060.42, -16294.76, -9710.20, -19775.26, -19044.63, 0.00, 0.00, 0.00
246, 13362.45, 38499.45, -9522.76, -21074.21, -16262.84, -9700.46, -19790.81, -19052.31, 0.00, 0.00, 0.00
247, 13378.03, 38759.55, -9750.84, -21057.49, -16225.00, -9671.58, -19779.30, -19035.10, 0.00, 0.00, 0.00
248, 13368.73, 38677.77, -9630.65, -21043.59, -16258.30, -9684.85, -19766.74, -19024.02, 0.06, 0.89, 0.42
249, 13339.81, 38379.38, -9402.24, -21066.90, -16305.35, -9722.25, -19782.01, -19047.35, 0.00, 0.00, 0.00
250, 13352.82, 38450.43, -9483.60, -21077.34, -16280.03, -9707.85, -19787.48, -19043.84, 0.00, 0.00, 0.00
251, 13375.51, 38715.66, -9734.63, -21056.73, -16234.34, -9676.74, -19769.60, -19023.77, 0.00, 0.00, 0.00
252, 13373.58, 38718.34, -9689.01, -21041.15, -16251.59, -9681.57, -19770.21, -19023.19, 0.00, 0.00, 0.00
253, 13341.04, 38410.78, -9431.30, -21064.48, -16309.55, -9727.46, -19792.96, -19053.92, 0.00, 0.00, 0.00
254, 13349.36, 38409.71, -9452.46, -21072.08, -16288.30, -9729.51, -19786.26, -19064.94, 0.00, 0.00, 0.00
255, 13373.09, 38673.03, -9708.41, -21054.76, -16241.09, -9697.17, -19774.23, -19042.84, 0.00, 0.00, 0.00
0, 13377.81, 38756.56, -9728.84, -21032.86, -16242.68, -9686.49, -19744.86, -19021.20, 0.00, 0.00, 0.00
1, 13355.57, 38464.58, -9454.25, -21050.36, -16298.18, -9724.06, -19757.31, -19034.43, 0.00, 0.00, 0.00
2, 13359.55, 38389.59, -9426.65, -21080.85, -16294.17, -9733.27, -19797.90, -19055.80, 0.06, 0.89, 0.42
3, 13393.97, 38643.17, -9660.51, -21070.27, -16242.92, -9699.92, -19795.08, -19043.10, 0.00, 0.00, 0.00
4, 13408.16, 38799.48, -9761.92, -21039.16, -16220.53, -9675.62, -19766.25, -19021.87, 0.00, 0.00, 0.00
5, 13382.39, 38543.14, -9503.94, -21048.19, -16274.91, -9715.57, -19779.66, -19045.38, 0.00, 0.00, 0.00
6, 13373.14, 38388.18, -9406.40, -21073.54, -16282.89, -9730.79, -19805.86, -19062.28, 0.00, 0.00, 0.00
7, 13394.21, 38601.80, -9609.33, -21074.12, -16245.34, -9714.51, -19812.74, -19063.38, 0.00, 0.00, 0.00
8, 13406.55, 38799.30, -9770.48, -21045.20, -16217.24, -9692.97, -19773.80, -19038.81, 0.00, 0.00, 0.00
9, 13380.94, 38598.69, -9553.98, -21055.21, -16275.74, -9719.37, -19772.04, -19035.10, 0.00, 0.00, 0.00
10, 13356.13, 38372.65, -9410.24, -21082.52, -16308.46, -9754.59, -19808.58, -19067.27, 0.00, 0.00, 0.00
11, 13371.98, 38541.31, -9577.34, -21084.36, -16273.50, -9742.23, -19815.76, -19065.21, 0.00, 0.00, 0.00
12, 13381.79, 38775.96, -9788.30, -21057.80, -16239.79, -9711.88, -19787.39, -19039.08, 0.06, 0.89, 0.43
13, 13360.62, 38640.58, -9620.68, -21050.63, -16286.55, -9731.77, -19765.13, -19033.98, 0.00, 0.00, 0.00
14, 13340.73, 38365.27, -9422.98, -21077.69, -16316.19, -9757.79, -19782.79, -19057.43, 0.00, 0.00, 0.00
15, 13350.12, 38481.25, -9543.95, -21091.40, -16288.21, -9750.08, -19810.22, -19074.22, 0.00, 0.00, 0.00
16, 13370.21, 38744.16, -9780.54, -21059.95, -16238.74, -9711.54, -19783.04, -19035.57, 0.00, 0.00, 0.00
17, 13360.26, 38697.48, -9677.21, -21052.84, -16269.28, -9727.99, -19775.35, -19034.43, 0.00, 0.00, 0.00
18, 13331.09, 38391.42, -9436.37, -21083.55, -16320.59, -9771.18, -19818.51, -19074.62, 0.00, 0.00, 0.00
19, 13346.18, 38441.63, -9497.97, -21097.43, -16298.27, -9768.32, -19833.51, -19092.99, 0.00, 0.00, 0.00
20, 13376.24, 38713.06, -9749.67, -21069.92, -16244.80, -9728.22, -19794.32, -19064.34, 0.00, 0.00, 0.00
21, 13374.32, 38750.23, -9728.40, -21058.99, -16254.77, -9721.91, -19789.27, -19034.30, 0.00, 0.00, 0.00
22, 13347.81, 38446.05, -9467.95, -21085.99, -16314.00, -9765.45, -19820.25, -19065.39, 0.06, 0.89, 0.43
23, 13356.98, 38422.89, -9466.37, -21091.57, -16301.82, -9770.82, -19805.12, -19080.05, 0.00, 0.00, 0.00
24, 13383.35, 38687.83, -9708.44, -21061.06, -16245.22, -9736.40, -19780.67, -19054.39, 0.00, 0.00, 0.00
25, 13381.12, 38794.11, -9762.21, -21047.56, -16247.84, -9733.96, -19783.46, -19044.85, 0.00, 0.00, 0.00
26, 13353.56, 38504.90, -9501.93, -21070.70, -16311.01, -9777.64, -19806.69, -19074.62, 0.00, 0.00, 0.00
27, 13344.77, 38399.76, -9444.19, -21098.93, -16318.27, -9798.58, -19838.76, -19109.38, 0.00, 0.00, 0.00
28, 13371.17, 38642.84, -9663.91, -21091.37, -16269.97, -9760.18, -19850.38, -19084.34, 0.00, 0.00, 0.00
29, 13385.50, 38814.03, -9785.86, -21058.29, -16241.92, -9721.60, -19809.46, -19035.44, 0.00, 0.00, 0.00
30, 13359.48, 38565.12, -9540.93, -21065.89, -16303.85, -9767.26, -19788.45, -19055.69, 0.00, 0.00, 0.00
31, 13343.79, 38383.49, -9423.16, -21100.52, -16321.74, -9802.45, -19828.70, -19105.26, 0.00, 0.00, 0.00
32, 13368.89, 38587.02, -9617.37, -21094.70, -16276.99, -9779.69, -19826.38, -19100.84, 0.07, 0.88, 0.42
33, 13384.18, 38807.63, -9801.40, -21066.36, -16235.28, -9733.58, -19799.42, -19035.75, 0.00, 0.00, 0.00
34, 13370.79, 38627.97, -9598.78, -21068.37, -16280.14, -9753.05, -19808.32, -19036.04, 0.00, 0.00, 0.00
35, 13350.32, 38386.17, -9416.14, -21097.45, -16313.11, -9794.33, -19819.60, -19070.78, 0.00, 0.00, 0.00
36, 13368.15, 38542.25, -9564.07, -21095.11, -16278.82, -9784.74, -19808.65, -19067.67, 0.00, 0.00, 0.00
37, 13387.98, 38790.18, -9789.91, -21060.51, -16231.10, -9747.75, -19785.47, -19041.38, 0.00, 0.00, 0.00
38, 13372.76, 38684.92, -9648.06, -21053.73, -16271.87, -9768.07, -19781.14, -19037.63, 0.00, 0.00, 0.00
39, 13347.28, 38400.18, -9422.33, -21084.06, -16312.41, -9804.61, -19814.53, -19067.91, 0.00, 0.00, 0.00
40, 13360.13, 38495.00, -9517.15, -21095.89, -16289.10, -9796.77, -19827.49, -19071.92, 0.00, 0.00, 0.00
41, 13382.17, 38763.89, -9768.81, -21076.35, -16243.03, -9765.99, -19815.63, -19056.49, 0.00, 0.00, 0.00
42, 13377.18, 38745.96, -9702.38, -21057.60, -16265.48, -9778.02, -19797.36, -19057.25, 0.06, 0.88, 0.42
43, 13354.27, 38438.59, -9447.84, -21075.50, -16314.45, -9816.53, -19802.01, -19071.98, 0.00, 0.00, 0.00
44, 13364.67, 38455.26, -9498.69, -21084.71, -16296.41, -9812.68, -19821.79, -19074.64, 0.00, 0.00, 0.00
45, 13395.31, 38729.45, -9753.38, -21068.93, -16243.46, -9780.68, -19816.03, -19056.69, 0.00, 0.00, 0.00
46, 13402.02, 38796.10, -9756.63, -21047.83, -16247.64, -9775.85, -19796.36, -19040.98, 0.00, 0.00, 0.00
47, 13354.34, 38479.84, -9484.98, -21065.83, -16317.82, -9824.51, -19819.16, -19077.59, 0.00, 0.00, 0.00
48, 13337.71, 38409.13, -9467.24, -21084.18, -16318.70, -9835.50, -19824.23, -19084.19, 0.00, 0.00, 0.00
49, 13356.93, 38648.82, -9713.98, -21069.74, -16274.84, -9803.01, -19807.49, -19059.76, 0.00, 0.00, 0.00
50, 13357.38, 38767.65, -9799.85, -21043.41, -16263.55, -9783.16, -19784.22, -19038.52, 0.00, 0.00, 0.00
51, 13319.58, 38486.33, -9537.47, -21062.05, -16330.03, -9829.74, -19799.60, -19066.62, 0.00, 0.00, 0.00
52, 13299.15, 38336.21, -9463.77, -21094.64, -16343.08, -9854.97, -19836.14, -19100.73, 0.06, 0.88, 0.41
53, 13313.91, 38550.63, -9676.41, -21081.40, -16302.74, -9828.26, -19822.29, -19082.22, 0.00, 0.00, 0.00
54, 13316.57, 38733.87, -9824.08, -21060.30, -16283.31, -9810.60, -19805.37, -19069.88, 0.00, 0.00, 0.00
55, 13286.99, 38504.59, -9600.57, -21063.10, -16339.64, -9842.52, -19793.88, -19079.78, 0.00, 0.00, 0.00
56, 13269.31, 38295.89, -9458.54, -21085.43, -16352.89, -9858.71, -19814.08, -19095.27, 0.00, 0.00, 0.00
57, 13294.62, 38481.28, -9638.56, -21088.02, -16307.76, -9833.16, -19818.55, -19087.34, 0.00, 0.00, 0.00
58, 13314.13, 38709.00, -9831.01, -21059.86, -16261.09, -9799.50, -19782.23, -19063.69, 0.00, 0.00, 0.00
59, 13297.75, 38561.56, -9633.24, -21055.50, -16307.76, -9831.01, -19772.55, -19071.74, 0.00, 0.00, 0.00
60, 13270.61, 38306.78, -9438.49, -21092.47, -16347.42, -9868.12, -19811.98, -19110.09, 0.00, 0.00, 0.00
61, 13280.98, 38440.08, -9579.15, -21111.98, -16316.84, -9848.54, -19833.28, -19098.80, 0.00, 0.00, 0.00
62, 13305.66, 38697.17, -9819.01, -21082.23, -16264.04, -9805.31, -19810.89, -19064.79, 0.06, 0.88, 0.42
63, 13298.10, 38629.27, -9692.70, -21062.52, -16298.65, -9824.31, -19792.87, -19074.89, 0.00, 0.00, 0.00
64, 13273.31, 38336.75, -9444.89, -21090.01, -16342.68, -9858.55, -19815.36, -19089.10, 0.00, 0.00, 0.00
65, 13287.06, 38402.73, -9523.79, -21102.77, -16320.48, -9854.33, -19815.40, -19087.21, 0.00, 0.00, 0.00
66, 13311.11, 38668.92, -9782.62, -21083.53, -16270.93, -9815.12, -19805.72, -19050.37, 0.00, 0.00, 0.00
67, 13308.99, 38680.50, -9742.32, -21055.21, -16288.88, -9824.62, -19779.71, -19049.79, 0.00, 0.00, 0.00
68, 13283.51, 38375.95, -9482.15, -21075.35, -16350.01, -9877.55, -19798.19, -19088.21, 0.00, 0.00, 0.00
69, 13291.60, 38371.42, -9508.23, -21101.54, -16336.04, -9879.72, -19832.08, -19100.68, 0.00, 0.00, 0.00
70, 13310.58, 38633.83, -9762.21, -21091.75, -16287.58, -9844.78, -19839.63, -19088.86, 0.00, 0.00, 0.00
71, 13307.96, 38720.91, -9792.88, -21063.30, -16288.36, -9834.30, -19802.77, -19066.95, 0.00, 0.00, 0.00
72, 13277.52, 38424.91, -9528.26, -21075.37, -16346.25, -9873.93, -19811.11, -19092.17, 0.06, 0.88, 0.42
73, 13274.79, 38341.04, -9495.83, -21102.17, -16346.66, -9892.12, -19846.38, -19128.33, 0.00, 0.00, 0.00
74, 13298.17, 38587.69, -9734.92, -21092.58, -16301.28, -9868.61, -19852.17, -19118.47, 0.00, 0.00, 0.00
75, 13306.13, 38740.15, -9840.56, -21071.26, -16285.01, -9849.30, -19843.92, -19096.44, 0.00, 0.00, 0.00
76, 13282.77, 38482.19, -9594.35, -21075.32, -16342.32, -9882.42, -19833.98, -19105.11, 0.00, 0.00, 0.00
77, 13269.51, 38322.69, -9497.08, -21096.22, -16353.97, -9902.98, -19840.57, -19130.66, 0.00, 0.00, 0.00
78, 13291.20, 38539.12, -9703.99, -21097.81, -16312.28, -9882.40, -19847.48, -19121.58, 0.00, 0.00, 0.00
79, 13310.66, 38749.12, -9868.47, -21064.78, -16271.33, -9848.00, -19819.25, -19086.71, 0.00, 0.00, 0.00
80, 13289.65, 38548.46, -9650.72, -21066.99, -16324.13, -9879.63, -19820.88, -19097.98, 0.00, 0.00, 0.00
81, 13275.28, 38330.18, -9496.41, -21093.01, -16344.53, -9903.50, -19844.48, -19121.80, 0.00, 0.00, 0.00
82, 13294.86, 38503.58, -9655.30, -21091.55, -16308.99, -9895.16, -19849.89, -19132.85, 0.06, 0.89, 0.43
83, 13313.75, 38747.44, -9871.33, -21062.18, -16268.27, -9861.39, -19828.72, -19108.55, 0.00, 0.00, 0.00
84, 13302.71, 38622.70, -9717.98, -21059.12, -16309.08, -9874.46, -19823.65, -19093.73, 0.00, 0.00, 0.00
85, 13281.81, 38348.80, -9505.62, -21088.49, -16348.45, -9916.73, -19852.97, -19141.72, 0.00, 0.00, 0.00
86, 13302.06, 38465.70, -9625.91, -21088.45, -16314.85, -9903.32, -19853.73, -19136.69, 0.00, 0.00, 0.00
87, 13324.08, 38732.87, -9865.61, -21052.12, -16266.64, -9861.19, -19834.67, -19099.43, 0.00, 0.00, 0.00
88, 13311.45, 38690.13, -9767.31, -21050.02, -16299.85, -9877.28, -19843.32, -19104.79, 0.00, 0.00, 0.00
89, 13281.58, 38386.46, -9528.08, -21075.93, -16350.21, -9916.98, -19854.72, -19137.76, 0.00, 0.00, 0.00
90, 13291.84, 38433.22, -9591.60, -21074.97, -16327.30, -9909.11, -19836.08, -19141.68, 0.00, 0.00, 0.00
91, 13314.40, 38703.96, -9839.26, -21051.12, -16276.58, -9869.55, -19817.30, -19111.43, 0.00, 0.00, 0.00
92, 13312.97, 38745.18, -9817.78, -21036.79, -16284.41, -9864.52, -19804.09, -19097.60, 0.06, 0.89, 0.42
93, 13284.38, 38427.74, -9554.92, -21061.13, -16338.32, -9904.15, -19831.67, -19129.99, 0.00, 0.00, 0.00
94, 13286.64, 38394.53, -9557.20, -21086.34, -16326.81, -9907.34, -19857.27, -19145.99, 0.00, 0.00, 0.00
95, 13309.77, 38657.77, -9804.73, -21065.58, -16276.03, -9867.65, -19828.41, -19109.22, 0.00, 0.00, 0.00
96, 13311.98, 38766.80, -9865.77, -21043.43, -16271.20, -9853.95, -19821.62, -19089.51, 0.00, 0.00, 0.00
97, 13279.98, 38472.58, -9602.13, -21062.61, -16333.85, -9894.65, -19831.92, -19107.43, 0.00, 0.00, 0.00
98, 13273.49, 38365.79, -9541.20, -21079.26, -16332.60, -9901.91, -19820.97, -19121.11, 0.00, 0.00, 0.00
99, 13296.02, 38599.65, -9771.65, -21064.89, -16287.69, -9873.64, -19812.52, -19106.96, 0.00, 0.00, 0.00
100, 13299.80, 38771.87, -9894.69, -21046.94, -16268.49, -9850.82, -19807.60, -19092.10, 0.00, 0.00, 0.00
101, 13272.47, 38526.14, -9659.19, -21055.54, -16329.38, -9894.71, -19821.64, -19127.33, 0.00, 0.00, 0.00
102, 13258.81, 38344.35, -9546.09, -21086.99, -16342.28, -9917.33, -19848.50, -19149.28, 0.06, 0.89, 0.42
103, 13285.81, 38554.97, -9740.31, -21082.03, -16293.21, -9876.41, -19840.88, -19119.01, 0.00, 0.00, 0.00
104, 13303.40, 38782.55, -9917.51, -21047.34, -16252.85, -9838.05, -19800.36, -19077.35, 0.00, 0.00, 0.00
105, 13283.82, 38608.03, -9714.11, -21052.91, -16307.99, -9870.13, -19815.47, -19090.65, 0.00, 0.00, 0.00
106, 13261.11, 38363.28, -9534.63, -21086.77, -16343.86, -9906.34, -19849.02, -19132.62, 0.00, 0.00, 0.00
107, 13283.22, 38513.35, -9687.51, -21087.78, -16311.05, -9888.97, -19843.59, -19129.27, 0.00, 0.00, 0.00
108, 13305.01, 38768.21, -9906.72, -21057.82, -16266.57, -9850.03, -19820.41, -19099.88, 0.00, 0.00, 0.00
109, 13294.86, 38672.63, -9757.77, -21051.45, -16303.79, -9866.84, -19817.44, -19099.72, 0.00, 0.00, 0.00
110, 13267.86, 38387.38, -9532.71, -21085.56, -16350.50, -9906.49, -19851.37, -19133.27, 0.00, 0.00, 0.00
111, 13286.28, 38475.55, -9630.41, -21091.48, -16322.00, -9895.92, -19854.70, -19130.99, 0.00, 0.00, 0.00
112, 13315.89, 38745.94, -9862.24, -21067.77, -16269.19, -9860.34, -19839.05, -19105.04, 0.06, 0.89, 0.42
113, 13312.56, 38737.29, -9796.37, -21059.54, -16293.48, -9873.68, -19830.82, -19106.99, 0.00, 0.00, 0.00
114, 13272.98, 38418.58, -9547.37, -21074.48, -16348.33, -9913.13, -19835.54, -19135.10, 0.00, 0.00, 0.00
115, 13267.15, 38421.78, -9583.24, -21088.20, -16332.11, -9909.04, -19855.19, -19150.15, 0.00, 0.00, 0.00
116, 13280.83, 38683.25, -9832.51, -21075.71, -16287.40, -9871.92, -19846.92, -19113.31, 0.00, 0.00, 0.00
117, 13283.51, 38752.87, -9840.20, -21052.57, -16285.06, -9858.66, -19817.46, -19085.53, 0.00, 0.00, 0.00
118, 13247.05, 38457.54, -9572.11, -21076.53, -16350.03, -9910.14, -19829.51, -19126.07, 0.00, 0.00, 0.00
119, 13237.89, 38388.29, -9562.23, -21095.53, -16348.22, -9926.39, -19854.79, -19155.60, 0.00, 0.00, 0.00
120, 13260.73, 38630.72, -9800.66, -21075.44, -16296.90, -9877.97, -19842.78, -19113.71, 0.00, 0.00, 0.00
121, 13274.68, 38772.41, -9876.77, -21046.29, -16277.01, -9848.31, -19810.66, -19080.19, 0.00, 0.00, 0.00
122, 13250.14, 38509.21, -9617.71, -21062.76, -16337.60, -9890.89, -19819.25, -19103.72, 0.06, 0.89, 0.42
123, 13247.34, 38370.95, -9539.25, -21087.48, -16340.44, -9904.71, -19836.70, -19124.87, 0.00, 0.00, 0.00
124, 13275.84, 38596.97, -9744.58, -21077.22, -16289.30, -9871.40, -19829.01, -19110.79, 0.00, 0.00, 0.00
125, 13284.40, 38792.61, -9889.46, -21059.97, -16265.16, -9849.12, -19819.43, -19091.36, 0.00, 0.00, 0.00
126, 13264.67, 38584.61, -9669.43, -21071.90, -16328.08, -9887.76, -19825.79, -19110.29, 0.00, 0.00, 0.00
127, 13254.72, 38380.83, -9520.52, -21099.80, -16345.88, -9912.24, -19854.29, -19135.10, 0.00, 0.00, 0.00
128, 13276.40, 38561.21, -9690.49, -21098.28, -16306.69, -9899.79, -19860.51, -19133.45, 0.00, 0.00, 0.00
129, 13296.78, 38798.18, -9889.06, -21060.13, -16261.59, -9862.10, -19821.97, -19095.68, 0.00, 0.00, 0.00
130, 13278.01, 38658.19, -9710.33, -21067.10, -16315.52, -9896.64, -19827.56, -19111.34, 0.00, 0.00, 0.00
131, 13251.99, 38392.72, -9522.38, -21099.98, -16356.02, -9940.47, -19861.11, -19154.80, 0.00, 0.00, 0.00
132, 13265.96, 38514.47, -9660.67, -21109.03, -16325.69, -9928.96, -19882.03, -19153.34, 0.07, 0.89, 0.42
133, 13286.28, 38770.35, -9894.60, -21080.51, -16279.38, -9891.76, -19854.74, -19115.46, 0.00, 0.00, 0.00
134, 13281.54, 38713.13, -9771.27, -21062.74, -16313.91, -9908.68, -19819.96, -19111.84, 0.00, 0.00, 0.00
135, 13255.37, 38427.07, -9536.08, -21091.64, -16361.92, -9951.31, -19839.74, -19142.62, 0.00, 0.00, 0.00
136, 13268.38, 38479.73, -9619.97, -21105.32, -16337.81, -9945.74, -19867.21, -19149.23, 0.00, 0.00, 0.00
137, 13295.33, 38734.36, -9870.24, -21083.48, -16284.52, -9906.38, -19865.94, -19132.22, 0.00, 0.00, 0.00
138, 13295.29, 38757.50, -9821.85, -21060.73, -16298.60, -9910.32, -19837.40, -19127.88, 0.00, 0.00, 0.00
139, 13268.44, 38461.11, -9558.54, -21076.89, -16354.14, -9950.86, -19837.87, -19145.12, 0.00, 0.00, 0.00
140, 13261.69, 38448.08, -9583.76, -21110.98, -16351.46, -9954.84, -19881.03, -19150.82, 0.00, 0.00, 0.00
141, 13285.03, 38702.85, -9836.58, -21090.93, -16295.29, -9909.65, -19861.78, -19115.23, 0.00, 0.00, 0.00
142, 13294.79, 38798.54, -9866.44, -21060.01, -16287.60, -9890.98, -19814.17, -19096.68, 0.07, 0.90, 0.42
143, 13269.58, 38513.08, -9606.51, -21073.34, -16345.88, -9934.12, -19826.35, -19126.41, 0.00, 0.00, 0.00
144, 13264.78, 38423.09, -9567.37, -21098.08, -16346.23, -9950.15, -19859.35, -19152.83, 0.00, 0.00, 0.00
145, 13288.40, 38663.24, -9800.21, -21091.82, -16300.12, -9923.15, -19860.91, -19138.41, 0.00, 0.00, 0.00
146, 13298.84, 38821.25, -9904.66, -21060.64, -16279.83, -9896.50, -19832.28, -19105.42, 0.00, 0.00, 0.00
147, 13267.68, 38567.22, -9655.35, -21074.77, -16349.99, -9940.63, -19844.28, -19131.84, 0.00, 0.00, 0.00
148, 13252.93, 38398.55, -9558.66, -21108.18, -16370.24, -9963.18, -19877.81, -19156.45, 0.00, 0.00, 0.00
149, 13278.70, 38609.95, -9762.33, -21091.20, -16324.37, -9933.41, -19868.98, -19141.50, 0.00, 0.00, 0.00
150, 13296.83, 38821.40, -9922.63, -21056.95, -16286.13, -9898.40, -19831.45, -19104.88, 0.00, 0.00, 0.00
151, 13275.66, 38626.00, -9707.12, -21064.69, -16344.24, -9933.27, -19826.60, -19112.44, 0.00, 0.00, 0.00
152, 13255.66, 38395.11, -9551.35, -21096.60, -16374.60, -9966.24, -19859.79, -19138.50, 0.07, 0.89, 0.43
153, 13276.56, 38557.36, -9721.62, -21100.27, -16334.54, -9940.02, -19873.25, -19134.25, 0.00, 0.00, 0.00
154, 13292.51, 38804.62, -9929.34, -21075.77, -16294.89, -9901.80, -19849.49, -19108.88, 0.00, 0.00, 0.00
155, 13277.54, 38687.00, -9768.99, -21064.82, -16333.98, -9918.27, -19829.10, -19107.12, 0.00, 0.00, 0.00
156, 13255.10, 38407.85, -9565.67, -21087.69, -16367.78, -9951.69, -19857.63, -19135.48, 0.00, 0.00, 0.00
157, 13269.74, 38519.14, -9664.04, -21101.97, -16339.17, -9941.43, -19868.02, -19135.37, 0.00, 0.00, 0.00
158, 13287.75, 38788.52, -9909.47, -21082.52, -16292.37, -9905.56, -19847.10, -19111.57, 0.00, 0.00, 0.00
159, 13280.31, 38753.97, -9826.97, -21075.12, -16322.00, -9920.93, -19846.61, -19119.93, 0.00, 0.00, 0.00
160, 13254.76, 38445.13, -9586.01, -21092.58, -16369.01, -9955.02, -19865.87, -19138.48, 0.00, 0.00, 0.00
161, 13256.68, 38479.82, -9638.25, -21107.13, -16350.81, -9949.25, -19877.79, -19136.83, 0.00, 0.00, 0.00
162, 13279.62, 38748.22, -9885.28, -21079.44, -16296.12, -9908.80, -19845.31, -19106.76, 0.06, 0.89, 0.42
163, 13279.80, 38789.77, -9868.94, -21054.54, -16303.70, -9901.20, -19817.77, -19088.63, 0.00, 0.00, 0.00
164, 13254.52, 38482.77, -9604.03, -21072.64, -16353.34, -9930.41, -19827.70, -19096.50, 0.00, 0.00, 0.00
165, 13253.82, 38442.12, -9601.08, -21102.95, -16345.90, -9940.92, -19859.46, -19123.73, 0.00, 0.00, 0.00
166, 13276.24, 38705.91, -9844.40, -21095.75, -16300.21, -9913.60, -19857.00, -19114.34, 0.00, 0.00, 0.00
167, 13285.56, 38828.58, -9904.04, -21074.95, -16289.55, -9898.22, -19837.71, -19090.07, 0.00, 0.00, 0.00
168, 13261.60, 38535.99, -9644.82, -21084.20, -16349.09, -9939.51, -19847.99, -19111.79, 0.00, 0.00, 0.00
169, 13252.77, 38418.47, -9575.89, -21111.13, -16357.48, -9959.47, -19877.72, -19146.82, 0.00, 0.00, 0.00
170, 13279.93, 38649.36, -9807.07, -21105.07, -16313.78, -9932.71, -19873.88, -19133.14, 0.00, 0.00, 0.00
171, 13299.13, 38826.48, -9931.04, -21068.33, -16284.30, -9897.62, -19827.38, -19095.72, 0.00, 0.00, 0.00
172, 13267.73, 38588.18, -9683.36, -21085.34, -16350.50, -9941.50, -19836.90, -19113.54, 0.06, 0.89, 0.42
173, 13250.38, 38397.30, -9562.08, -21116.01, -16369.90, -9969.73, -19872.49, -19139.06, 0.00, 0.00, 0.00
174, 13272.89, 38595.23, -9758.57, -21114.33, -16328.66, -9948.34, -19888.07, -19141.03, 0.00, 0.00, 0.00
175, 13298.44, 38820.31, -9941.05, -21076.64, -16278.04, -9903.97, -19858.65, -19102.20, 0.00, 0.00, 0.00
176, 13280.53, 38651.44, -9735.37, -21079.37, -16332.15, -9934.21, -19850.07, -19110.74, 0.00, 0.00, 0.00
177, 13258.18, 38400.99, -9554.30, -21101.48, -16363.49, -9957.57, -19856.44, -19127.24, 0.00, 0.00, 0.00
178, 13274.30, 38549.11, -9703.99, -21106.17, -16332.84, -9942.86, -19863.79, -19124.67, 0.00, 0.00, 0.00
179, 13290.15, 38807.45, -9925.94, -21086.66, -16292.21, -9910.81, -19849.58, -19105.35, 0.00, 0.00, 0.00
180, 13272.87, 38710.65, -9792.83, -21079.91, -16331.77, -9931.53, -19843.01, -19105.58, 0.00, 0.00, 0.00
181, 13248.84, 38419.03, -9575.46, -21104.27, -16366.75, -9963.54, -19865.36, -19123.91, 0.00, 0.00, 0.00
182, 13262.99, 38505.50, -9666.57, -21117.57, -16339.44, -9958.64, -19889.52, -19138.61, 0.06, 0.89, 0.43
183, 13283.78, 38774.91, -9907.54, -21087.69, -16290.20, -9918.76, -19873.07, -19115.12, 0.00, 0.00, 0.00
184, 13278.92, 38763.96, -9838.41, -21063.10, -16311.05, -9919.68, -19830.33, -19101.26, 0.00, 0.00, 0.00
185, 13244.75, 38450.77, -9589.08, -21096.27, -16372.92, -9968.63, -19854.52, -19134.75, 0.00, 0.00, 0.00
186, 13250.54, 38462.14, -9641.67, -21124.54, -16356.87, -9972.57, -19891.69, -19152.29, 0.00, 0.00, 0.00
187, 13276.98, 38730.72, -9888.84, -21100.36, -16298.38, -9930.88, -19869.52, -19123.97, 0.00, 0.00, 0.00
188, 13279.37, 38807.34, -9900.57, -21067.03, -16302.96, -9925.31, -19831.52, -19098.83, 0.00, 0.00, 0.00
189, 13253.89, 38499.89, -9639.41, -21083.01, -16358.77, -9965.06, -19849.64, -19113.13, 0.00, 0.00, 0.00
190, 13253.78, 38433.02, -9606.91, -21108.38, -16355.87, -9973.82, -19878.57, -19130.77, 0.00, 0.00, 0.00
191, 13274.28, 38688.12, -9845.12, -21094.84, -16311.12, -9943.42, -19872.94, -19112.55, 0.00, 0.00, 0.00
192, 13278.86, 38832.27, -9932.80, -21064.13, -16302.42, -9930.25, -19832.59, -19095.09, 0.06, 0.89, 0.43
193, 13254.09, 38556.18, -9677.37, -21078.03, -16366.08, -9974.69, -19838.16, -19124.06, 0.00, 0.00, 0.00
194, 13248.35, 38412.48, -9593.12, -21105.12, -16366.55, -9987.32, -19867.91, -19145.07, 0.00, 0.00, 0.00
195, 13268.22, 38638.21, -9801.33, -21104.18, -16326.16, -9959.98, -19877.00, -19138.39, 0.00, 0.00, 0.00
196, 13283.06, 38835.80, -9950.57, -21074.65, -16293.93, -9928.06, -19852.62, -19105.15, 0.00, 0.00, 0.00
197, 13266.72, 38618.02, -9725.60, -21071.90, -16343.17, -9958.13, -19844.91, -19110.67, 0.00, 0.00, 0.00
198, 13248.64, 38406.64, -9579.82, -21103.69, -16362.88, -9979.67, -19873.52, -19132.58, 0.00, 0.00, 0.00
199, 13266.61, 38590.38, -9761.27, -21109.26, -16329.87, -9966.06, -19891.08, -19131.88, 0.00, 0.00, 0.00
200, 13287.20, 38831.46, -9962.60, -21076.42, -16290.17, -9935.77, -19855.01, -19103.28, 0.00, 0.00, 0.00
201, 13271.66, 38687.56, -9785.08, -21071.26, -16337.60, -9965.08, -19852.13, -19117.76, 0.00, 0.00, 0.00
202, 13250.36, 38423.41, -9590.95, -21105.05, -16373.86, -9997.62, -19872.13, -19144.78, 0.06, 0.88, 0.42
203, 13274.63, 38551.80, -9721.78, -21119.49, -16346.70, -9984.68, -19876.65, -19140.92, 0.00, 0.00, 0.00
204, 13299.13, 38814.09, -9953.92, -21094.46, -16298.24, -9947.40, -19868.40, -19112.57, 0.00, 0.00, 0.00
205, 13278.48, 38750.19, -9845.56, -21067.37, -16316.26, -9953.10, -19838.49, -19102.00, 0.00, 0.00, 0.00
206, 13251.34, 38454.75, -9604.14, -21076.87, -16351.35, -9982.56, -19835.92, -19125.58, 0.00, 0.00, 0.00
207, 13261.60, 38522.83, -9678.30, -21103.89, -16328.24, -9978.18, -19869.00, -19127.68, 0.00, 0.00, 0.00
208, 13292.83, 38796.01, -9926.54, -21082.19, -16270.77, -9931.35, -19860.93, -19089.22, 0.00, 0.00, 0.00
209, 13292.43, 38820.96, -9882.53, -21056.95, -16278.10, -9921.80, -19826.13, -19067.20, 0.00, 0.00, 0.00
210, 13265.38, 38515.72, -9622.47, -21076.04, -16329.22, -9961.88, -19834.40, -19097.11, 0.00, 0.00, 0.00
211, 13272.89, 38508.43, -9629.51, -21094.26, -16313.31, -9965.28, -19856.82, -19114.23, 0.00, 0.00, 0.00
212, 13290.48, 38775.74, -9881.59, -21087.73, -16270.71, -9938.34, -19860.06, -19101.85, 0.06, 0.89, 0.42
213, 13292.72, 38871.79, -9921.76, -21068.62, -16275.13, -9935.95, -19842.83, -19091.61, 0.00, 0.00, 0.00
214, 13269.13, 38575.49, -9656.22, -21088.11, -16335.17, -9981.80, -19853.80, -19118.21, 0.00, 0.00, 0.00
215, 13273.20, 38480.67, -9615.07, -21116.45, -16329.11, -9983.90, -19893.19, -19136.47, 0.00, 0.00, 0.00
216, 13297.21, 38725.47, -9842.12, -21107.96, -16284.70, -9958.35, -19893.52, -19130.68, 0.00, 0.00, 0.00
217, 13307.96, 38891.83, -9937.92, -21069.80, -16265.99, -9936.29, -19828.72, -19088.84, 0.00, 0.00, 0.00
218, 13280.58, 38636.51, -9689.70, -21081.09, -16330.92, -9977.86, -19838.40, -19099.47, 0.00, 0.00, 0.00
219, 13268.96, 38466.17, -9597.41, -21106.17, -16344.62, -10003.25, -19878.52, -19134.68, 0.00, 0.00, 0.00
220, 13289.86, 38675.29, -9807.48, -21106.33, -16305.78, -9982.76, -19885.54, -19126.95, 0.00, 0.00, 0.00
221, 13300.43, 38885.84, -9979.36, -21085.83, -16271.33, -9951.44, -19871.24, -19099.61, 0.00, 0.00, 0.00
222, 13282.21, 38691.14, -9769.37, -21085.27, -16323.61, -9979.70, -19870.50, -19116.93, 0.07, 0.88, 0.42
223, 13268.78, 38456.93, -9607.99, -21109.34, -16343.73, -10010.50, -19882.99, -19144.49, 0.00, 0.00, 0.00
224, 13289.86, 38628.66, -9764.31, -21110.84, -16305.84, -9991.59, -19879.44, -19127.24, 0.00, 0.00, 0.00
225, 13309.03, 38880.03, -9979.38, -21080.96, -16261.65, -9948.11, -19842.40, -19091.67, 0.00, 0.00, 0.00
226, 13292.16, 38758.77, -9825.02, -21070.63, -16307.59, -9970.51, -19831.61, -19100.66, 0.00, 0.00, 0.00
227, 13267.50, 38477.10, -9614.56, -21104.72, -16345.76, -10009.36, -19877.45, -19140.51, 0.00, 0.00, 0.00
228, 13287.53, 38589.19, -9720.75, -21117.46, -16311.56, -9990.45, -19894.15, -19133.23, 0.00, 0.00, 0.00
229, 13315.63, 38867.78, -9956.88, -21084.29, -16258.19, -9947.42, -19848.62, -19097.35, 0.00, 0.00, 0.00
230, 13310.93, 38839.91, -9865.28, -21065.47, -16282.11, -9959.53, -19831.12, -19099.70, 0.00, 0.00, 0.00
231, 13287.87, 38529.18, -9620.66, -21089.41, -16322.67, -9991.12, -19851.37, -19116.26, 0.00, 0.00, 0.00
232, 13305.72, 38569.90, -9674.35, -21107.56, -16295.45, -9983.18, -19863.21, -19120.75, 0.06, 0.89, 0.43
233, 13335.90, 38853.34, -9924.44, -21092.40, -16242.86, -9950.68, -19855.59, -19105.31, 0.00, 0.00, 0.00
234, 13340.77, 38907.43, -9908.95, -21074.54, -16249.74, -9948.13, -19838.22, -19092.95, 0.00, 0.00, 0.00
235, 13314.69, 38590.78, -9646.43, -21099.42, -16311.50, -9999.19, -19866.16, -19133.25, 0.00, 0.00, 0.00
236, 13311.20, 38548.58, -9644.69, -21131.21, -16314.40, -10022.10, -19912.01, -19173.46, 0.00, 0.00, 0.00
237, 13326.78, 38810.63, -9888.50, -21121.71, -16275.89, -9995.41, -19910.38, -19151.96, 0.00, 0.00, 0.00
238, 13334.67, 38929.23, -9952.18, -21085.83, -16267.80, -9973.62, -19866.95, -19116.78, 0.00, 0.00, 0.00
239, 13304.00, 38636.51, -9687.85, -21094.46, -16331.86, -10010.21, -19858.90, -19130.84, 0.00, 0.00, 0.00
240, 13290.12, 38516.43, -9630.00, -21123.83, -16343.68, -10028.53, -19889.34, -19160.29, 0.00, 0.00, 0.00
241, 13311.76, 38750.86, -9862.30, -21112.38, -16303.45, -10004.04, -19890.75, -19144.63, 0.00, 0.00, 0.00
242, 13326.87, 38932.85, -9991.70, -21084.42, -16276.18, -9973.84, -19867.44, -19106.72, 0.07, 0.89, 0.43
243, 13302.01, 38691.00, -9754.88, -21092.16, -16335.82, -10015.48, -19872.20, -19127.37, 0.00, 0.00, 0.00
244, 13284.94, 38497.08, -9633.11, -21108.72, -16347.13, -10038.06, -19880.89, -19145.61, 0.00, 0.00, 0.00
245, 13307.92, 38697.15, -9820.44, -21100.40, -16301.06, -10011.88, -19875.39, -19128.69, 0.00, 0.00, 0.00
246, 13325.68, 38925.92, -10001.49, -21068.35, -16259.93, -9976.14, -19853.73, -19099.81, 0.00, 0.00, 0.00
247, 13306.04, 38750.75, -9795.94, -21066.56, -16312.26, -10007.01, -19851.88, -19115.79, 0.00, 0.00, 0.00
248, 13285.70, 38497.28, -9615.47, -21098.32, -16343.89, -10034.99, -19877.45, -19130.97, 0.00, 0.00, 0.00
249, 13305.59, 38649.23, -9763.17, -21111.76, -16314.09, -10024.76, -19897.66, -19130.77, 0.00, 0.00, 0.00
250, 13331.79, 38911.48, -9986.89, -21082.34, -16268.52, -9982.71, -19858.81, -19103.52, 0.00, 0.00, 0.00
251, 13320.50, 38820.42, -9851.26, -21074.52, -16306.78, -9997.17, -19839.25, -19091.23, 0.00, 0.00, 0.00
252, 13290.37, 38524.04, -9634.14, -21104.00, -16353.50, -10034.84, -19867.48, -19123.10, 0.06, 0.89, 0.42
253, 13302.35, 38607.12, -9734.01, -21117.86, -16328.49, -10030.23, -19881.38, -19134.88, 0.00, 0.00, 0.00
254, 13324.90, 38878.76, -9985.91, -21097.83, -16276.41, -9989.82, -19867.04, -19105.96, 0.00, 0.00, 0.00
255, 13323.63, 38870.62, -9910.47, -21074.61, -16293.10, -9986.56, -19843.10, -19084.30, 0.00, 0.00, 0.00
0, 13289.14, 38552.22, -9650.30, -21096.94, -16352.25, -10028.71, -19860.87, -19110.16, 0.00, 0.00, 0.00
1, 13292.87, 38557.79, -9696.83, -21111.80, -16342.39, -10036.71, -19881.88, -19125.31, 0.00, 0.00, 0.00
2, 13321.15, 38830.95, -9944.16, -21086.59, -16286.87, -9996.84, -19857.18, -19093.46, 0.00, 0.00, 0.00
3, 13319.78, 38905.29, -9958.75, -21071.17, -16296.79, -9993.15, -19844.57, -19084.86, 0.00, 0.00, 0.00
4, 13289.09, 38586.24, -9701.75, -21089.34, -16358.88, -10034.57, -19865.00, -19107.43, 0.00, 0.00, 0.00
5, 13292.40, 38513.15, -9671.87, -21107.02, -16352.38, -10044.96, -19872.58, -19127.82, 0.00, 0.00, 0.00
6, 13319.90, 38770.53, -9902.65, -21093.79, -16299.74, -10008.13, -19865.51, -19112.46, 0.07, 0.89, 0.42
7, 13323.34, 38920.38, -9987.74, -21073.25, -16293.08, -9989.08, -19851.75, -19089.93, 0.00, 0.00, 0.00
8, 13295.02, 38641.45, -9738.70, -21084.94, -16353.79, -10027.66, -19865.38, -19108.26, 0.00, 0.00, 0.00
9, 13286.97, 38493.05, -9652.60, -21112.63, -16358.48, -10046.80, -19890.57, -19134.08, 0.00, 0.00, 0.00
10, 13309.82, 38724.93, -9856.83, -21113.41, -16316.48, -10023.01, -19896.76, -19126.92, 0.00, 0.00, 0.00
11, 13326.51, 38925.65, -10008.28, -21076.78, -16282.44, -9994.27, -19859.68, -19094.80, 0.00, 0.00, 0.00
12, 13302.73, 38703.36, -9780.77, -21081.07, -16340.17, -10033.16, -19858.59, -19107.28, 0.00, 0.00, 0.00
13, 13287.89, 38491.58, -9640.13, -21107.45, -16359.38, -10057.10, -19882.93, -19130.90, 0.00, 0.00, 0.00
14, 13309.06, 38679.38, -9816.42, -21116.59, -16323.12, -10038.50, -19897.90, -19133.07, 0.00, 0.00, 0.00
15, 13329.57, 38922.28, -10021.09, -21093.16, -16282.13, -10003.28, -19884.07, -19108.39, 0.00, 0.00, 0.00
16, 13315.56, 38774.33, -9846.75, -21087.33, -16327.52, -10026.99, -19886.44, -19114.36, 0.07, 0.89, 0.42
17, 13294.01, 38502.69, -9653.61, -21113.79, -16361.99, -10063.36, -19901.86, -19143.04, 0.00, 0.00, 0.00
18, 13316.14, 38635.35, -9776.25, -21109.75, -16323.46, -10047.91, -19877.63, -19133.00, 0.00, 0.00, 0.00
19, 13338.54, 38904.77, -10001.22, -21081.58, -16275.85, -10015.15, -19856.60, -19105.29, 0.00, 0.00, 0.00
20, 13327.07, 38841.21, -9883.76, -21073.20, -16311.77, -10027.28, -19849.38, -19096.64, 0.00, 0.00, 0.00
21, 13291.82, 38528.37, -9650.79, -21089.54, -16357.88, -10059.49, -19858.43, -19114.36, 0.00, 0.00, 0.00
22, 13304.41, 38582.82, -9726.36, -21106.66, -16334.23, -10059.09, -19895.31, -19132.47, 0.00, 0.00, 0.00
23, 13324.59, 38860.56, -9972.83, -21099.06, -16288.65, -10030.59, -19897.59, -19130.43, 0.00, 0.00, 0.00
24, 13323.07, 38886.25, -9928.11, -21070.41, -16302.04, -10026.66, -19841.73, -19107.19, 0.00, 0.00, 0.00
25, 13294.39, 38571.06, -9656.36, -21080.53, -16354.66, -10059.74, -19842.89, -19107.88, 0.00, 0.00, 0.00
26, 13298.10, 38561.16, -9678.64, -21105.88, -16339.08, -10065.46, -19877.70, -19127.86, 0.06, 0.89, 0.42
27, 13323.38, 38829.49, -9931.93, -21089.32, -16289.75, -10029.09, -19864.38, -19107.84, 0.00, 0.00, 0.00
28, 13328.93, 38926.68, -9970.22, -21059.81, -16285.17, -10014.50, -19830.29, -19093.91, 0.00, 0.00, 0.00
29, 13303.20, 38622.47, -9702.27, -21069.20, -16343.30, -10052.36, -19834.00, -19110.88, 0.00, 0.00, 0.00
30, 13299.60, 38529.31, -9653.03, -21100.22, -16341.02, -10058.60, -19865.80, -19123.04, 0.00, 0.00, 0.00
31, 13325.68, 38779.00, -9880.99, -21093.05, -16289.50, -10021.61, -19864.98, -19108.39, 0.00, 0.00, 0.00
32, 13329.37, 38942.17, -9990.67, -21074.52, -16276.00, -10004.44, -19850.49, -19091.83, 0.00, 0.00, 0.00
33, 13305.12, 38684.97, -9744.40, -21082.03, -16333.69, -10039.40, -19844.86, -19101.76, 0.00, 0.00, 0.00
34, 13296.56, 38515.99, -9643.48, -21106.30, -16340.71, -10055.29, -19858.90, -19121.94, 0.00, 0.00, 0.00
35, 13320.14, 38733.29, -9841.38, -21106.55, -16296.66, -10033.05, -19853.06, -19112.53, 0.00, 0.00, 0.00
36, 13333.91, 38951.82, -10010.09, -21080.67, -16264.54, -10002.67, -19836.10, -19095.45, 0.06, 0.89, 0.42
37, 13311.89, 38752.13, -9801.49, -21082.50, -16317.96, -10032.60, -19839.07, -19110.96, 0.00, 0.00, 0.00
38, 13291.44, 38512.70, -9633.69, -21113.08, -16343.06, -10061.93, -19858.83, -19142.73, 0.00, 0.00, 0.00
39, 13310.98, 38681.32, -9795.16, -21114.89, -16304.10, -10036.47, -19862.12, -19123.46, 0.00, 0.00, 0.00
40, 13330.49, 38934.23, -10010.03, -21080.98, -16257.07, -9989.35, -19838.00, -19072.81, 0.00, 0.00, 0.00
41, 13311.42, 38814.68, -9851.89, -21077.85, -16307.97, -10022.21, -19833.19, -19085.51, 0.00, 0.00, 0.00
42, 13285.94, 38526.00, -9646.07, -21102.86, -16347.57, -10061.06, -19861.29, -19124.60, 0.00, 0.00, 0.00
43, 13305.28, 38630.21, -9757.27, -21107.36, -16313.87, -10044.67, -19867.35, -19129.29, 0.00, 0.00, 0.00
44, 13323.90, 38899.79, -9991.90, -21080.02, -16264.92, -10010.43, -19847.16, -19109.78, 0.00, 0.00, 0.00
45, 13318.35, 38865.46, -9905.26, -21067.05, -16291.49, -10020.64, -19841.02, -19106.07, 0.00, 0.00, 0.00
46, 13284.63, 38556.11, -9664.56, -21105.68, -16351.55, -10072.48, -19886.37, -19152.85, 0.00, 0.00, 0.00
47, 13295.06, 38596.75, -9724.46, -21118.35, -16330.88, -10067.05, -19881.54, -19156.18, 0.06, 0.88, 0.42
48, 13317.84, 38869.53, -9977.37, -21092.38, -16278.08, -10024.40, -19846.31, -19122.90, 0.00, 0.00, 0.00
49, 13313.39, 38912.80, -9961.08, -21075.93, -16292.57, -10028.40, -19845.02, -19121.60, 0.00, 0.00, 0.00
50, 13279.08, 38597.10, -9693.82, -21099.44, -16356.76, -10076.90, -19873.36, -19148.67, 0.00, 0.00, 0.00
51, 13284.09, 38558.28, -9690.58, -21114.28, -16342.68, -10080.41, -19877.83, -19153.90, 0.00, 0.00, 0.00
52, 13308.88, 38821.83, -9941.38, -21097.39, -16294.24, -10047.91, -19863.35, -19134.19, 0.00, 0.00, 0.00
53, 13314.02, 38940.27, -10007.30, -21074.39, -16284.00, -10027.98, -19848.17, -19105.15, 0.00, 0.00, 0.00
54, 13282.43, 38647.75, -9743.37, -21090.30, -16345.50, -10074.51, -19855.97, -19131.80, 0.00, 0.00, 0.00
55, 13277.92, 38530.14, -9675.98, -21116.32, -16344.06, -10081.58, -19876.22, -19150.91, 0.00, 0.00, 0.00
56, 13305.41, 38772.43, -9891.32, -21108.99, -16295.00, -10047.06, -19875.30, -19136.33, 0.00, 0.00, 0.00
57, 13323.72, 38963.14, -10015.79, -21079.08, -16265.57, -10020.00, -19834.91, -19092.39, 0.07, 0.88, 0.42
58, 13304.52, 38723.48, -9773.77, -21081.99, -16322.29, -10061.12, -19834.15, -19108.75, 0.00, 0.00, 0.00
59, 13286.97, 38525.09, -9650.52, -21113.41, -16341.92, -10089.40, -19878.21, -19154.35, 0.00, 0.00, 0.00
60, 13304.88, 38725.07, -9845.07, -21120.01, -16302.13, -10067.47, -19896.79, -19151.49, 0.00, 0.00, 0.00
61, 13321.68, 38961.17, -10035.20, -21098.50, -16266.77, -10038.55, -19870.70, -19112.08, 0.00, 0.00, 0.00
62, 13307.02, 38791.65, -9838.28, -21090.64, -16317.38, -10067.87, -19846.29, -19115.68, 0.00, 0.00, 0.00
63, 13283.46, 38527.79, -9659.28, -21111.13, -16345.96, -10091.01, -19860.73, -19139.33, 0.00, 0.00, 0.00
64, 13288.20, 38667.15, -9804.32, -21116.59, -16314.22, -10072.19, -19880.60, -19142.79, 0.00, 0.00, 0.00
65, 13306.75, 38929.70, -10028.69, -21087.75, -16268.85, -10033.63, -19853.87, -19110.63, 0.00, 0.00, 0.00
66, 13289.12, 38833.90, -9892.37, -21080.98, -16310.54, -10056.92, -19847.99, -19110.16, 0.00, 0.00, 0.00
67, 13251.43, 38529.04, -9665.03, -21111.80, -16356.87, -10102.56, -19882.52, -19144.92, 0.07, 0.88, 0.42
68, 13259.19, 38612.73, -9755.73, -21124.70, -16331.01, -10100.22, -19885.36, -19152.92, 0.00, 0.00, 0.00
69, 13277.94, 38889.75, -10008.08, -21099.93, -16286.02, -10064.88, -19863.90, -19141.50, 0.00, 0.00, 0.00
70, 13276.22, 38884.52, -9950.77, -21079.39, -16304.08, -10067.99, -19851.84, -19138.37, 0.00, 0.00, 0.00
71, 13256.80, 38567.80, -9691.13, -21094.03, -16349.43, -10095.90, -19869.38, -19141.41, 0.00, 0.00, 0.00
72, 13269.29, 38578.93, -9728.78, -21114.53, -16327.55, -10084.50, -19900.56, -19150.57, 0.00, 0.00, 0.00
73, 13295.20, 38858.93, -9978.76, -21098.26, -16277.30, -10042.73, -19874.99, -19124.20, 0.00, 0.00, 0.00
74, 13293.16, 38933.65, -9996.84, -21081.99, -16286.82, -10046.01, -19850.54, -19120.24, 0.00, 0.00, 0.00
75, 13265.51, 38621.89, -9733.89, -21099.87, -16345.32, -10088.10, -19861.29, -19141.50, 0.00, 0.00, 0.00
76, 13261.31, 38552.55, -9710.80, -21123.11, -16339.13, -10099.79, -19888.83, -19163.07, 0.00, 0.00, 0.00
77, 13291.64, 38812.86, -9947.38, -21109.54, -16285.70, -10065.93, -19893.63, -19146.97, 0.06, 0.88, 0.42
78, 13302.73, 38965.44, -10027.08, -21090.90, -16271.69, -10046.10, -19882.64, -19128.38, 0.00, 0.00, 0.00
79, 13274.16, 38689.21, -9770.89, -21092.76, -16331.10, -10078.04, -19856.89, -19131.91, 0.00, 0.00, 0.00
80, 13262.83, 38540.75, -9679.22, -21114.15, -16339.10, -10094.87, -19868.26, -19158.82, 0.00, 0.00, 0.00
81, 13283.44, 38769.73, -9890.27, -21112.72, -16295.76, -10071.00, -19882.70, -19155.36, 0.00, 0.00, 0.00
82, 13298.77, 38978.58, -10044.40, -21086.32, -16262.70, -10033.00, -19853.02, -19115.35, 0.00, 0.00, 0.00
83, 13281.03, 38761.75, -9817.76, -21091.20, -16317.96, -10064.61, -19842.74, -19125.94, 0.00, 0.00, 0.00
84, 13264.73, 38545.31, -9674.26, -21124.23, -16342.37, -10092.57, -19880.63, -19150.26, 0.00, 0.00, 0.00
85, 13284.74, 38729.05, -9854.48, -21125.88, -16308.66, -10076.90, -19897.46, -19155.76, 0.00, 0.00, 0.00
86, 13307.54, 38976.14, -10053.86, -21091.06, -16266.19, -10046.75, -19871.06, -19131.73, 0.00, 0.00, 0.00
87, 13285.61, 38828.84, -9876.10, -21088.02, -16318.32, -10076.23, -19872.69, -19135.95, 0.06, 0.88, 0.42
88, 13256.04, 38544.42, -9687.92, -21114.37, -16360.27, -10115.64, -19893.19, -19172.25, 0.00, 0.00, 0.00
89, 13276.58, 38674.29, -9805.73, -21106.42, -16327.37, -10099.79, -19885.07, -19178.13, 0.00, 0.00, 0.00
90, 13299.71, 38947.60, -10037.99, -21072.35, -16276.27, -10051.89, -19852.69, -19136.58, 0.00, 0.00, 0.00
91, 13289.23, 38882.56, -9933.54, -21064.89, -16306.85, -10055.63, -19842.78, -19115.77, 0.00, 0.00, 0.00
92, 13255.43, 38570.66, -9704.95, -21100.81, -16361.97, -10109.00, -19882.64, -19156.21, 0.00, 0.00, 0.00
93, 13270.03, 38634.39, -9780.16, -21114.26, -16340.80, -10108.44, -19897.88, -19167.65, 0.00, 0.00, 0.00
94, 13297.79, 38918.95, -10027.62, -21090.37, -16287.87, -10068.16, -19873.92, -19140.80, 0.00, 0.00, 0.00
95, 13295.38, 38943.18, -9993.00, -21074.30, -16301.19, -10063.85, -19858.90, -19130.34, 0.00, 0.00, 0.00
96, 13262.54, 38620.19, -9737.47, -21104.76, -16365.75, -10113.40, -19887.44, -19163.02, 0.00, 0.00, 0.00
97, 13267.64, 38602.60, -9761.05, -21126.26, -16352.63, -10119.28, -19902.15, -19172.45, 0.06, 0.89, 0.42
98, 13298.48, 38877.35, -10003.12, -21101.07, -16288.88, -10065.01, -19874.63, -19124.53, 0.00, 0.00, 0.00
99, 13301.17, 38980.93, -10037.63, -21079.21, -16281.59, -10051.18, -19859.99, -19105.13, 0.00, 0.00, 0.00
100, 13269.92, 38672.47, -9777.37, -21093.77, -16343.21, -10093.33, -19876.29, -19126.32, 0.00, 0.00, 0.00
101, 13263.79, 38571.20, -9728.57, -21109.32, -16344.18, -10107.50, -19883.89, -19154.30, 0.00, 0.00, 0.00
102, 13287.46, 38827.77, -9954.71, -21103.15, -16300.17, -10078.92, -19882.79, -19135.78, 0.00, 0.00, 0.00
103, 13303.71, 39002.14, -10062.75, -21071.19, -16275.62, -10055.49, -19855.59, -19115.79, 0.00, 0.00, 0.00
104, 13273.61, 38741.11, -9819.55, -21084.87, -16339.62, -10093.80, -19860.60, -19130.57, 0.00, 0.00, 0.00
105, 13259.84, 38566.57, -9719.14, -21112.81, -16349.47, -10109.27, -19887.04, -19143.02, 0.00, 0.00, 0.00
106, 13285.70, 38783.16, -9905.17, -21106.30, -16309.13, -10083.86, -19875.42, -19136.15, 0.00, 0.00, 0.00
107, 13298.57, 39006.09, -10076.72, -21077.89, -16277.97, -10053.70, -19854.43, -19114.63, 0.07, 0.88, 0.42
108, 13280.76, 38803.16, -9865.37, -21071.46, -16329.67, -10079.99, -19852.13, -19113.63, 0.00, 0.00, 0.00
109, 13253.69, 38554.50, -9701.80, -21102.71, -16358.53, -10108.15, -19885.59, -19144.58, 0.00, 0.00, 0.00
110, 13269.47, 38721.73, -9859.60, -21112.92, -16328.24, -10093.22, -19900.72, -19153.16, 0.00, 0.00, 0.00
111, 13290.19, 38984.46, -10076.57, -21087.48, -16286.20, -10057.93, -19880.67, -19127.50, 0.00, 0.00, 0.00
112, 13277.52, 38867.09, -9928.71, -21083.15, -16328.19, -10078.07, -19866.81, -19126.90, 0.00, 0.00, 0.00
113, 13255.28, 38574.62, -9722.81, -21112.03, -16367.67, -10111.59, -19887.40, -19161.93, 0.00, 0.00, 0.00
114, 13276.33, 38684.70, -9834.45, -21113.28, -16333.31, -10091.79, -19888.60, -19165.95, 0.00, 0.00, 0.00
115, 13298.57, 38963.38, -10078.04, -21090.01, -16284.41, -10056.88, -19890.08, -19140.45, 0.00, 0.00, 0.00
116, 13294.21, 38928.71, -9992.77, -21082.66, -16307.76, -10064.61, -19889.88, -19131.33, 0.00, 0.00, 0.00
117, 13267.15, 38611.50, -9743.37, -21102.10, -16360.78, -10103.19, -19881.74, -19153.75, 0.06, 0.89, 0.42
118, 13277.29, 38643.77, -9797.64, -21115.89, -16338.70, -10100.91, -19894.48, -19170.55, 0.00, 0.00, 0.00
119, 13311.56, 38926.59, -10045.46, -21089.41, -16277.39, -10053.46, -19865.13, -19134.86, 0.00, 0.00, 0.00
120, 13308.32, 38974.64, -10031.95, -21062.18, -16288.90, -10045.88, -19824.52, -19109.56, 0.00, 0.00, 0.00
121, 13274.95, 38650.48, -9763.71, -21071.79, -16350.34, -10086.29, -19838.89, -19131.71, 0.00, 0.00, 0.00
122, 13268.96, 38603.34, -9756.29, -21097.12, -16348.60, -10099.43, -19879.10, -19158.53, 0.00, 0.00, 0.00
123, 13287.84, 38870.93, -9991.05, -21086.61, -16299.83, -10063.63, -19880.96, -19136.78, 0.00, 0.00, 0.00
124, 13292.25, 39001.51, -10061.26, -21064.87, -16289.10, -10046.13, -19861.78, -19111.63, 0.00, 0.00, 0.00
125, 13262.27, 38699.07, -9799.63, -21077.49, -16356.04, -10095.81, -19881.63, -19148.87, 0.00, 0.00, 0.00
126, 13252.57, 38576.38, -9723.48, -21104.11, -16369.70, -10121.92, -19898.73, -19179.12, 0.00, 0.00, 0.00
127, 13274.23, 38820.57, -9945.59, -21091.24, -16320.95, -10085.60, -19883.60, -19150.21, 0.06, 0.89, 0.43
128, 13288.09, 39009.74, -10082.51, -21065.67, -16291.45, -10055.85, -19860.62, -19128.11, 0.00, 0.00, 0.00
129, 13265.25, 38761.41, -9843.28, -21069.80, -16346.97, -10091.37, -19859.46, -19141.16, 0.00, 0.00, 0.00
130, 13251.75, 38559.66, -9709.82, -21095.29, -16359.82, -10105.42, -19882.08, -19159.78, 0.00, 0.00, 0.00
131, 13276.29, 38765.03, -9889.77, -21098.37, -16322.09, -10088.62, -19899.62, -19166.33, 0.00, 0.00, 0.00
132, 13293.23, 39005.00, -10079.52, -21072.71, -16290.49, -10060.01, -19879.17, -19147.24, 0.00, 0.00, 0.00
133, 13273.65, 38831.08, -9888.10, -21073.16, -16344.98, -10086.20, -19869.40, -19153.77, 0.00, 0.00, 0.00
134, 13253.69, 38570.26, -9707.61, -21106.97, -16376.54, -10121.79, -19904.81, -19189.93, 0.00, 0.00, 0.00
135, 13278.57, 38721.36, -9850.23, -21114.02, -16333.31, -10097.47, -19918.55, -19172.68, 0.00, 0.00, 0.00
136, 13300.58, 38990.36, -10074.87, -21089.00, -16284.43, -10048.67, -19909.28, -19128.04, 0.00, 0.00, 0.00
137, 13283.78, 38895.97, -9946.17, -21078.03, -16326.07, -10063.85, -19879.62, -19123.79, 0.06, 0.88, 0.43
138, 13261.31, 38592.34, -9724.17, -21085.54, -16365.70, -10097.83, -19858.16, -19149.34, 0.00, 0.00, 0.00
139, 13275.10, 38682.66, -9810.78, -21100.69, -16340.60, -10094.94, -19879.60, -19164.23, 0.00, 0.00, 0.00
140, 13294.10, 38966.69, -10060.56, -21081.18, -16295.58, -10062.73, -19873.09, -19138.30, 0.00, 0.00, 0.00
141, 13287.78, 38959.89, -10005.89, -21063.57, -16317.69, -10070.42, -19860.98, -19128.87, 0.00, 0.00, 0.00
142, 13254.54, 38635.26, -9749.25, -21092.98, -16374.55, -10113.23, -19894.21, -19167.74, 0.00, 0.00, 0.00
143, 13265.29, 38650.03, -9785.64, -21114.60, -16354.08, -10111.39, -19911.02, -19171.89, 0.00, 0.00, 0.00
144, 13291.60, 38930.41, -10038.03, -21096.89, -16302.33, -10071.70, -19889.61, -19142.62, 0.00, 0.00, 0.00
145, 13295.26, 39005.63, -10054.02, -21076.55, -16310.56, -10067.72, -19871.08, -19130.77, 0.00, 0.00, 0.00
146, 13265.09, 38687.65, -9789.04, -21095.33, -16370.42, -10105.16, -19884.22, -19144.87, 0.00, 0.00, 0.00
147, 13263.59, 38613.62, -9769.92, -21119.76, -16361.97, -10115.66, -19912.63, -19172.19, 0.05, 0.88, 0.43
148, 13290.44, 38878.73, -9997.76, -21105.77, -16312.35, -10084.82, -19909.97, -19162.73, 0.00, 0.00, 0.00
149, 13300.47, 39031.35, -10077.08, -21074.54, -16294.26, -10053.32, -19872.20, -19118.50, 0.00, 0.00, 0.00
150, 13268.42, 38742.95, -9819.25, -21083.46, -16360.45, -10092.19, -19875.88, -19140.80, 0.00, 0.00, 0.00
151, 13254.61, 38587.58, -9731.68, -21108.85, -16370.17, -10113.65, -19902.06, -19171.34, 0.00, 0.00, 0.00
152, 13277.67, 38820.20, -9942.53, -21103.94, -16326.74, -10086.65, -19897.37, -19155.80, 0.00, 0.00, 0.00
153, 13296.25, 39033.50, -10094.54, -21076.82, -16295.99, -10057.19, -19875.66, -19126.54, 0.00, 0.00, 0.00
154, 13267.84, 38806.45, -9876.50, -21087.73, -16359.42, -10098.38, -19887.69, -19147.29, 0.00, 0.00, 0.00
155, 13249.02, 38580.65, -9744.13, -21114.62, -16377.99, -10128.89, -19917.95, -19184.30, 0.00, 0.00, 0.00
156, 13274.05, 38776.32, -9907.08, -21115.65, -16336.33, -10108.58, -19925.15, -19179.94, 0.00, 0.00, 0.00
157, 13299.26, 39031.87, -10107.28, -21085.67, -16293.24, -10067.61, -19893.25, -19144.96, 0.06, 0.89, 0.42
158, 13277.99, 38880.14, -9938.93, -21082.19, -16343.57, -10090.11, -19880.80, -19146.53, 0.00, 0.00, 0.00
159, 13252.82, 38597.06, -9750.10, -21115.65, -16378.22, -10117.83, -19922.65, -19171.61, 0.00, 0.00, 0.00
160, 13274.21, 38730.50, -9870.87, -21120.86, -16346.81, -10102.09, -19934.22, -19172.77, 0.00, 0.00, 0.00
161, 13298.71, 39009.25, -10098.61, -21089.81, -16299.16, -10064.36, -19896.47, -19147.67, 0.00, 0.00, 0.00
162, 13282.48, 38947.18, -9990.54, -21084.60, -16338.07, -10082.20, -19889.27, -19157.10, 0.00, 0.00, 0.00
163, 13247.63, 38627.48, -9754.66, -21110.71, -16390.04, -10124.49, -19903.87, -19179.56, 0.00, 0.00, 0.00
164, 13263.19, 38683.47, -9828.78, -21123.09, -16359.75, -10112.80, -19922.98, -19174.46, 0.00, 0.00, 0.00
165, 13289.54, 38972.43, -10077.62, -21110.89, -16305.02, -10072.23, -19920.79, -19152.34, 0.00, 0.00, 0.00
166, 13285.07, 38994.29, -10048.03, -21092.56, -16321.38, -10077.98, -19893.41, -19143.91, 0.00, 0.00, 0.00
167, 13254.20, 38664.34, -9789.59, -21111.15, -16378.60, -10118.77, -19896.54, -19154.66, 0.06, 0.89, 0.42
168, 13260.93, 38644.24, -9806.51, -21127.70, -16369.34, -10128.89, -19910.73, -19178.94, 0.00, 0.00, 0.00
169, 13291.13, 38922.59, -10053.75, -21105.01, -16319.66, -10091.57, -19900.45, -19161.84, 0.00, 0.00, 0.00
170, 13291.96, 39024.45, -10093.69, -21074.05, -16314.58, -10069.48, -19871.39, -19134.86, 0.00, 0.00, 0.00
171, 13263.10, 38711.57, -9824.64, -21088.40, -16374.44, -10109.45, -19884.49, -19153.37, 0.00, 0.00, 0.00
172, 13265.27, 38617.38, -9773.99, -21109.08, -16366.75, -10120.42, -19909.62, -19175.40, 0.00, 0.00, 0.00
173, 13292.38, 38881.51, -9995.39, -21101.54, -16322.83, -10093.40, -19912.07, -19168.39, 0.00, 0.00, 0.00
174, 13303.18, 39058.44, -10110.99, -21072.60, -16307.97, -10077.69, -19890.37, -19149.37, 0.00, 0.00, 0.00
175, 13270.99, 38783.47, -9867.22, -21083.21, -16373.90, -10121.03, -19899.42, -19171.16, 0.00, 0.00, 0.00
176, 13267.03, 38607.41, -9759.24, -21108.83, -16376.14, -10130.64, -19922.45, -19184.05, 0.00, 0.00, 0.00
177, 13292.56, 38836.60, -9951.47, -21116.38, -16337.16, -10111.12, -19925.73, -19174.69, 0.06, 0.89, 0.43
178, 13306.91, 39063.14, -10130.08, -21086.39, -16303.74, -10082.96, -19891.85, -19142.05, 0.00, 0.00, 0.00
179, 13284.85, 38859.36, -9926.03, -21081.14, -16358.26, -10111.84, -19881.61, -19151.58, 0.00, 0.00, 0.00
180, 13266.23, 38610.98, -9765.25, -21113.66, -16385.19, -10146.35, -19916.79, -19183.74, 0.00, 0.00, 0.00
181, 13293.14, 38786.40, -9919.55, -21117.08, -16341.61, -10124.02, -19930.51, -19176.54, 0.00, 0.00, 0.00
182, 13317.19, 39052.32, -10135.11, -21088.54, -16296.90, -10088.44, -19897.54, -19150.10, 0.00, 0.00, 0.00
183, 13301.97, 38928.27, -9981.89, -21075.44, -16341.74, -10113.25, -19877.29, -19155.04, 0.00, 0.00, 0.00
184, 13276.00, 38629.71, -9767.09, -21108.70, -16380.79, -10146.40, -19910.26, -19185.82, 0.00, 0.00, 0.00
185, 13289.07, 38737.41, -9876.95, -21123.47, -16354.06, -10140.85, -19938.22, -19201.87, 0.00, 0.00, 0.00
186, 13313.12, 39018.01, -10119.95, -21100.09, -16303.72, -10106.36, -19909.90, -19168.92, 0.00, 0.00, 0.00
187, 13299.96, 38982.65, -10036.65, -21087.91, -16337.38, -10113.87, -19892.76, -19156.61, 0.06, 0.89, 0.42
188, 13269.18, 38657.25, -9798.02, -21114.62, -16391.72, -10159.02, -19928.57, -19196.30, 0.00, 0.00, 0.00
189, 13276.60, 38693.35, -9851.91, -21129.01, -16371.85, -10156.48, -19937.64, -19197.22, 0.00, 0.00, 0.00
190, 13309.14, 38980.19, -10097.11, -21096.49, -16311.99, -10107.44, -19901.81, -19154.01, 0.00, 0.00, 0.00
191, 13307.96, 39033.50, -10084.26, -21076.46, -16324.91, -10106.72, -19883.37, -19148.47, 0.00, 0.00, 0.00
192, 13272.89, 38706.78, -9819.88, -21094.77, -16386.89, -10154.49, -19893.03, -19176.03, 0.00, 0.00, 0.00
193, 13278.21, 38660.20, -9809.26, -21113.37, -16371.56, -10149.95, -19923.61, -19195.25, 0.00, 0.00, 0.00
194, 13308.76, 38942.06, -10040.78, -21105.61, -16319.50, -10110.90, -19937.69, -19186.83, 0.00, 0.00, 0.00
195, 13319.81, 39074.80, -10112.76, -21084.82, -16308.88, -10092.06, -19920.57, -19162.98, 0.00, 0.00, 0.00
196, 13292.72, 38775.18, -9846.68, -21094.55, -16370.46, -10133.41, -19905.61, -19181.69, 0.00, 0.00, 0.00
197, 13296.36, 38654.75, -9771.31, -21112.61, -16361.07, -10138.26, -19902.75, -19192.77, 0.05, 0.89, 0.42
198, 13327.72, 38910.54, -9988.79, -21112.67, -16310.72, -10105.38, -19915.29, -19177.97, 0.00, 0.00, 0.00
199, 13344.06, 39112.29, -10125.94, -21092.60, -16283.78, -10082.31, -19902.42, -19157.50, 0.00, 0.00, 0.00
200, 13322.00, 38864.83, -9889.35, -21101.21, -16343.86, -10125.79, -19907.63, -19181.51, 0.00, 0.00, 0.00
201, 13301.28, 38659.31, -9763.44, -21136.66, -16368.72, -10160.21, -19943.61, -19222.43, 0.00, 0.00, 0.00
202, 13320.10, 38859.71, -9955.91, -21139.25, -16331.48, -10142.75, -19956.13, -19214.19, 0.00, 0.00, 0.00
203, 13332.44, 39099.39, -10146.64, -21114.02, -16300.77, -10109.60, -19925.75, -19169.28, 0.00, 0.00, 0.00
204, 13308.88, 38916.53, -9961.90, -21103.85, -16352.42, -10134.08, -19908.63, -19164.52, 0.00, 0.00, 0.00
205, 13281.79, 38644.11, -9780.97, -21136.03, -16384.92, -10164.25, -19938.27, -19193.08, 0.00, 0.00, 0.00
206, 13297.48, 38791.61, -9924.67, -21148.06, -16354.99, -10156.57, -19955.10, -19207.77, 0.00, 0.00, 0.00
207, 13311.63, 39066.47, -10149.97, -21128.81, -16316.57, -10119.82, -19933.91, -19184.99, 0.06, 0.89, 0.43
208, 13300.47, 38974.09, -10025.14, -21110.57, -16356.54, -10133.92, -19910.13, -19177.93, 0.00, 0.00, 0.00
209, 13268.71, 38661.12, -9800.43, -21135.85, -16407.50, -10182.05, -19942.27, -19212.80, 0.00, 0.00, 0.00
210, 13284.67, 38743.86, -9884.28, -21148.77, -16380.77, -10171.25, -19967.86, -19214.92, 0.00, 0.00, 0.00
211, 13310.20, 39029.86, -10130.30, -21124.21, -16325.80, -10126.82, -19942.74, -19185.04, 0.00, 0.00, 0.00
212, 13303.11, 39023.08, -10074.87, -21099.31, -16342.28, -10128.16, -19904.72, -19166.26, 0.00, 0.00, 0.00
213, 13269.05, 38691.11, -9812.50, -21120.65, -16394.49, -10163.85, -19924.41, -19192.35, 0.00, 0.00, 0.00
214, 13277.74, 38702.40, -9843.75, -21136.86, -16373.34, -10159.23, -19952.37, -19202.38, 0.00, 0.00, 0.00
215, 13302.91, 38990.70, -10092.42, -21126.38, -16324.53, -10129.34, -19950.47, -19181.78, 0.00, 0.00, 0.00
216, 13299.18, 39070.80, -10117.00, -21102.42, -16337.09, -10127.51, -19911.07, -19162.31, 0.00, 0.00, 0.00
217, 13267.37, 38741.00, -9853.30, -21118.46, -16405.67, -10174.87, -19929.17, -19193.82, 0.07, 0.89, 0.43
218, 13269.02, 38668.27, -9819.79, -21138.40, -16403.47, -10185.73, -19946.63, -19213.27, 0.00, 0.00, 0.00
219, 13296.56, 38938.21, -10045.61, -21121.01, -16352.38, -10144.52, -19921.44, -19178.02, 0.00, 0.00, 0.00
220, 13307.38, 39090.36, -10135.93, -21093.68, -16340.15, -10127.82, -19903.69, -19159.94, 0.00, 0.00, 0.00
221, 13277.96, 38807.28, -9891.12, -21106.21, -16402.85, -10173.98, -19926.29, -19195.43, 0.00, 0.00, 0.00
222, 13268.75, 38651.29, -9797.82, -21138.96, -16408.35, -10187.79, -19958.03, -19216.91, 0.00, 0.00, 0.00
223, 13295.44, 38894.96, -10003.03, -21126.85, -16361.28, -10152.81, -19931.03, -19181.64, 0.00, 0.00, 0.00
224, 13308.97, 39110.84, -10164.01, -21099.02, -16335.68, -10127.53, -19907.80, -19159.22, 0.00, 0.00, 0.00
225, 13278.66, 38880.12, -9943.91, -21109.10, -16401.42, -10168.93, -19910.46, -19180.61, 0.00, 0.00, 0.00
226, 13263.12, 38651.29, -9792.86, -21130.91, -16417.89, -10189.62, -19929.35, -19197.33, 0.00, 0.00, 0.00
227, 13291.98, 38843.82, -9952.94, -21132.21, -16373.81, -10165.37, -19936.66, -19190.56, 0.07, 0.89, 0.42
228, 13309.66, 39101.61, -10157.55, -21107.22, -16339.57, -10134.93, -19918.26, -19171.07, 0.00, 0.00, 0.00
229, 13290.10, 38944.85, -9994.07, -21099.02, -16387.16, -10158.78, -19913.26, -19177.73, 0.00, 0.00, 0.00
230, 13261.92, 38660.80, -9784.48, -21128.90, -16419.26, -10183.25, -19944.51, -19202.32, 0.00, 0.00, 0.00
231, 13278.95, 38794.43, -9909.31, -21135.79, -16385.10, -10166.38, -19955.26, -19207.32, 0.00, 0.00, 0.00
232, 13303.13, 39076.84, -10149.30, -21106.73, -16335.86, -10124.58, -19927.90, -19183.03, 0.00, 0.00, 0.00
233, 13287.08, 39015.73, -10049.54, -21098.57, -16373.32, -10139.62, -19912.45, -19179.00, 0.00, 0.00, 0.00
234, 13256.28, 38689.59, -9820.37, -21124.54, -16419.90, -10173.73, -19932.10, -19193.62, 0.00, 0.00, 0.00
235, 13274.68, 38748.56, -9890.67, -21140.03, -16393.15, -10168.41, -19953.20, -19207.77, 0.00, 0.00, 0.00
236, 13305.08, 39038.28, -10136.94, -21121.24, -16338.72, -10132.02, -19942.81, -19187.34, 0.00, 0.00, 0.00
237, 13300.76, 39065.71, -10103.90, -21106.28, -16355.44, -10127.02, -19920.81, -19170.24, 0.07, 0.89, 0.42
238, 13270.72, 38731.62, -9851.82, -21121.44, -16410.27, -10167.67, -19929.28, -19186.16, 0.00, 0.00, 0.00
239, 13277.07, 38711.92, -9864.90, -21148.55, -16392.46, -10172.99, -19961.09, -19206.34, 0.00, 0.00, 0.00
240, 13307.20, 39004.22, -10107.70, -21129.39, -16340.24, -10145.66, -19929.98, -19193.29, 0.00, 0.00, 0.00
241, 13310.75, 39114.23, -10153.59, -21102.68, -16340.42, -10135.15, -19906.44, -19171.74, 0.00, 0.00, 0.00
242, 13281.00, 38795.16, -9887.09, -21109.97, -16401.62, -10171.29, -19913.28, -19181.69, 0.00, 0.00, 0.00
243, 13277.54, 38694.09, -9838.12, -21131.23, -16399.18, -10182.90, -19935.50, -19204.44, 0.00, 0.00, 0.00
244, 13306.33, 38953.66, -10059.42, -21120.65, -16348.80, -10152.59, -19931.97, -19189.80, 0.00, 0.00, 0.00
245, 13317.57, 39131.40, -10172.39, -21089.29, -16328.06, -10126.61, -19901.75, -19164.61, 0.00, 0.00, 0.00
246, 13288.27, 38860.88, -9933.38, -21104.00, -16391.58, -10162.51, -19919.87, -19184.81, 0.00, 0.00, 0.00
247, 13277.34, 38679.74, -9822.63, -21136.01, -16400.84, -10179.41, -19956.11, -19212.13, 0.06, 0.89, 0.42
248, 13305.93, 38906.74, -10015.86, -21128.52, -16352.27, -10153.30, -19940.01, -19200.80, 0.00, 0.00, 0.00
249, 13326.98, 39139.78, -10185.82, -21092.25, -16311.10, -10114.30, -19895.44, -19163.40, 0.00, 0.00, 0.00
250, 13299.98, 38932.94, -9988.08, -21092.00, -16369.21, -10147.67, -19900.99, -19181.98, 0.00, 0.00, 0.00
251, 13281.36, 38683.34, -9823.52, -21112.23, -16391.63, -10166.36, -19929.08, -19206.96, 0.00, 0.00, 0.00
252, 13304.50, 38858.46, -9968.63, -21121.66, -16352.33, -10139.22, -19933.75, -19200.97, 0.00, 0.00, 0.00
253, 13324.68, 39127.62, -10184.42, -21092.18, -16307.76, -10104.37, -19897.79, -19168.90, 0.00, 0.00, 0.00
254, 13309.35, 39005.04, -10022.57, -21080.27, -16353.27, -10131.29, -19885.61, -19181.28, 0.00, 0.00, 0.00
255, 13281.21, 38707.25, -9808.21, -21113.10, -16395.79, -10169.02, -19914.96, -19201.98, 0.00, 0.00, 0.00
0, 13298.80, 38815.77, -9918.52, -21124.95, -16367.31, -10155.11, -19939.57, -19195.50, 0.00, 0.00, 0.00
1, 13324.37, 39099.66, -10163.58, -21104.85, -16322.07, -10124.71, -19937.55, -19187.61, 0.07, 0.89, 0.42
2, 13322.58, 39072.17, -10084.84, -21096.83, -16341.45, -10132.96, -19924.03, -19181.71, 0.00, 0.00, 0.00
3, 13297.43, 38750.14, -9836.38, -21115.40, -16392.97, -10175.14, -19912.59, -19204.55, 0.00, 0.00, 0.00
4, 13299.31, 38777.23, -9887.65, -21128.03, -16379.49, -10180.26, -19933.06, -19216.35, 0.00, 0.00, 0.00
5, 13315.38, 39051.74, -10139.06, -21098.91, -16327.64, -10141.12, -19915.16, -19190.74, 0.00, 0.00, 0.00
6, 13309.26, 39093.07, -10134.17, -21079.35, -16345.47, -10142.55, -19899.96, -19189.40, 0.00, 0.00, 0.00
7, 13275.46, 38757.25, -9870.80, -21105.37, -16412.19, -10192.95, -19925.48, -19222.97, 0.00, 0.00, 0.00
8, 13275.55, 38714.14, -9861.63, -21130.98, -16409.89, -10206.01, -19936.24, -19236.04, 0.00, 0.00, 0.00
9, 13296.14, 38980.30, -10109.25, -21114.11, -16365.81, -10178.89, -19916.39, -19215.84, 0.00, 0.00, 0.00
10, 13298.86, 39106.79, -10185.47, -21101.83, -16368.67, -10174.56, -19918.00, -19213.78, 0.00, 0.00, 0.00
11, 13265.27, 38801.26, -9930.70, -21118.89, -16433.83, -10217.65, -19936.35, -19231.31, 0.07, 0.89, 0.42
12, 13253.76, 38673.68, -9863.53, -21138.09, -16437.23, -10232.05, -19960.11, -19249.57, 0.00, 0.00, 0.00
13, 13278.37, 38922.72, -10079.43, -21124.68, -16391.43, -10208.02, -19956.35, -19241.25, 0.00, 0.00, 0.00
14, 13293.50, 39120.40, -10212.67, -21096.07, -16365.01, -10183.32, -19936.19, -19217.81, 0.00, 0.00, 0.00
15, 13266.83, 38871.36, -9975.20, -21104.49, -16430.07, -10227.96, -19940.75, -19237.34, 0.00, 0.00, 0.00
16, 13254.05, 38661.05, -9840.33, -21131.38, -16445.72, -10249.21, -19971.93, -19264.43, 0.00, 0.00, 0.00
17, 13280.98, 38872.03, -10014.30, -21129.97, -16401.15, -10226.97, -19973.05, -19260.90, 0.00, 0.00, 0.00
18, 13297.50, 39120.89, -10209.40, -21102.71, -16366.71, -10202.79, -19946.45, -19232.71, 0.00, 0.00, 0.00
19, 13277.34, 38943.31, -10028.31, -21100.87, -16419.35, -10225.68, -19944.15, -19232.31, 0.00, 0.00, 0.00
20, 13254.61, 38673.93, -9836.35, -21125.88, -16451.06, -10254.67, -19965.74, -19271.76, 0.00, 0.00, 0.00
21, 13273.56, 38822.03, -9977.24, -21129.91, -16413.91, -10237.43, -19974.99, -19268.23, 0.06, 0.89, 0.42
22, 13294.88, 39096.75, -10209.43, -21101.88, -16363.53, -10187.21, -19950.52, -19218.07, 0.00, 0.00, 0.00
23, 13282.72, 39009.09, -10083.27, -21088.13, -16401.31, -10205.29, -19927.09, -19222.14, 0.00, 0.00, 0.00
24, 13254.76, 38701.06, -9849.88, -21113.48, -16444.63, -10246.38, -19934.85, -19243.60, 0.00, 0.00, 0.00
25, 13273.40, 38786.18, -9939.51, -21124.03, -16413.38, -10234.44, -19953.80, -19247.69, 0.00, 0.00, 0.00
26, 13294.15, 39074.29, -10192.33, -21111.09, -16366.42, -10201.13, -19956.35, -19235.60, 0.00, 0.00, 0.00
27, 13290.08, 39071.27, -10144.50, -21092.76, -16390.94, -10213.34, -19942.54, -19231.42, 0.00, 0.00, 0.00
28, 13254.67, 38744.56, -9884.17, -21112.90, -16449.25, -10256.90, -19958.14, -19257.41, 0.00, 0.00, 0.00
29, 13260.75, 38753.50, -9911.99, -21124.46, -16431.50, -10254.22, -19961.81, -19266.89, 0.00, 0.00, 0.00
30, 13288.02, 39037.21, -10157.33, -21100.58, -16377.08, -10214.14, -19933.89, -19242.53, 0.00, 0.00, 0.00
31, 13291.26, 39115.95, -10180.26, -21079.68, -16380.21, -10211.82, -19916.83, -19231.75, 0.07, 0.89, 0.42
32, 13261.71, 38794.49, -9917.33, -21098.32, -16438.30, -10255.78, -19931.97, -19250.98, 0.00, 0.00, 0.00
33, 13261.36, 38717.91, -9881.42, -21120.21, -16432.09, -10266.87, -19953.98, -19265.73, 0.00, 0.00, 0.00
34, 13282.86, 38983.86, -10112.31, -21115.25, -16389.84, -10244.63, -19958.21, -19265.48, 0.00, 0.00, 0.00
35, 13293.70, 39135.33, -10212.00, -21082.81, -16370.22, -10211.68, -19928.50, -19231.22, 0.00, 0.00, 0.00
36, 13265.63, 38845.65, -9953.25, -21092.65, -16430.57, -10252.81, -19934.45, -19246.33, 0.00, 0.00, 0.00
37, 13251.52, 38691.52, -9856.58, -21122.87, -16441.74, -10276.79, -19970.17, -19271.49, 0.00, 0.00, 0.00
38, 13275.66, 38927.11, -10067.47, -21114.91, -16398.71, -10253.35, -19971.19, -19268.34, 0.00, 0.00, 0.00
39, 13301.39, 39142.64, -10231.58, -21071.93, -16356.22, -10212.85, -19919.52, -19219.21, 0.00, 0.00, 0.00
40, 13270.61, 38919.39, -10009.85, -21082.77, -16418.12, -10250.82, -19936.21, -19239.80, 0.00, 0.00, 0.00
41, 13253.22, 38690.11, -9864.85, -21102.93, -16437.00, -10275.32, -19963.06, -19268.68, 0.06, 0.89, 0.42
42, 13276.65, 38883.41, -10026.48, -21103.71, -16398.96, -10263.56, -19962.97, -19272.39, 0.00, 0.00, 0.00
43, 13288.20, 39140.88, -10239.31, -21083.24, -16368.20, -10236.74, -19939.54, -19251.24, 0.00, 0.00, 0.00
44, 13267.95, 38990.34, -10077.93, -21080.15, -16419.08, -10255.74, -19938.74, -19248.09, 0.00, 0.00, 0.00
45, 13245.11, 38699.88, -9879.85, -21102.93, -16450.46, -10280.66, -19960.17, -19266.89, 0.00, 0.00, 0.00
46, 13261.20, 38830.32, -9996.79, -21110.02, -16418.83, -10272.28, -19965.18, -19269.06, 0.00, 0.00, 0.00
47, 13286.12, 39114.81, -10230.86, -21081.31, -16366.59, -10229.70, -19935.16, -19233.59, 0.00, 0.00, 0.00
48, 13273.11, 39058.20, -10132.00, -21075.55, -16406.45, -10250.08, -19929.73, -19237.88, 0.00, 0.00, 0.00
49, 13244.95, 38737.43, -9897.33, -21101.77, -16454.59, -10293.89, -19955.03, -19269.93, 0.00, 0.00, 0.00
50, 13255.21, 38795.90, -9967.78, -21117.68, -16431.15, -10295.35, -19981.23, -19297.38, 0.00, 0.00, 0.00
51, 13280.60, 39085.36, -10215.82, -21095.49, -16383.18, -10260.43, -19975.35, -19280.64, 0.06, 0.89, 0.43
52, 13278.03, 39113.85, -10193.31, -21077.83, -16396.52, -10251.43, -19961.63, -19251.13, 0.00, 0.00, 0.00
53, 13251.70, 38781.30, -9933.20, -21094.50, -16454.17, -10288.44, -19965.63, -19274.24, 0.00, 0.00, 0.00
54, 13261.20, 38758.28, -9946.73, -21104.43, -16433.61, -10282.29, -19972.42, -19280.88, 0.00, 0.00, 0.00
55, 13287.62, 39040.09, -10173.80, -21088.33, -16379.89, -10247.65, -19954.54, -19263.72, 0.00, 0.00, 0.00
56, 13292.13, 39147.00, -10220.09, -21063.03, -16373.19, -10229.90, -19920.63, -19235.75, 0.00, 0.00, 0.00
57, 13263.17, 38838.64, -9960.32, -21072.42, -16431.21, -10264.19, -19918.73, -19249.14, 0.00, 0.00, 0.00
58, 13249.20, 38727.93, -9902.02, -21102.17, -16440.80, -10291.53, -19971.39, -19297.87, 0.00, 0.00, 0.00
59, 13268.40, 38986.67, -10129.83, -21098.64, -16400.68, -10267.14, -19972.60, -19287.79, 0.00, 0.00, 0.00
60, 13280.24, 39161.11, -10252.03, -21063.01, -16377.39, -10231.31, -19930.09, -19242.97, 0.00, 0.00, 0.00
61, 13256.86, 38892.79, -10011.90, -21065.87, -16430.48, -10259.58, -19932.88, -19250.28, 0.07, 0.89, 0.42
62, 13240.64, 38711.72, -9889.91, -21097.52, -16447.40, -10283.41, -19962.95, -19278.02, 0.00, 0.00, 0.00
63, 13261.94, 38933.92, -10080.77, -21098.50, -16413.04, -10271.79, -19966.50, -19278.42, 0.00, 0.00, 0.00
64, 13276.24, 39166.25, -10259.32, -21071.48, -16380.01, -10239.87, -19942.83, -19253.01, 0.00, 0.00, 0.00
65, 13254.47, 38962.98, -10063.02, -21072.84, -16436.15, -10268.53, -19944.77, -19264.01, 0.00, 0.00, 0.00
66, 13234.83, 38709.96, -9893.15, -21099.62, -16459.60, -10292.33, -19962.86, -19285.51, 0.00, 0.00, 0.00
67, 13255.95, 38883.65, -10040.56, -21099.82, -16418.14, -10267.07, -19961.31, -19267.96, 0.00, 0.00, 0.00
68, 13276.56, 39153.21, -10260.75, -21072.02, -16373.52, -10228.69, -19936.59, -19235.06, 0.00, 0.00, 0.00
69, 13255.43, 39032.61, -10115.66, -21069.20, -16423.32, -10256.97, -19928.88, -19240.87, 0.00, 0.00, 0.00
70, 13229.33, 38727.93, -9897.67, -21094.99, -16465.35, -10296.87, -19950.74, -19272.32, 0.00, 0.00, 0.00
71, 13248.17, 38833.92, -10004.55, -21105.03, -16434.16, -10288.19, -19977.92, -19290.09, 0.07, 0.88, 0.42
72, 13272.49, 39120.63, -10251.38, -21079.46, -16382.00, -10247.29, -19960.51, -19259.78, 0.00, 0.00, 0.00
73, 13266.97, 39090.36, -10174.11, -21056.17, -16402.96, -10248.01, -19931.32, -19234.84, 0.00, 0.00, 0.00
74, 13233.19, 38756.43, -9924.04, -21083.88, -16459.04, -10291.50, -19962.32, -19270.82, 0.00, 0.00, 0.00
75, 13240.82, 38787.76, -9958.39, -21094.88, -16436.24, -10281.18, -19963.21, -19273.82, 0.00, 0.00, 0.00
76, 13268.82, 39077.42, -10209.63, -21078.01, -16386.33, -10239.58, -19954.23, -19250.39, 0.00, 0.00, 0.00
77, 13271.68, 39131.96, -10214.17, -21057.33, -16391.07, -10227.55, -19935.34, -19231.31, 0.00, 0.00, 0.00
78, 13242.36, 38805.11, -9946.53, -21069.83, -16453.12, -10271.86, -19933.71, -19257.48, 0.00, 0.00, 0.00
79, 13245.71, 38755.20, -9929.90, -21092.29, -16445.34, -10281.04, -19958.36, -19280.68, 0.00, 0.00, 0.00
80, 13271.91, 39028.63, -10174.47, -21079.75, -16399.50, -10250.89, -19969.18, -19270.89, 0.00, 0.00, 0.00
81, 13277.43, 39167.81, -10246.44, -21047.92, -16388.75, -10232.38, -19935.72, -19238.17, 0.06, 0.89, 0.42
82, 13244.32, 38869.53, -9988.91, -21061.31, -16451.69, -10272.21, -19934.71, -19258.53, 0.00, 0.00, 0.00
83, 13237.66, 38730.74, -9911.48, -21086.23, -16445.45, -10283.01, -19972.18, -19287.92, 0.00, 0.00, 0.00
84, 13260.84, 38978.80, -10118.50, -21076.55, -16396.26, -10251.87, -19956.55, -19268.05, 0.00, 0.00, 0.00
85, 13273.72, 39173.66, -10261.22, -21047.01, -16373.37, -10223.96, -19925.33, -19232.42, 0.00, 0.00, 0.00
86, 13249.60, 38925.36, -10033.14, -21054.76, -16429.54, -10254.06, -19934.98, -19239.38, 0.00, 0.00, 0.00
87, 13229.84, 38719.05, -9895.47, -21084.53, -16447.73, -10277.58, -19964.94, -19269.24, 0.00, 0.00, 0.00
88, 13257.07, 38925.92, -10082.56, -21081.47, -16405.00, -10260.43, -19955.01, -19264.79, 0.00, 0.00, 0.00
89, 13278.03, 39174.25, -10278.92, -21055.90, -16365.77, -10229.99, -19931.43, -19240.58, 0.00, 0.00, 0.00
90, 13259.70, 39003.95, -10084.46, -21053.93, -16414.76, -10259.16, -19925.62, -19239.98, 0.00, 0.00, 0.00
91, 13239.05, 38733.00, -9900.48, -21083.57, -16446.28, -10288.08, -19954.94, -19260.07, 0.06, 0.88, 0.43
92, 13256.08, 38883.96, -10043.38, -21091.96, -16416.82, -10278.36, -19972.15, -19273.21, 0.00, 0.00, 0.00
93, 13277.07, 39158.73, -10274.20, -21061.20, -16370.84, -10238.86, -19941.11, -19244.79, 0.00, 0.00, 0.00
94, 13254.90, 39069.71, -10151.42, -21053.58, -16412.57, -10255.29, -19926.94, -19236.76, 0.00, 0.00, 0.00
95, 13222.38, 38751.73, -9921.96, -21075.62, -16457.68, -10295.57, -19949.42, -19253.26, 0.00, 0.00, 0.00
96, 13240.84, 38834.03, -10000.55, -21088.22, -16431.46, -10300.26, -19974.84, -19272.37, 0.00, 0.00, 0.00
97, 13265.71, 39122.57, -10250.49, -21066.81, -16380.45, -10262.20, -19959.26, -19246.06, 0.00, 0.00, 0.00
98, 13262.83, 39120.71, -10204.58, -21039.58, -16393.42, -10260.03, -19914.91, -19223.86, 0.00, 0.00, 0.00
99, 13235.16, 38791.43, -9944.31, -21059.25, -16443.39, -10297.85, -19925.06, -19248.67, 0.00, 0.00, 0.00
100, 13238.98, 38801.22, -9963.31, -21094.88, -16430.90, -10300.26, -19965.94, -19268.07, 0.00, 0.00, 0.00
101, 13268.00, 39083.61, -10218.01, -21077.31, -16374.57, -10257.44, -19957.76, -19244.22, 0.06, 0.88, 0.43
102, 13268.51, 39169.69, -10239.04, -21048.06, -16382.31, -10249.64, -19930.98, -19231.42, 0.00, 0.00, 0.00
103, 13233.33, 38842.88, -9980.32, -21069.38, -16448.11, -10299.28, -19954.94, -19261.82, 0.00, 0.00, 0.00
104, 13232.59, 38767.67, -9947.46, -21089.45, -16437.16, -10307.60, -19960.69, -19276.43, 0.00, 0.00, 0.00
105, 13262.61, 39040.72, -10174.78, -21079.59, -16385.55, -10278.32, -19959.39, -19267.25, 0.00, 0.00, 0.00
106, 13271.75, 39200.73, -10269.84, -21055.79, -16370.35, -10259.65, -19935.92, -19246.17, 0.00, 0.00, 0.00
107, 13240.77, 38914.39, -10021.56, -21069.74, -16434.48, -10295.77, -19942.65, -19253.10, 0.00, 0.00, 0.00
108, 13227.70, 38753.30, -9929.14, -21101.86, -16444.58, -10316.67, -19977.94, -19286.89, 0.00, 0.00, 0.00
109, 13257.47, 38991.97, -10133.92, -21095.35, -16402.56, -10291.64, -19973.88, -19275.96, 0.00, 0.00, 0.00
110, 13275.01, 39206.10, -10299.21, -21058.74, -16372.23, -10259.05, -19950.47, -19248.14, 0.00, 0.00, 0.00
111, 13252.39, 38981.60, -10073.35, -21058.92, -16435.21, -10295.41, -19956.78, -19265.24, 0.07, 0.89, 0.43
112, 13235.74, 38752.40, -9910.07, -21094.06, -16469.23, -10331.18, -19988.90, -19300.42, 0.00, 0.00, 0.00
113, 13265.92, 38946.97, -10081.11, -21098.77, -16427.46, -10317.63, -19992.12, -19295.63, 0.00, 0.00, 0.00
114, 13278.75, 39201.45, -10288.31, -21053.55, -16367.09, -10263.27, -19941.82, -19246.26, 0.00, 0.00, 0.00
115, 13248.73, 39051.38, -10122.93, -21049.42, -16414.47, -10285.54, -19934.74, -19255.18, 0.00, 0.00, 0.00
116, 13220.41, 38763.82, -9923.82, -21087.08, -16457.90, -10328.99, -19973.36, -19293.44, 0.00, 0.00, 0.00
117, 13243.70, 38891.50, -10039.87, -21096.98, -16422.94, -10316.87, -19992.65, -19294.29, 0.00, 0.00, 0.00
118, 13267.12, 39173.31, -10268.91, -21060.97, -16364.47, -10264.23, -19952.98, -19247.44, 0.00, 0.00, 0.00
119, 13255.34, 39122.61, -10167.79, -21046.67, -16395.21, -10272.97, -19928.05, -19245.72, 0.00, 0.00, 0.00
120, 13224.21, 38802.83, -9933.94, -21081.72, -16452.25, -10319.06, -19970.10, -19287.54, 0.00, 0.00, 0.00
121, 13237.22, 38856.63, -10005.00, -21096.49, -16429.18, -10310.55, -19986.62, -19287.65, 0.07, 0.89, 0.43
122, 13269.00, 39145.91, -10261.55, -21074.41, -16378.04, -10271.30, -19966.83, -19257.37, 0.00, 0.00, 0.00
123, 13270.63, 39184.37, -10237.63, -21061.80, -16391.00, -10268.48, -19958.41, -19247.00, 0.00, 0.00, 0.00
124, 13237.91, 38860.20, -9977.15, -21087.62, -16452.29, -10308.11, -19965.90, -19271.52, 0.00, 0.00, 0.00
125, 13239.79, 38832.38, -9986.07, -21104.99, -16441.45, -10311.24, -19976.18, -19291.86, 0.00, 0.00, 0.00
126, 13264.31, 39107.55, -10227.38, -21084.89, -16388.23, -10273.11, -19964.38, -19269.15, 0.00, 0.00, 0.00
127, 13268.69, 39222.62, -10271.30, -21062.25, -16384.30, -10257.82, -19948.22, -19252.76, 0.00, 0.00, 0.00
128, 13239.41, 38918.97, -10014.41, -21074.65, -16448.40, -10303.04, -19963.42, -19285.67, 0.00, 0.00, 0.00
129, 13232.95, 38810.03, -9962.19, -21098.57, -16452.04, -10320.07, -19984.83, -19300.26, 0.00, 0.00, 0.00
130, 13266.45, 39063.88, -10184.88, -21082.03, -16400.53, -10281.49, -19965.05, -19275.52, 0.00, 0.00, 0.00
131, 13279.08, 39241.91, -10303.26, -21053.02, -16382.62, -10256.88, -19931.21, -19252.12, 0.00, 0.00, 0.00
132, 13248.15, 38979.50, -10063.85, -21068.78, -16446.90, -10299.84, -19951.12, -19276.75, 0.07, 0.89, 0.43
133, 13232.03, 38793.15, -9950.37, -21095.67, -16462.71, -10330.82, -19985.07, -19314.77, 0.00, 0.00, 0.00
134, 13252.42, 39005.43, -10145.21, -21097.79, -16424.31, -10309.72, -19994.73, -19312.98, 0.00, 0.00, 0.00
135, 13270.19, 39234.64, -10331.13, -21064.82, -16384.28, -10261.66, -19956.73, -19270.76, 0.00, 0.00, 0.00
136, 13249.31, 39037.19, -10127.84, -21053.93, -16436.98, -10295.48, -19940.30, -19281.93, 0.00, 0.00, 0.00
137, 13225.75, 38785.57, -9949.70, -21086.88, -16464.76, -10321.54, -19970.34, -19300.48, 0.00, 0.00, 0.00
138, 13242.36, 38951.58, -10095.19, -21098.19, -16428.06, -10305.36, -19989.48, -19300.55, 0.00, 0.00, 0.00
139, 13262.43, 39215.00, -10321.83, -21074.45, -16385.46, -10276.24, -19971.93, -19284.91, 0.00, 0.00, 0.00
140, 13252.19, 39104.40, -10184.01, -21066.54, -16423.93, -10293.94, -19963.13, -19280.32, 0.00, 0.00, 0.00
141, 13231.29, 38804.97, -9963.49, -21093.61, -16463.09, -10323.06, -19995.62, -19303.86, 0.00, 0.00, 0.00
142, 13252.08, 38908.20, -10053.12, -21097.83, -16432.71, -10306.12, -19995.51, -19299.52, 0.07, 0.89, 0.42
143, 13274.07, 39192.46, -10293.63, -21074.05, -16386.89, -10272.06, -19969.90, -19274.82, 0.00, 0.00, 0.00
144, 13269.81, 39163.27, -10227.40, -21056.21, -16407.52, -10280.01, -19952.13, -19268.79, 0.00, 0.00, 0.00
145, 13233.86, 38836.47, -9977.13, -21077.54, -16462.86, -10322.59, -19977.34, -19303.39, 0.00, 0.00, 0.00
146, 13244.93, 38859.69, -10014.18, -21093.32, -16441.59, -10318.03, -19990.08, -19309.09, 0.00, 0.00, 0.00
147, 13275.35, 39145.57, -10257.01, -21071.14, -16389.39, -10283.12, -19963.68, -19285.22, 0.00, 0.00, 0.00
148, 13271.04, 39207.73, -10269.82, -21052.86, -16400.68, -10289.38, -19943.37, -19281.84, 0.00, 0.00, 0.00
149, 13236.99, 38882.29, -10015.55, -21075.30, -16463.38, -10338.96, -19963.10, -19304.37, 0.00, 0.00, 0.00
150, 13240.64, 38831.08, -9995.74, -21095.69, -16451.46, -10341.84, -19984.00, -19315.35, 0.00, 0.00, 0.00
151, 13265.31, 39107.06, -10229.12, -21084.33, -16404.48, -10312.00, -19982.17, -19304.64, 0.00, 0.00, 0.00
152, 13276.49, 39248.28, -10311.66, -21055.03, -16384.19, -10291.23, -19949.29, -19280.32, 0.07, 0.89, 0.41
153, 13258.76, 38954.86, -10050.48, -21063.97, -16429.22, -10311.80, -19952.53, -19286.16, 0.00, 0.00, 0.00
154, 13256.77, 38826.61, -9961.48, -21086.26, -16425.67, -10320.54, -19966.68, -19302.65, 0.00, 0.00, 0.00
155, 13282.14, 39076.46, -10166.58, -21089.76, -16382.64, -10296.26, -19974.41, -19296.39, 0.00, 0.00, 0.00
156, 13297.61, 39273.98, -10312.96, -21064.51, -16353.07, -10273.40, -19958.54, -19273.19, 0.00, 0.00, 0.00
157, 13279.13, 39037.45, -10079.61, -21056.68, -16405.31, -10306.88, -19946.27, -19283.86, 0.00, 0.00, 0.00
158, 13263.46, 38818.79, -9941.32, -21081.47, -16425.27, -10333.39, -19969.07, -19310.65, 0.00, 0.00, 0.00
159, 13282.19, 39013.00, -10116.94, -21088.40, -16392.32, -10318.12, -19985.68, -19308.46, 0.00, 0.00, 0.00
160, 13295.71, 39255.38, -10314.50, -21067.03, -16361.32, -10287.70, -19966.39, -19287.19, 0.00, 0.00, 0.00
161, 13271.44, 39088.68, -10139.56, -21064.15, -16417.94, -10321.28, -19961.78, -19303.28, 0.00, 0.00, 0.00
162, 13241.40, 38811.95, -9957.90, -21094.66, -16456.25, -10357.19, -19997.01, -19333.14, 0.06, 0.89, 0.42
163, 13255.03, 38948.14, -10095.92, -21102.30, -16428.02, -10342.91, -20017.60, -19334.19, 0.00, 0.00, 0.00
164, 13271.44, 39219.29, -10330.55, -21079.50, -16387.20, -10304.96, -20006.24, -19304.35, 0.00, 0.00, 0.00
165, 13259.03, 39139.11, -10212.71, -21064.30, -16423.59, -10324.20, -19963.57, -19298.09, 0.00, 0.00, 0.00
166, 13235.67, 38827.66, -9973.06, -21076.46, -16457.75, -10354.15, -19947.25, -19305.38, 0.00, 0.00, 0.00
167, 13247.99, 38903.90, -10043.67, -21094.57, -16437.45, -10350.02, -19983.13, -19313.85, 0.00, 0.00, 0.00
168, 13275.66, 39188.29, -10294.86, -21070.59, -16388.81, -10315.98, -19975.17, -19296.84, 0.00, 0.00, 0.00
169, 13272.80, 39194.43, -10249.64, -21045.82, -16408.06, -10318.55, -19946.27, -19285.08, 0.00, 0.00, 0.00
170, 13241.49, 38863.82, -9991.16, -21078.19, -16470.04, -10369.69, -19990.04, -19329.90, 0.00, 0.00, 0.00
171, 13248.19, 38857.95, -10020.51, -21103.44, -16452.60, -10381.29, -20024.46, -19355.25, 0.00, 0.00, 0.00
172, 13276.09, 39142.35, -10265.82, -21079.35, -16398.07, -10343.40, -19982.86, -19324.63, 0.06, 0.89, 0.43
173, 13276.85, 39232.41, -10295.35, -21049.31, -16396.26, -10329.39, -19944.93, -19290.76, 0.00, 0.00, 0.00
174, 13247.32, 38915.91, -10026.48, -21053.55, -16453.83, -10368.39, -19950.81, -19307.15, 0.00, 0.00, 0.00
175, 13240.90, 38830.70, -9983.83, -21078.61, -16451.60, -10375.19, -19974.55, -19321.32, 0.00, 0.00, 0.00
176, 13269.45, 39093.76, -10215.82, -21068.17, -16402.42, -10345.37, -19972.22, -19312.55, 0.00, 0.00, 0.00
177, 13278.52, 39254.76, -10316.80, -21042.69, -16388.21, -10324.49, -19948.89, -19291.28, 0.00, 0.00, 0.00
178, 13250.05, 38977.37, -10063.87, -21055.95, -16450.77, -10363.86, -19959.08, -19304.73, 0.00, 0.00, 0.00
179, 13241.33, 38815.75, -9968.61, -21085.03, -16457.12, -10379.17, -19987.76, -19327.93, 0.00, 0.00, 0.00
180, 13264.31, 39044.45, -10180.03, -21085.90, -16415.14, -10356.05, -19999.20, -19324.07, 0.00, 0.00, 0.00
181, 13282.95, 39267.88, -10340.92, -21048.84, -16378.51, -10317.72, -19947.50, -19267.76, 0.00, 0.00, 0.00
182, 13255.43, 39048.34, -10128.22, -21054.00, -16444.22, -10360.95, -19947.41, -19291.70, 0.07, 0.88, 0.43
183, 13235.09, 38808.04, -9975.72, -21085.63, -16472.88, -10395.42, -19990.66, -19326.30, 0.00, 0.00, 0.00
184, 13258.23, 38989.35, -10139.69, -21087.46, -16429.52, -10375.72, -20000.59, -19325.07, 0.00, 0.00, 0.00
185, 13279.01, 39250.40, -10343.47, -21054.63, -16382.69, -10334.98, -19962.37, -19293.00, 0.00, 0.00, 0.00
186, 13260.44, 39112.22, -10183.83, -21046.63, -16431.64, -10354.13, -19948.82, -19286.40, 0.00, 0.00, 0.00
187, 13234.78, 38821.04, -9979.70, -21072.67, -16470.38, -10391.08, -19977.54, -19330.48, 0.00, 0.00, 0.00
188, 13250.27, 38944.25, -10099.32, -21088.29, -16441.67, -10382.54, -19998.20, -19335.46, 0.00, 0.00, 0.00
189, 13275.80, 39227.76, -10339.36, -21069.63, -16388.16, -10331.62, -19983.15, -19295.93, 0.00, 0.00, 0.00
190, 13265.29, 39177.87, -10246.35, -21060.35, -16420.08, -10347.00, -19972.36, -19303.95, 0.00, 0.00, 0.00
191, 13232.28, 38850.86, -10006.50, -21089.79, -16475.67, -10398.88, -20001.88, -19341.70, 0.00, 0.00, 0.00
192, 13248.53, 38903.90, -10061.24, -21098.66, -16445.90, -10382.25, -19998.89, -19329.05, 0.07, 0.89, 0.43
193, 13280.09, 39192.71, -10308.27, -21069.96, -16387.22, -10330.39, -19976.20, -19293.56, 0.00, 0.00, 0.00
194, 13273.63, 39227.80, -10284.46, -21050.18, -16403.74, -10333.23, -19966.30, -19287.41, 0.00, 0.00, 0.00
195, 13235.67, 38897.49, -10024.31, -21078.57, -16470.08, -10387.39, -19988.09, -19321.54, 0.00, 0.00, 0.00
196, 13241.53, 38865.70, -10030.70, -21094.08, -16454.06, -10382.74, -19993.77, -19324.38, 0.00, 0.00, 0.00
197, 13269.25, 39142.95, -10273.64, -21075.73, -16402.69, -10346.82, -19984.96, -19301.67, 0.00, 0.00, 0.00
198, 13272.11, 39260.59, -10329.99, -21049.62, -16395.65, -10333.30, -19948.28, -19277.53, 0.00, 0.00, 0.00
199, 13242.45, 38953.84, -10065.53, -21056.79, -16453.23, -10369.20, -19949.42, -19294.40, 0.00, 0.00, 0.00
200, 13236.68, 38838.64, -10008.64, -21081.36, -16452.80, -10381.65, -19978.90, -19323.57, 0.00, 0.00, 0.00
201, 13262.27, 39092.51, -10231.96, -21072.62, -16403.30, -10351.92, -19974.79, -19314.63, 0.00, 0.00, 0.00
202, 13271.53, 39275.46, -10352.81, -21045.57, -16384.21, -10329.81, -19960.17, -19295.48, 0.06, 0.89, 0.43
203, 13247.66, 39012.35, -10109.02, -21046.67, -16441.81, -10367.39, -19956.53, -19308.08, 0.00, 0.00, 0.00
204, 13235.58, 38823.55, -9982.36, -21070.90, -16451.24, -10388.31, -19969.92, -19338.15, 0.00, 0.00, 0.00
205, 13255.32, 39041.59, -10172.32, -21071.19, -16411.95, -10363.41, -19973.52, -19327.08, 0.00, 0.00, 0.00
206, 13275.62, 39279.19, -10359.16, -21036.39, -16375.22, -10324.45, -19944.26, -19291.88, 0.00, 0.00, 0.00
207, 13251.52, 39082.00, -10159.43, -21038.67, -16437.61, -10367.68, -19944.64, -19305.85, 0.00, 0.00, 0.00
208, 13232.48, 38821.71, -9989.80, -21065.09, -16458.01, -10390.81, -19969.32, -19315.33, 0.00, 0.00, 0.00
209, 13256.66, 38985.75, -10133.41, -21067.90, -16418.79, -10371.37, -19974.88, -19317.79, 0.00, 0.00, 0.00
210, 13277.92, 39258.04, -10350.42, -21041.64, -16373.86, -10335.96, -19953.45, -19293.62, 0.00, 0.00, 0.00
211, 13256.62, 39146.35, -10215.06, -21034.42, -16417.33, -10357.37, -19946.99, -19292.88, 0.00, 0.00, 0.00
212, 13235.72, 38838.43, -10000.26, -21054.52, -16450.86, -10388.46, -19955.79, -19315.91, 0.06, 0.89, 0.42
213, 13249.42, 38942.39, -10093.38, -21075.77, -16419.68, -10381.56, -19978.48, -19333.39, 0.00, 0.00, 0.00
214, 13271.06, 39231.49, -10348.10, -21060.53, -16372.25, -10345.46, -19969.67, -19310.45, 0.00, 0.00, 0.00
215, 13270.52, 39208.67, -10283.05, -21034.24, -16389.37, -10337.97, -19936.32, -19278.02, 0.00, 0.00, 0.00
216, 13241.75, 38879.09, -10023.62, -21048.75, -16441.70, -10377.00, -19949.22, -19295.97, 0.00, 0.00, 0.00
217, 13245.24, 38905.24, -10067.16, -21068.24, -16426.72, -10381.16, -19974.28, -19314.52, 0.00, 0.00, 0.00
218, 13270.77, 39190.63, -10328.76, -21054.94, -16377.21, -10348.01, -19979.08, -19302.29, 0.00, 0.00, 0.00
219, 13266.30, 39251.54, -10333.34, -21028.61, -16381.75, -10342.40, -19936.50, -19278.65, 0.00, 0.00, 0.00
220, 13226.24, 38926.43, -10063.81, -21045.78, -16448.09, -10392.55, -19944.80, -19311.44, 0.00, 0.00, 0.00
221, 13224.61, 38869.10, -10044.29, -21068.91, -16443.33, -10402.57, -19989.70, -19342.37, 0.00, 0.00, 0.00
222, 13254.61, 39141.12, -10278.94, -21050.43, -16390.00, -10364.77, -19981.72, -19318.99, 0.06, 0.88, 0.42
223, 13266.23, 39283.88, -10360.61, -21021.72, -16374.22, -10340.90, -19953.63, -19290.87, 0.00, 0.00, 0.00
224, 13232.81, 38989.69, -10104.40, -21043.14, -16444.11, -10392.04, -19976.58, -19326.64, 0.00, 0.00, 0.00
225, 13224.07, 38849.77, -10019.86, -21063.75, -16450.03, -10409.05, -19979.69, -19343.80, 0.00, 0.00, 0.00
226, 13252.59, 39092.24, -10237.93, -21054.56, -16402.04, -10376.89, -19978.05, -19316.82, 0.00, 0.00, 0.00
227, 13265.83, 39297.70, -10385.07, -21033.50, -16376.03, -10351.96, -19969.43, -19297.65, 0.00, 0.00, 0.00
228, 13238.71, 39060.59, -10150.31, -21037.53, -16438.01, -10381.87, -19964.22, -19300.33, 0.00, 0.00, 0.00
229, 13220.45, 38846.53, -10012.37, -21065.85, -16459.78, -10409.48, -19981.43, -19336.40, 0.00, 0.00, 0.00
230, 13245.71, 39046.17, -10193.49, -21062.36, -16415.70, -10390.19, -19986.84, -19338.59, 0.00, 0.00, 0.00
231, 13263.08, 39295.80, -10384.53, -21031.70, -16374.64, -10349.68, -19956.89, -19288.28, 0.00, 0.00, 0.00
232, 13239.38, 39132.85, -10202.52, -21028.61, -16428.42, -10378.72, -19953.38, -19295.01, 0.06, 0.88, 0.42
233, 13217.97, 38848.96, -10011.52, -21051.12, -16458.13, -10409.88, -19976.92, -19318.41, 0.00, 0.00, 0.00
234, 13234.60, 38990.45, -10144.09, -21052.82, -16427.50, -10402.30, -19988.18, -19334.28, 0.00, 0.00, 0.00
235, 13252.95, 39269.44, -10384.78, -21029.37, -16388.01, -10370.14, -19972.63, -19308.69, 0.00, 0.00, 0.00
236, 13240.46, 39194.59, -10269.08, -21017.14, -16425.58, -10381.76, -19950.72, -19283.43, 0.00, 0.00, 0.00
237, 13215.00, 38877.91, -10031.49, -21042.80, -16466.89, -10415.33, -19970.95, -19307.41, 0.00, 0.00, 0.00
238, 13231.16, 38952.63, -10109.27, -21058.99, -16437.05, -10404.20, -19995.40, -19316.85, 0.00, 0.00, 0.00
239, 13258.32, 39243.45, -10357.84, -21033.64, -16383.69, -10366.34, -19975.35, -19292.91, 0.00, 0.00, 0.00
240, 13254.00, 39255.14, -10314.23, -21009.68, -16402.92, -10374.76, -19945.67, -19280.08, 0.00, 0.00, 0.00
241, 13224.63, 38923.71, -10054.04, -21030.09, -16453.99, -10416.74, -19957.78, -19306.54, 0.00, 0.00, 0.00
242, 13225.82, 38914.95, -10072.72, -21052.37, -16438.50, -10422.37, -19990.06, -19330.32, 0.06, 0.88, 0.43
243, 13248.97, 39196.84, -10318.44, -21031.56, -16384.32, -10383.14, -19971.04, -19306.12, 0.00, 0.00, 0.00
244, 13249.35, 39296.73, -10352.34, -21009.41, -16384.52, -10371.90, -19953.49, -19291.10, 0.00, 0.00, 0.00
245, 13221.75, 38974.49, -10096.15, -21022.98, -16443.55, -10416.99, -19981.68, -19315.59, 0.00, 0.00, 0.00
246, 13217.23, 38884.34, -10051.89, -21046.67, -16438.46, -10425.43, -20006.20, -19333.95, 0.00, 0.00, 0.00
247, 13238.04, 39153.35, -10279.88, -21036.08, -16393.93, -10397.16, -19983.44, -19323.89, 0.00, 0.00, 0.00
248, 13251.97, 39317.97, -10390.48, -20996.63, -16374.78, -10372.75, -19948.30, -19298.07, 0.00, 0.00, 0.00
249, 13221.64, 39036.47, -10149.19, -21010.66, -16442.08, -10411.75, -19965.63, -19320.56, 0.00, 0.00, 0.00
250, 13212.07, 38859.69, -10043.47, -21041.84, -16449.14, -10420.90, -19997.03, -19325.18, 0.00, 0.00, 0.00
251, 13238.96, 39092.89, -10247.63, -21040.97, -16406.38, -10392.15, -19995.02, -19317.43, 0.00, 0.00, 0.00
252, 13257.18, 39315.53, -10424.23, -21003.55, -16373.10, -10362.25, -19942.94, -19286.74, 0.06, 0.88, 0.43
253, 13225.30, 39099.88, -10200.89, -21011.11, -16437.29, -10403.89, -19945.96, -19297.40, 0.00, 0.00, 0.00
254, 13202.01, 38857.07, -10042.46, -21040.95, -16464.32, -10438.06, -19981.03, -19328.34, 0.00, 0.00, 0.00
255, 13225.48, 39034.17, -10207.35, -21039.72, -16422.41, -10419.51, -19989.99, -19323.98, 0.00, 0.00, 0.00
0, 13252.77, 39298.61, -10414.10, -21007.82, -16372.63, -10375.63, -19968.82, -19297.56, 0.00, 0.00, 0.00
1, 13236.23, 39168.32, -10248.70, -21002.93, -16419.61, -10393.83, -19964.94, -19289.96, 0.00, 0.00, 0.00
2, 13205.25, 38875.76, -10042.44, -21035.16, -16466.73, -10435.45, -19984.04, -19320.87, 0.00, 0.00, 0.00
3, 13221.28, 38991.93, -10154.06, -21047.03, -16437.96, -10430.51, -19994.73, -19331.33, 0.00, 0.00, 0.00
4, 13246.76, 39274.47, -10394.63, -21024.61, -16391.92, -10395.24, -19980.27, -19304.13, 0.00, 0.00, 0.00
5, 13242.27, 39227.49, -10301.56, -21000.83, -16419.19, -10406.39, -19946.85, -19289.46, 0.00, 0.00, 0.00
6, 13212.74, 38902.56, -10053.95, -21034.47, -16470.02, -10450.76, -19979.60, -19331.22, 0.06, 0.88, 0.43
7, 13229.53, 38949.32, -10116.69, -21054.85, -16441.79, -10446.18, -20009.37, -19352.36, 0.00, 0.00, 0.00
8, 13255.95, 39243.18, -10367.68, -21036.43, -16391.12, -10407.33, -19998.31, -19320.76, 0.00, 0.00, 0.00
9, 13255.79, 39282.65, -10357.06, -21012.74, -16405.53, -10402.19, -19976.74, -19300.26, 0.00, 0.00, 0.00
10, 13221.79, 38952.12, -10093.91, -21033.82, -16466.87, -10444.14, -19984.94, -19326.70, 0.00, 0.00, 0.00
11, 13218.89, 38911.93, -10098.21, -21054.07, -16454.77, -10442.49, -20000.14, -19347.76, 0.00, 0.00, 0.00
12, 13246.74, 39192.87, -10337.19, -21032.25, -16396.57, -10396.67, -19980.56, -19316.98, 0.00, 0.00, 0.00
13, 13252.04, 39318.21, -10395.10, -21008.49, -16388.95, -10376.66, -19962.34, -19291.66, 0.00, 0.00, 0.00
14, 13214.69, 39001.67, -10138.88, -21031.09, -16463.51, -10433.79, -19990.66, -19339.94, 0.00, 0.00, 0.00
15, 13214.04, 38878.96, -10079.85, -21047.47, -16458.91, -10440.43, -20010.96, -19346.60, 0.00, 0.00, 0.00
16, 13241.71, 39134.48, -10291.66, -21031.96, -16408.84, -10401.43, -20007.92, -19323.51, 0.06, 0.88, 0.43
17, 13247.57, 39323.71, -10419.06, -21000.11, -16394.47, -10381.31, -19967.51, -19294.85, 0.00, 0.00, 0.00
18, 13215.20, 39063.20, -10183.83, -21010.24, -16462.39, -10422.39, -19969.79, -19302.05, 0.00, 0.00, 0.00
19, 13204.61, 38863.98, -10064.57, -21034.15, -16476.05, -10442.31, -19999.94, -19332.78, 0.00, 0.00, 0.00
20, 13230.09, 39079.52, -10252.75, -21028.52, -16433.72, -10419.78, -19993.99, -19323.51, 0.00, 0.00, 0.00
21, 13247.34, 39319.02, -10435.00, -21007.09, -16402.74, -10395.53, -19985.25, -19305.58, 0.00, 0.00, 0.00
22, 13228.63, 39136.41, -10238.28, -21007.69, -16453.59, -10427.40, -19981.77, -19319.57, 0.00, 0.00, 0.00
23, 13213.12, 38883.16, -10067.00, -21038.31, -16480.32, -10460.30, -20002.02, -19351.00, 0.00, 0.00, 0.00
24, 13230.13, 39047.13, -10214.84, -21050.85, -16452.67, -10446.96, -20011.58, -19348.43, 0.00, 0.00, 0.00
25, 13243.94, 39302.97, -10444.88, -21012.74, -16407.19, -10401.63, -19977.23, -19300.28, 0.00, 0.00, 0.00
26, 13229.82, 39190.63, -10303.39, -21000.31, -16448.07, -10415.29, -19961.09, -19287.77, 0.06, 0.89, 0.43
27, 13205.37, 38879.29, -10082.69, -21026.67, -16488.05, -10449.71, -19977.70, -19323.13, 0.00, 0.00, 0.00
28, 13218.33, 38965.10, -10179.01, -21045.62, -16466.11, -10443.74, -20009.71, -19337.66, 0.00, 0.00, 0.00
29, 13245.00, 39252.10, -10420.52, -21027.51, -16423.57, -10411.35, -19997.37, -19316.64, 0.00, 0.00, 0.00
30, 13233.01, 39237.79, -10355.38, -21015.91, -16454.57, -10423.13, -19971.22, -19311.82, 0.00, 0.00, 0.00
31, 13198.26, 38900.26, -10109.11, -21031.18, -16504.62, -10465.69, -19973.09, -19338.10, 0.00, 0.00, 0.00
32, 13205.48, 38920.87, -10140.45, -21046.27, -16484.03, -10460.93, -20001.68, -19348.61, 0.00, 0.00, 0.00
33, 13231.54, 39209.92, -10396.04, -21026.93, -16429.13, -10418.06, -19996.74, -19319.86, 0.00, 0.00, 0.00
34, 13235.21, 39280.11, -10412.27, -21009.34, -16437.03, -10416.61, -19976.47, -19310.19, 0.00, 0.00, 0.00
35, 13208.96, 38952.45, -10151.83, -21024.52, -16493.55, -10452.95, -19981.72, -19329.74, 0.00, 0.00, 0.00
36, 13212.54, 38888.30, -10130.10, -21048.95, -16481.88, -10449.53, -20004.27, -19337.43, 0.06, 0.88, 0.43
37, 13239.59, 39169.15, -10363.63, -21043.63, -16431.44, -10414.06, -20004.19, -19318.70, 0.00, 0.00, 0.00
38, 13250.14, 39316.02, -10447.52, -21018.78, -16419.08, -10402.59, -19985.12, -19308.96, 0.00, 0.00, 0.00
39, 13223.02, 39018.84, -10190.07, -21031.94, -16481.77, -10458.29, -19996.85, -19329.54, 0.00, 0.00, 0.00
40, 13213.32, 38874.18, -10103.03, -21064.62, -16488.90, -10476.80, -20022.22, -19336.14, 0.00, 0.00, 0.00
41, 13239.47, 39114.97, -10319.64, -21054.27, -16444.16, -10447.96, -20007.38, -19326.84, 0.00, 0.00, 0.00
42, 13252.62, 39320.79, -10464.53, -21016.14, -16421.51, -10428.00, -19976.02, -19311.93, 0.00, 0.00, 0.00
43, 13234.49, 39084.28, -10230.64, -21008.87, -16474.71, -10458.56, -19971.78, -19320.09, 0.00, 0.00, 0.00
44, 13216.76, 38868.41, -10086.22, -21038.29, -16492.35, -10481.94, -20001.50, -19342.91, 0.00, 0.00, 0.00
45, 13239.59, 39063.50, -10264.28, -21044.59, -16450.21, -10459.79, -20016.41, -19337.30, 0.00, 0.00, 0.00
46, 13264.84, 39314.77, -10463.99, -21008.38, -16401.96, -10416.34, -19977.21, -19299.37, 0.06, 0.89, 0.43
47, 13245.11, 39159.79, -10277.15, -21002.01, -16459.51, -10447.47, -19961.92, -19316.96, 0.00, 0.00, 0.00
48, 13213.99, 38885.93, -10082.11, -21042.58, -16500.37, -10492.33, -20015.03, -19368.48, 0.00, 0.00, 0.00
49, 13235.09, 39029.27, -10217.41, -21052.71, -16461.66, -10468.48, -20026.20, -19348.14, 0.00, 0.00, 0.00
50, 13260.89, 39303.51, -10456.91, -21018.84, -16412.08, -10425.34, -19980.58, -19302.88, 0.00, 0.00, 0.00
51, 13249.71, 39230.71, -10338.44, -21004.54, -16452.47, -10445.28, -19962.70, -19307.30, 0.00, 0.00, 0.00
52, 13220.30, 38917.80, -10101.85, -21039.54, -16503.30, -10492.27, -20007.74, -19350.04, 0.00, 0.00, 0.00
53, 13235.05, 38983.16, -10183.05, -21052.30, -16476.28, -10485.45, -20033.00, -19360.30, 0.00, 0.00, 0.00
54, 13265.04, 39266.61, -10433.03, -21030.02, -16417.54, -10437.62, -20012.32, -19321.99, 0.00, 0.00, 0.00
55, 13259.34, 39282.96, -10381.49, -21017.26, -16444.87, -10447.52, -19989.12, -19318.79, 0.00, 0.00, 0.00
56, 13231.18, 38962.40, -10120.38, -21026.15, -16502.34, -10488.13, -19993.23, -19339.55, 0.05, 0.89, 0.44
57, 13236.01, 38956.36, -10136.38, -21047.88, -16490.76, -10493.88, -20020.46, -19363.58, 0.00, 0.00, 0.00
58, 13261.45, 39224.54, -10398.41, -21027.69, -16438.39, -10458.81, -20006.73, -19339.53, 0.00, 0.00, 0.00
59, 13268.22, 39316.49, -10429.48, -20997.50, -16434.77, -10445.10, -19972.29, -19307.50, 0.00, 0.00, 0.00
60, 13242.42, 39015.44, -10147.45, -21013.43, -16495.52, -10498.86, -19985.12, -19332.18, 0.00, 0.00, 0.00
61, 13235.05, 38928.71, -10103.82, -21047.16, -16501.00, -10526.00, -20030.11, -19365.60, 0.00, 0.00, 0.00
62, 13257.87, 39180.21, -10347.87, -21041.51, -16460.90, -10502.73, -20035.75, -19354.84, 0.00, 0.00, 0.00
63, 13268.53, 39344.05, -10457.87, -21014.55, -16444.27, -10482.57, -19994.15, -19321.81, 0.00, 0.00, 0.00
64, 13245.35, 39080.68, -10200.08, -21020.25, -16505.53, -10525.06, -19980.94, -19334.62, 0.00, 0.00, 0.00
65, 13239.79, 38919.28, -10095.43, -21045.37, -16514.21, -10545.04, -20011.90, -19358.44, 0.00, 0.00, 0.00
66, 13265.83, 39141.32, -10306.95, -21038.04, -16467.58, -10523.65, -20010.31, -19348.79, 0.05, 0.88, 0.44
67, 13278.70, 39354.87, -10479.64, -21008.63, -16432.60, -10498.03, -19983.33, -19317.14, 0.00, 0.00, 0.00
68, 13256.91, 39152.23, -10260.52, -21017.77, -16490.38, -10536.77, -19994.44, -19335.53, 0.00, 0.00, 0.00
69, 13236.28, 38919.82, -10096.86, -21045.44, -16516.80, -10572.20, -20022.40, -19374.27, 0.00, 0.00, 0.00
70, 13255.66, 39090.68, -10264.17, -21040.88, -16475.13, -10540.68, -20017.37, -19356.83, 0.00, 0.00, 0.00
71, 13270.99, 39339.49, -10482.25, -21006.46, -16433.81, -10502.64, -19985.65, -19321.07, 0.00, 0.00, 0.00
72, 13250.36, 39214.23, -10319.40, -21005.45, -16484.12, -10534.29, -19990.19, -19324.13, 0.00, 0.00, 0.00
73, 13226.62, 38931.93, -10107.66, -21034.73, -16522.01, -10562.12, -20020.72, -19348.92, 0.00, 0.00, 0.00
74, 13239.25, 39038.55, -10226.41, -21043.29, -16494.40, -10554.76, -20020.75, -19353.97, 0.00, 0.00, 0.00
75, 13261.36, 39314.26, -10471.75, -21016.38, -16444.85, -10514.84, -19987.18, -19320.82, 0.00, 0.00, 0.00
76, 13252.93, 39275.52, -10375.21, -21001.34, -16478.20, -10524.83, -19962.86, -19316.02, 0.06, 0.87, 0.43
77, 13224.81, 38958.06, -10118.43, -21023.07, -16525.40, -10560.37, -19987.00, -19341.32, 0.00, 0.00, 0.00
78, 13239.07, 38996.02, -10174.20, -21039.12, -16499.63, -10553.42, -20008.07, -19352.72, 0.00, 0.00, 0.00
79, 13266.94, 39278.25, -10431.92, -21023.02, -16443.42, -10515.65, -20001.19, -19332.40, 0.00, 0.00, 0.00
80, 13263.44, 39323.40, -10414.06, -21006.41, -16455.00, -10515.00, -19989.54, -19317.47, 0.00, 0.00, 0.00
81, 13237.55, 39010.01, -10141.61, -21030.64, -16515.95, -10555.37, -20010.33, -19346.44, 0.00, 0.00, 0.00
82, 13239.65, 38973.57, -10144.12, -21050.36, -16506.18, -10559.79, -20019.59, -19358.35, 0.00, 0.00, 0.00
83, 13261.16, 39234.82, -10396.49, -21035.09, -16457.99, -10524.79, -20005.41, -19332.56, 0.00, 0.00, 0.00
84, 13269.65, 39352.57, -10460.30, -21013.86, -16449.92, -10504.83, -19988.85, -19307.03, 0.00, 0.00, 0.00
85, 13240.95, 39059.52, -10186.99, -21032.92, -16514.52, -10551.10, -20015.14, -19338.86, 0.00, 0.00, 0.00
86, 13232.30, 38944.29, -10118.03, -21058.05, -16516.24, -10560.86, -20034.70, -19355.18, 0.07, 0.88, 0.43
87, 13258.74, 39185.49, -10345.73, -21045.75, -16467.47, -10526.24, -20007.96, -19330.48, 0.00, 0.00, 0.00
88, 13274.48, 39366.41, -10483.68, -21014.62, -16439.13, -10489.90, -19983.60, -19297.87, 0.00, 0.00, 0.00
89, 13253.71, 39121.27, -10232.16, -21020.00, -16500.28, -10528.92, -19998.96, -19322.28, 0.00, 0.00, 0.00
90, 13231.32, 38932.58, -10107.55, -21047.16, -16522.03, -10555.63, -20010.87, -19347.87, 0.00, 0.00, 0.00
91, 13250.49, 39135.00, -10306.37, -21050.80, -16483.23, -10536.54, -20020.84, -19347.04, 0.00, 0.00, 0.00
92, 13262.94, 39360.77, -10499.15, -21030.64, -16450.03, -10508.54, -20010.89, -19328.02, 0.00, 0.00, 0.00
93, 13242.49, 39186.16, -10295.55, -21028.59, -16501.55, -10534.58, -19996.00, -19324.42, 0.00, 0.00, 0.00
94, 13219.40, 38930.77, -10109.60, -21051.21, -16530.57, -10559.52, -20011.38, -19352.34, 0.00, 0.00, 0.00
95, 13232.19, 39081.71, -10260.08, -21057.22, -16498.89, -10549.69, -20025.38, -19361.66, 0.00, 0.00, 0.00
96, 13249.96, 39340.88, -10493.83, -21027.34, -16451.60, -10511.78, -20001.59, -19327.44, 0.06, 0.88, 0.43
97, 13237.33, 39243.54, -10355.09, -21020.52, -16491.54, -10530.67, -19993.97, -19324.94, 0.00, 0.00, 0.00
98, 13212.14, 38948.76, -10127.40, -21052.59, -16534.19, -10566.85, -20027.88, -19354.42, 0.00, 0.00, 0.00
99, 13227.14, 39036.56, -10232.25, -21067.66, -16504.82, -10559.08, -20046.29, -19364.48, 0.00, 0.00, 0.00
100, 13250.02, 39312.07, -10483.53, -21045.42, -16452.72, -10518.42, -20027.56, -19334.73, 0.00, 0.00, 0.00
101, 13245.26, 39301.45, -10416.49, -21028.77, -16476.83, -10526.87, -20006.06, -19327.93, 0.00, 0.00, 0.00
