%OpenBCI Raw EEG Data
%
%Sample Rate = 250.0 Hz
%First Column = SampleIndex
%Other Columns = EEG data in microvolts followed by Accel Data (in G) interleaved with Aux Data
0, 41910.17, 31262.45, 10903.61, 16183.47, 4108.07, 17007.75, -25327.79, 0.00, 0.05, 0.39, 0.29
1, 41896.60, 31258.27, 10884.83, 16144.40, 4055.39, 16832.18, -25334.34, 0.00, 0.00, 0.00, 0.00
2, 41854.40, 31228.34, 10874.66, 16128.15, 4016.05, 16618.79, -25345.40, 0.00, 0.00, 0.00, 0.00
3, 41862.13, 31229.39, 10890.35, 16160.18, 4036.93, 16758.91, -25366.03, 0.00, 0.00, 0.00, 0.00
4, 41903.77, 31258.22, 10899.78, 16179.04, 4103.51, 17001.61, -25334.32, 0.00, 0.00, 0.00, 0.00
5, 41905.81, 31267.43, 10889.30, 16154.90, 4080.06, 16883.43, -25321.15, 0.00, 0.00, 0.00, 0.00
6, 41865.73, 31241.10, 10875.46, 16131.61, 4015.98, 16643.47, -25294.06, 0.00, 0.00, 0.00, 0.00
7, 41856.46, 31229.32, 10879.85, 16156.85, 4021.26, 16720.71, -25347.41, 0.00, 0.11, 0.82, 0.60
8, 41908.87, 31265.91, 10899.18, 16192.99, 4097.43, 16997.72, -25336.80, 0.00, 0.00, 0.00, 0.00
9, 41928.96, 31287.81, 10898.80, 16183.42, 4098.50, 16949.01, -25291.85, 0.00, 0.00, 0.00, 0.00
10, 41887.97, 31262.11, 10885.72, 16155.04, 4041.26, 16681.15, -25273.50, 0.00, 0.00, 0.00, 0.00
11, 41859.96, 31238.62, 10884.41, 16165.90, 4038.47, 16678.20, -25280.65, 0.00, 0.00, 0.00, 0.00
12, 41896.53, 31261.01, 10896.88, 16199.45, 4096.49, 16963.81, -25325.55, 0.00, 0.00, 0.00, 0.00
13, 41921.72, 31283.14, 10892.88, 16187.09, 4096.58, 16975.54, -25329.24, 0.00, 0.00, 0.00, 0.00
14, 41883.61, 31262.02, 10877.27, 16157.14, 4045.02, 16720.67, -25313.19, 0.00, 0.00, 0.00, 0.00
15, 41859.81, 31243.40, 10884.72, 16166.32, 4028.97, 16661.79, -25336.89, 0.00, 0.00, 0.00, 0.00
16, 41899.93, 31266.87, 10904.92, 16204.95, 4094.79, 16946.27, -25310.94, 0.00, 0.11, 0.81, 0.60
17, 41934.80, 31294.77, 10907.94, 16197.17, 4126.42, 17005.12, -25328.84, 0.00, 0.00, 0.00, 0.00
18, 41905.07, 31278.83, 10892.25, 16163.80, 4064.28, 16765.06, -25333.51, 0.00, 0.00, 0.00, 0.00
19, 41864.28, 31246.75, 10884.49, 16157.11, 4032.21, 16648.32, -25273.65, 0.00, 0.00, 0.00, 0.00
20, 41893.63, 31263.07, 10907.36, 16194.40, 4091.40, 16874.47, -25314.67, 0.00, 0.00, 0.00, 0.00
21, 41933.12, 31293.67, 10909.33, 16195.49, 4124.63, 17015.67, -25352.87, 0.00, 0.00, 0.00, 0.00
22, 41910.08, 31282.92, 10893.35, 16159.15, 4079.19, 16803.88, -25335.46, 0.00, 0.00, 0.00, 0.00
23, 41871.70, 31256.32, 10888.88, 16153.47, 4031.11, 16642.57, -25306.96, 0.00, 0.00, 0.00, 0.00
24, 41888.02, 31263.41, 10905.26, 16189.88, 4073.74, 16827.38, -25294.42, 0.00, 0.00, 0.00, 0.00
25, 41930.04, 31294.32, 10907.49, 16199.94, 4110.91, 17018.46, -25348.38, 0.00, 0.00, 0.00, 0.00
26, 41924.20, 31294.21, 10897.95, 16170.84, 4087.93, 16846.08, -25319.18, 0.00, 0.10, 0.80, 0.60
27, 41878.07, 31259.76, 10884.25, 16150.57, 4038.71, 16628.11, -25333.29, 0.00, 0.00, 0.00, 0.00
28, 41881.45, 31259.81, 10892.29, 16182.51, 4047.81, 16752.68, -25349.20, 0.00, 0.00, 0.00, 0.00
29, 41930.62, 31297.76, 10900.14, 16210.27, 4116.10, 16998.54, -25321.64, 0.00, 0.00, 0.00, 0.00
30, 41935.87, 31309.25, 10894.71, 16189.68, 4099.96, 16886.61, -25303.09, 0.00, 0.00, 0.00, 0.00
31, 41885.96, 31272.64, 10883.62, 16166.68, 4038.62, 16658.78, -25287.96, 0.00, 0.00, 0.00, 0.00
32, 41865.57, 31245.97, 10890.91, 16177.41, 4050.09, 16709.69, -25298.46, 0.00, 0.00, 0.00, 0.00
33, 41909.30, 31270.36, 10902.96, 16196.61, 4112.14, 16967.97, -25353.90, 0.00, 0.00, 0.00, 0.00
34, 41918.88, 31278.87, 10891.96, 16173.68, 4100.00, 16921.25, -25323.92, 0.00, 0.00, 0.00, 0.00
35, 41882.54, 31259.32, 10884.20, 16151.93, 4050.61, 16670.73, -25283.89, 0.00, 0.00, 0.00, 0.00
36, 41857.39, 31236.03, 10884.20, 16159.64, 4042.27, 16641.90, -25319.99, 0.00, 0.11, 0.79, 0.59
37, 41893.47, 31257.10, 10896.74, 16197.68, 4099.67, 16937.79, -25348.80, 0.00, 0.00, 0.00, 0.00
38, 41915.58, 31275.28, 10884.61, 16181.05, 4094.44, 16960.71, -25396.12, 0.00, 0.00, 0.00, 0.00
39, 41888.04, 31256.97, 10875.87, 16151.57, 4039.65, 16703.88, -25351.50, 0.00, 0.00, 0.00, 0.00
40, 41869.09, 31241.28, 10888.81, 16159.26, 4041.62, 16631.22, -25241.11, 0.00, 0.00, 0.00, 0.00
41, 41897.98, 31256.81, 10903.16, 16185.19, 4102.19, 16881.27, -25289.19, 0.00, 0.00, 0.00, 0.00
42, 41924.36, 31275.12, 10891.98, 16174.19, 4114.49, 16963.83, -25360.69, 0.00, 0.00, 0.00, 0.00
43, 41906.48, 31266.65, 10887.40, 16146.30, 4075.35, 16744.16, -25312.77, 0.00, 0.00, 0.00, 0.00
44, 41870.38, 31239.18, 10883.24, 16147.88, 4033.39, 16618.54, -25278.01, 0.00, 0.00, 0.00, 0.00
45, 41887.55, 31245.23, 10897.57, 16179.26, 4079.26, 16829.07, -25315.05, 0.00, 0.00, 0.00, 0.00
46, 41921.77, 31267.12, 10898.51, 16171.62, 4116.48, 16978.07, -25344.24, 0.00, 0.12, 0.80, 0.59
47, 41903.98, 31258.87, 10881.90, 16134.94, 4068.87, 16786.43, -25334.12, 0.00, 0.00, 0.00, 0.00
48, 41871.81, 31235.76, 10884.27, 16135.41, 4034.67, 16609.31, -25298.53, 0.00, 0.00, 0.00, 0.00
49, 41889.80, 31245.26, 10904.59, 16175.26, 4082.57, 16789.98, -25282.10, 0.00, 0.00, 0.00, 0.00
50, 41931.78, 31276.19, 10910.80, 16187.71, 4129.55, 16995.10, -25339.99, 0.00, 0.00, 0.00, 0.00
51, 41923.36, 31275.48, 10899.29, 16158.88, 4092.76, 16837.77, -25342.79, 0.00, 0.00, 0.00, 0.00
52, 41879.52, 31245.12, 10893.21, 16139.32, 4044.88, 16626.28, -25294.46, 0.00, 0.00, 0.00, 0.00
53, 41875.61, 31235.47, 10900.57, 16160.83, 4058.50, 16726.39, -25364.51, 0.00, 0.00, 0.00, 0.00
54, 41918.08, 31261.71, 10902.11, 16178.33, 4101.95, 16960.14, -25418.67, 0.00, 0.00, 0.00, 0.00
55, 41920.88, 31269.55, 10895.63, 16160.11, 4092.07, 16873.73, -25334.05, 0.00, 0.12, 0.80, 0.58
56, 41879.75, 31243.07, 10887.40, 16138.47, 4039.88, 16637.88, -25287.62, 0.00, 0.00, 0.00, 0.00
57, 41865.51, 31227.64, 10892.67, 16152.02, 4041.91, 16656.21, -25334.81, 0.00, 0.00, 0.00, 0.00
58, 41906.50, 31253.73, 10908.10, 16191.02, 4111.25, 16947.81, -25309.21, 0.00, 0.00, 0.00, 0.00
59, 41924.68, 31273.15, 10900.57, 16174.79, 4101.57, 16948.41, -25334.49, 0.00, 0.00, 0.00, 0.00
60, 41891.28, 31253.46, 10891.31, 16143.68, 4043.30, 16690.36, -25317.46, 0.00, 0.00, 0.00, 0.00
61, 41870.80, 31235.24, 10899.85, 16153.85, 4046.81, 16666.22, -25263.73, 0.00, 0.00, 0.00, 0.00
62, 41908.20, 31259.27, 10915.88, 16190.78, 4110.22, 16943.07, -25269.83, 0.00, 0.00, 0.00, 0.00
63, 41931.49, 31280.64, 10910.51, 16181.95, 4119.99, 16975.79, -25294.02, 0.00, 0.00, 0.00, 0.00
64, 41899.04, 31262.27, 10896.83, 16152.69, 4072.04, 16713.74, -25299.80, 0.00, 0.00, 0.00, 0.00
65, 41871.75, 31240.52, 10897.55, 16154.25, 4033.91, 16621.70, -25303.72, 0.00, 0.11, 0.80, 0.58
66, 41893.11, 31250.29, 10903.16, 16184.29, 4079.75, 16876.66, -25362.61, 0.00, 0.00, 0.00, 0.00
67, 41931.83, 31285.09, 10909.46, 16189.05, 4106.89, 16990.25, -25358.41, 0.00, 0.00, 0.00, 0.00
68, 41912.47, 31280.95, 10899.58, 16167.26, 4059.10, 16775.41, -25337.13, 0.00, 0.00, 0.00, 0.00
69, 41873.40, 31249.86, 10896.56, 16157.87, 4038.65, 16624.62, -25293.37, 0.00, 0.00, 0.00, 0.00
70, 41892.00, 31256.07, 10913.06, 16190.53, 4085.18, 16826.13, -25307.14, 0.00, 0.00, 0.00, 0.00
71, 41930.55, 31284.57, 10915.38, 16198.24, 4118.93, 17003.46, -25310.20, 0.00, 0.00, 0.00, 0.00
72, 41915.78, 31278.22, 10900.52, 16168.00, 4078.97, 16825.19, -25290.78, 0.00, 0.00, 0.00, 0.00
73, 41878.18, 31252.68, 10897.48, 16154.70, 4040.12, 16628.56, -25272.51, 0.00, 0.00, 0.00, 0.00
74, 41886.86, 31253.28, 10910.91, 16182.04, 4072.91, 16777.87, -25298.13, 0.00, 0.00, 0.00, 0.00
75, 41929.73, 31279.72, 10917.20, 16191.74, 4119.16, 17000.71, -25344.96, 0.00, 0.10, 0.80, 0.58
76, 41919.55, 31277.53, 10902.46, 16160.27, 4091.22, 16864.01, -25332.48, 0.00, 0.00, 0.00, 0.00
77, 41872.08, 31246.26, 10889.55, 16139.84, 4040.01, 16636.20, -25323.25, 0.00, 0.00, 0.00, 0.00
78, 41874.79, 31245.03, 10902.87, 16167.31, 4050.65, 16727.55, -25304.57, 0.00, 0.00, 0.00, 0.00
79, 41924.90, 31281.00, 10920.24, 16201.97, 4129.37, 17005.61, -25290.01, 0.00, 0.00, 0.00, 0.00
80, 41922.55, 31288.78, 10911.58, 16180.67, 4117.37, 16934.60, -25294.04, 0.00, 0.00, 0.00, 0.00
81, 41875.14, 31257.71, 10897.82, 16149.58, 4049.82, 16668.43, -25287.53, 0.00, 0.00, 0.00, 0.00
82, 41861.04, 31240.34, 10902.73, 16160.85, 4052.84, 16693.80, -25286.13, 0.00, 0.00, 0.00, 0.00
83, 41899.73, 31261.93, 10908.46, 16184.47, 4103.00, 16964.88, -25363.55, 0.00, 0.00, 0.00, 0.00
84, 41911.53, 31272.50, 10894.55, 16158.57, 4091.89, 16926.24, -25418.11, 0.00, 0.00, 0.00, 0.00
85, 41882.54, 31257.73, 10889.77, 16148.89, 4048.84, 16690.85, -25300.21, 0.00, 0.10, 0.80, 0.58
86, 41868.55, 31246.20, 10904.81, 16171.13, 4053.82, 16675.16, -25236.75, 0.00, 0.00, 0.00, 0.00
87, 41899.50, 31259.49, 10915.38, 16195.36, 4107.22, 16945.21, -25310.53, 0.00, 0.00, 0.00, 0.00
88, 41925.01, 31278.61, 10908.81, 16185.93, 4117.06, 16995.46, -25308.97, 0.00, 0.00, 0.00, 0.00
89, 41893.96, 31261.57, 10896.50, 16156.80, 4072.00, 16747.31, -25277.30, 0.00, 0.00, 0.00, 0.00
90, 41862.36, 31235.85, 10898.31, 16159.77, 4055.48, 16646.24, -25264.42, 0.00, 0.00, 0.00, 0.00
91, 41890.09, 31246.60, 10917.35, 16191.83, 4105.81, 16889.76, -25295.63, 0.00, 0.00, 0.00, 0.00
92, 41921.99, 31270.22, 10913.04, 16187.92, 4127.54, 17005.79, -25310.27, 0.00, 0.00, 0.00, 0.00
93, 41891.95, 31252.59, 10896.61, 16146.36, 4088.09, 16774.83, -25320.97, 0.00, 0.00, 0.00, 0.00
94, 41846.44, 31221.12, 10890.10, 16136.19, 4036.72, 16616.46, -25321.55, 0.00, 0.00, 0.00, 0.00
95, 41861.51, 31228.72, 10900.95, 16173.88, 4078.01, 16832.16, -25323.72, 0.00, 0.11, 0.79, 0.59
96, 41907.02, 31263.23, 10910.29, 16187.38, 4120.19, 17011.60, -25342.05, 0.00, 0.00, 0.00, 0.00
97, 41901.09, 31265.93, 10905.04, 16161.79, 4085.23, 16832.34, -25320.77, 0.00, 0.00, 0.00, 0.00
98, 41857.95, 31233.77, 10896.12, 16139.90, 4035.32, 16624.65, -25287.11, 0.00, 0.00, 0.00, 0.00
99, 41861.44, 31227.98, 10905.28, 16168.09, 4065.69, 16765.91, -25304.10, 0.00, 0.00, 0.00, 0.00
100, 41906.46, 31260.01, 10913.93, 16189.55, 4122.15, 16996.76, -25309.95, 0.00, 0.00, 0.00, 0.00
101, 41902.46, 31264.46, 10907.34, 16162.34, 4100.87, 16864.93, -25299.85, 0.00, 0.00, 0.00, 0.00
102, 41866.49, 31242.24, 10905.88, 16156.04, 4049.89, 16659.47, -25282.08, 0.00, 0.00, 0.00, 0.00
103, 41860.19, 31233.79, 10914.47, 16168.38, 4061.00, 16716.04, -25332.66, 0.00, 0.00, 0.00, 0.00
104, 41898.52, 31258.27, 10919.30, 16183.94, 4115.25, 16956.84, -25357.07, 0.00, 0.11, 0.79, 0.59
105, 41910.44, 31273.44, 10909.46, 16173.03, 4098.17, 16903.97, -25321.60, 0.00, 0.00, 0.00, 0.00
106, 41874.92, 31252.19, 10898.78, 16156.18, 4037.19, 16673.53, -25276.67, 0.00, 0.00, 0.00, 0.00
107, 41865.42, 31242.15, 10917.24, 16169.54, 4076.31, 16684.86, -25262.25, 0.00, 0.00, 0.00, 0.00
108, 41900.55, 31260.46, 10928.48, 16194.67, 4128.99, 16958.40, -25298.26, 0.00, 0.00, 0.00, 0.00
109, 41921.79, 31281.53, 10923.03, 16186.15, 4130.11, 16963.83, -25302.04, 0.00, 0.00, 0.00, 0.00
110, 41883.37, 31259.90, 10905.21, 16155.71, 4064.93, 16703.82, -25287.40, 0.00, 0.00, 0.00, 0.00
111, 41854.40, 31236.07, 10903.23, 16157.09, 4042.00, 16632.92, -25313.55, 0.00, 0.00, 0.00, 0.00
112, 41884.66, 31255.65, 10911.45, 16188.29, 4091.22, 16893.18, -25384.79, 0.00, 0.00, 0.00, 0.00
113, 41917.41, 31285.74, 10914.22, 16190.06, 4116.36, 16979.70, -25315.56, 0.00, 0.00, 0.00, 0.00
114, 41891.48, 31274.49, 10906.71, 16166.55, 4073.23, 16749.08, -25273.47, 0.00, 0.11, 0.79, 0.59
115, 41854.78, 31246.40, 10906.35, 16165.18, 4047.25, 16632.09, -25238.29, 0.00, 0.00, 0.00, 0.00
116, 41879.16, 31258.04, 10917.55, 16194.02, 4090.19, 16862.96, -25298.31, 0.00, 0.00, 0.00, 0.00
117, 41913.52, 31282.40, 10915.36, 16192.41, 4114.93, 16991.84, -25330.70, 0.00, 0.00, 0.00, 0.00
118, 41897.47, 31280.91, 10905.04, 16171.78, 4071.59, 16786.70, -25299.96, 0.00, 0.00, 0.00, 0.00
119, 41858.47, 31252.01, 10899.25, 16163.24, 4037.53, 16636.04, -25265.94, 0.00, 0.00, 0.00, 0.00
120, 41875.63, 31255.27, 10917.02, 16195.22, 4084.71, 16825.16, -25301.37, 0.00, 0.00, 0.00, 0.00
121, 41916.02, 31282.92, 10928.73, 16206.20, 4120.77, 17010.37, -25339.35, 0.00, 0.00, 0.00, 0.00
122, 41904.47, 31275.77, 10909.66, 16169.81, 4075.46, 16837.39, -25340.08, 0.00, 0.00, 0.00, 0.00
123, 41864.12, 31245.53, 10897.77, 16146.52, 4022.96, 16602.67, -25311.43, 0.00, 0.00, 0.00, 0.00
124, 41870.18, 31246.89, 10911.76, 16180.96, 4066.03, 16742.82, -25306.91, 0.00, 0.10, 0.80, 0.59
125, 41917.95, 31281.44, 10923.27, 16210.85, 4124.59, 17019.47, -25314.67, 0.00, 0.00, 0.00, 0.00
126, 41916.25, 31284.93, 10911.38, 16188.16, 4102.53, 16912.89, -25290.75, 0.00, 0.00, 0.00, 0.00
127, 41870.88, 31253.75, 10902.46, 16163.57, 4050.99, 16671.65, -25265.29, 0.00, 0.00, 0.00, 0.00
128, 41852.54, 31231.82, 10906.56, 16168.11, 4061.04, 16714.77, -25287.76, 0.00, 0.00, 0.00, 0.00
129, 41898.41, 31260.68, 10921.42, 16199.11, 4115.85, 16995.21, -25294.46, 0.00, 0.00, 0.00, 0.00
130, 41917.61, 31281.11, 10917.55, 16184.63, 4111.40, 16956.01, -25286.44, 0.00, 0.00, 0.00, 0.00
131, 41879.70, 31255.49, 10904.23, 16153.36, 4052.82, 16687.03, -25281.52, 0.00, 0.00, 0.00, 0.00
132, 41858.58, 31233.68, 10904.46, 16157.87, 4037.04, 16669.57, -25311.67, 0.00, 0.00, 0.00, 0.00
133, 41895.91, 31255.09, 10913.10, 16184.43, 4092.49, 16934.42, -25344.57, 0.00, 0.00, 0.00, 0.00
134, 41918.39, 31274.54, 10910.62, 16171.11, 4118.31, 16939.40, -25342.45, 0.00, 0.11, 0.80, 0.60
135, 41884.87, 31258.11, 10900.54, 16152.89, 4045.55, 16703.64, -25325.51, 0.00, 0.00, 0.00, 0.00
136, 41856.84, 31230.62, 10900.90, 16156.73, 4027.14, 16631.64, -25324.12, 0.00, 0.00, 0.00, 0.00
137, 41895.30, 31251.16, 10922.69, 16194.73, 4096.85, 16901.56, -25293.95, 0.00, 0.00, 0.00, 0.00
138, 41921.12, 31273.51, 10920.37, 16187.65, 4111.36, 16989.63, -25306.22, 0.00, 0.00, 0.00, 0.00
139, 41892.11, 31264.05, 10906.13, 16160.33, 4059.90, 16759.27, -25329.02, 0.00, 0.00, 0.00, 0.00
140, 41862.45, 31246.04, 10907.23, 16160.60, 4037.91, 16639.35, -25276.00, 0.00, 0.00, 0.00, 0.00
141, 41885.56, 31256.66, 10918.09, 16196.41, 4084.24, 16867.50, -25301.82, 0.00, 0.00, 0.00, 0.00
142, 41916.98, 31277.49, 10916.21, 16193.73, 4115.76, 17002.70, -25352.60, 0.00, 0.00, 0.00, 0.00
143, 41900.33, 31270.89, 10903.63, 16161.96, 4073.54, 16805.45, -25314.51, 0.00, 0.10, 0.80, 0.59
144, 41863.61, 31242.06, 10901.79, 16149.22, 4048.44, 16633.18, -25276.42, 0.00, 0.00, 0.00, 0.00
145, 41880.69, 31246.93, 10915.47, 16180.83, 4082.50, 16802.83, -25253.98, 0.00, 0.00, 0.00, 0.00
146, 41926.57, 31279.66, 10924.26, 16191.16, 4141.80, 16994.21, -25311.54, 0.00, 0.00, 0.00, 0.00
147, 41918.53, 31280.15, 10915.32, 16165.36, 4100.36, 16848.28, -25306.02, 0.00, 0.00, 0.00, 0.00
148, 41880.04, 31255.96, 10907.45, 16156.89, 4049.38, 16649.77, -25258.77, 0.00, 0.00, 0.00, 0.00
149, 41877.00, 31249.66, 10915.85, 16181.86, 4063.73, 16766.29, -25308.43, 0.00, 0.00, 0.00, 0.00
150, 41924.63, 31281.89, 10930.63, 16202.42, 4124.66, 17002.77, -25315.92, 0.00, 0.00, 0.00, 0.00
151, 41936.34, 31299.35, 10930.65, 16189.17, 4115.31, 16906.10, -25294.87, 0.00, 0.00, 0.00, 0.00
152, 41891.75, 31271.90, 10916.50, 16164.87, 4052.62, 16658.60, -25283.31, 0.00, 0.00, 0.00, 0.00
153, 41888.91, 31266.18, 10924.48, 16190.26, 4060.26, 16714.75, -25286.46, 0.00, 0.10, 0.80, 0.59
154, 41932.90, 31299.19, 10933.02, 16226.83, 4110.46, 17002.66, -25352.22, 0.00, 0.00, 0.00, 0.00
155, 41942.91, 31310.81, 10919.25, 16201.06, 4085.99, 16947.34, -25418.04, 0.00, 0.00, 0.00, 0.00
156, 41905.03, 31289.16, 10909.84, 16175.02, 4042.34, 16684.59, -25311.36, 0.00, 0.00, 0.00, 0.00
157, 41877.24, 31262.29, 10914.36, 16180.23, 4037.28, 16664.10, -25300.63, 0.00, 0.00, 0.00, 0.00
158, 41908.11, 31276.06, 10923.05, 16206.06, 4089.18, 16936.27, -25327.12, 0.00, 0.00, 0.00, 0.00
159, 41927.76, 31291.81, 10920.24, 16187.98, 4120.01, 16954.47, -25357.54, 0.00, 0.00, 0.00, 0.00
160, 41884.51, 31263.32, 10906.20, 16149.20, 4051.50, 16697.67, -25344.08, 0.00, 0.00, 0.00, 0.00
161, 41854.60, 31239.56, 10912.81, 16155.91, 4043.12, 16642.13, -25265.54, 0.00, 0.00, 0.00, 0.00
162, 41890.03, 31259.49, 10930.09, 16194.60, 4107.56, 16910.95, -25274.14, 0.00, 0.00, 0.00, 0.00
163, 41921.66, 31285.60, 10927.83, 16194.31, 4127.65, 17015.22, -25330.16, 0.00, 0.10, 0.80, 0.59
164, 41891.37, 31270.56, 10907.94, 16158.66, 4063.97, 16772.21, -25323.56, 0.00, 0.00, 0.00, 0.00
165, 41858.82, 31245.50, 10903.54, 16156.15, 4035.58, 16640.94, -25298.42, 0.00, 0.00, 0.00, 0.00
166, 41877.76, 31250.93, 10916.61, 16187.22, 4085.74, 16860.39, -25303.87, 0.00, 0.00, 0.00, 0.00
167, 41911.73, 31273.58, 10917.24, 16190.17, 4114.82, 17017.46, -25324.50, 0.00, 0.00, 0.00, 0.00
168, 41888.24, 31261.30, 10899.13, 16151.53, 4070.65, 16801.72, -25324.68, 0.00, 0.00, 0.00, 0.00
169, 41856.93, 31240.79, 10902.24, 16151.24, 4040.41, 16628.58, -25265.83, 0.00, 0.00, 0.00, 0.00
170, 41870.74, 31246.08, 10918.58, 16189.57, 4080.56, 16814.37, -25272.38, 0.00, 0.00, 0.00, 0.00
171, 41912.96, 31274.07, 10923.79, 16193.86, 4120.57, 17011.15, -25334.72, 0.00, 0.00, 0.00, 0.00
172, 41903.57, 31272.66, 10906.26, 16161.23, 4078.50, 16856.01, -25352.89, 0.00, 0.00, 0.00, 0.00
173, 41866.36, 31250.60, 10897.68, 16148.13, 4036.23, 16641.54, -25326.47, 0.00, 0.11, 0.79, 0.59
174, 41869.27, 31247.58, 10915.65, 16175.58, 4073.56, 16756.52, -25303.38, 0.00, 0.00, 0.00, 0.00
175, 41919.96, 31283.14, 10933.06, 16202.26, 4123.05, 17018.15, -25281.45, 0.00, 0.00, 0.00, 0.00
176, 41927.60, 31294.90, 10919.79, 16177.70, 4094.62, 16923.22, -25283.55, 0.00, 0.00, 0.00, 0.00
177, 41884.87, 31266.40, 10910.13, 16152.53, 4046.85, 16677.84, -25280.18, 0.00, 0.00, 0.00, 0.00
178, 41867.41, 31246.40, 10915.05, 16163.08, 4054.03, 16697.96, -25313.91, 0.00, 0.00, 0.00, 0.00
179, 41909.36, 31270.78, 10926.74, 16189.68, 4114.15, 16962.09, -25336.62, 0.00, 0.00, 0.00, 0.00
180, 41924.92, 31287.48, 10922.67, 16180.18, 4113.75, 16948.23, -25334.34, 0.00, 0.00, 0.00, 0.00
181, 41883.01, 31260.84, 10905.44, 16147.93, 4045.35, 16693.89, -25329.38, 0.00, 0.00, 0.00, 0.00
182, 41857.91, 31239.20, 10908.01, 16155.15, 4041.35, 16658.82, -25278.28, 0.00, 0.00, 0.00, 0.00
183, 41906.57, 31273.02, 10931.37, 16205.30, 4112.07, 16964.21, -25267.01, 0.00, 0.12, 0.78, 0.59
184, 41936.12, 31297.80, 10923.79, 16197.17, 4113.64, 17005.90, -25333.24, 0.00, 0.00, 0.00, 0.00
185, 41902.10, 31280.28, 10907.74, 16169.41, 4050.87, 16746.44, -25329.44, 0.00, 0.00, 0.00, 0.00
186, 41871.97, 31259.34, 10913.95, 16174.53, 4034.24, 16658.44, -25285.21, 0.00, 0.00, 0.00, 0.00
187, 41896.60, 31268.88, 10929.87, 16199.72, 4087.35, 16909.83, -25307.58, 0.00, 0.00, 0.00, 0.00
188, 41926.68, 31289.78, 10927.25, 16189.12, 4116.27, 17003.13, -25341.29, 0.00, 0.00, 0.00, 0.00
189, 41904.45, 31281.44, 10913.53, 16159.26, 4066.07, 16780.91, -25309.17, 0.00, 0.00, 0.00, 0.00
190, 41872.50, 31259.14, 10909.95, 16160.87, 4020.39, 16656.43, -25284.61, 0.00, 0.00, 0.00, 0.00
191, 41890.92, 31267.07, 10923.48, 16196.43, 4084.38, 16866.85, -25345.38, 0.00, 0.00, 0.00, 0.00
192, 41930.93, 31298.32, 10930.83, 16200.54, 4121.59, 17033.21, -25357.00, 0.00, 0.11, 0.80, 0.59
193, 41913.12, 31291.53, 10913.91, 16163.57, 4078.03, 16839.83, -25352.78, 0.00, 0.00, 0.00, 0.00
194, 41875.57, 31265.75, 10908.84, 16151.55, 4036.41, 16649.21, -25333.31, 0.00, 0.00, 0.00, 0.00
195, 41883.30, 31263.27, 10922.72, 16179.40, 4083.78, 16800.11, -25304.21, 0.00, 0.00, 0.00, 0.00
196, 41922.33, 31287.84, 10929.00, 16195.16, 4129.46, 17027.56, -25317.91, 0.00, 0.00, 0.00, 0.00
197, 41921.07, 31294.36, 10919.81, 16169.68, 4099.56, 16895.88, -25322.07, 0.00, 0.00, 0.00, 0.00
198, 41885.25, 31272.10, 10915.29, 16155.71, 4047.52, 16683.81, -25277.68, 0.00, 0.00, 0.00, 0.00
199, 41880.39, 31264.08, 10925.08, 16181.75, 4069.83, 16779.70, -25292.52, 0.00, 0.00, 0.00, 0.00
200, 41919.71, 31290.63, 10935.14, 16200.45, 4127.85, 17016.58, -25332.71, 0.00, 0.00, 0.00, 0.00
201, 41924.07, 31301.25, 10926.63, 16179.38, 4110.96, 16931.29, -25334.29, 0.00, 0.00, 0.00, 0.00
202, 41884.95, 31279.61, 10917.78, 16168.74, 4053.73, 16719.69, -25299.65, 0.00, 0.11, 0.80, 0.59
203, 41866.78, 31260.50, 10918.29, 16184.14, 4049.62, 16746.22, -25306.04, 0.00, 0.00, 0.00, 0.00
204, 41907.62, 31283.79, 10928.01, 16209.73, 4108.88, 17012.90, -25318.67, 0.00, 0.00, 0.00, 0.00
205, 41921.43, 31298.83, 10916.57, 16192.05, 4101.68, 17004.31, -25329.80, 0.00, 0.00, 0.00, 0.00
206, 41879.86, 31271.95, 10900.79, 16159.91, 4038.36, 16750.31, -25304.25, 0.00, 0.00, 0.00, 0.00
207, 41854.55, 31249.06, 10907.99, 16160.67, 4057.62, 16686.83, -25278.62, 0.00, 0.00, 0.00, 0.00
208, 41893.45, 31272.95, 10928.75, 16194.04, 4120.16, 16943.67, -25314.49, 0.00, 0.00, 0.00, 0.00
209, 41923.40, 31298.77, 10918.78, 16195.25, 4119.38, 17020.99, -25339.14, 0.00, 0.00, 0.00, 0.00
210, 41894.52, 31285.94, 10905.88, 16170.50, 4064.91, 16781.60, -25295.00, 0.00, 0.00, 0.00, 0.00
211, 41867.95, 31266.24, 10912.97, 16176.94, 4052.93, 16667.56, -25278.50, 0.00, 0.00, 0.00, 0.00
212, 41889.94, 31273.46, 10922.85, 16203.79, 4099.62, 16912.18, -25344.11, 0.00, 0.11, 0.79, 0.58
213, 41925.34, 31299.95, 10922.16, 16204.23, 4132.88, 17045.91, -25334.12, 0.00, 0.00, 0.00, 0.00
214, 41903.80, 31292.06, 10909.57, 16179.38, 4083.82, 16834.48, -25299.63, 0.00, 0.00, 0.00, 0.00
215, 41869.84, 31268.93, 10909.57, 16176.07, 4051.77, 16677.78, -25259.95, 0.00, 0.00, 0.00, 0.00
216, 41888.26, 31276.01, 10924.55, 16207.92, 4094.15, 16866.58, -25288.96, 0.00, 0.00, 0.00, 0.00
217, 41930.44, 31306.03, 10928.73, 16219.86, 4130.92, 17058.63, -25325.55, 0.00, 0.00, 0.00, 0.00
218, 41910.84, 31297.89, 10910.40, 16180.92, 4085.81, 16883.93, -25328.10, 0.00, 0.00, 0.00, 0.00
219, 41866.89, 31264.90, 10901.82, 16159.95, 4035.52, 16677.51, -25304.45, 0.00, 0.00, 0.00, 0.00
220, 41871.88, 31261.39, 10909.95, 16190.55, 4055.19, 16822.86, -25312.72, 0.00, 0.00, 0.00, 0.00
221, 41920.67, 31294.83, 10921.00, 16210.07, 4125.60, 17057.78, -25333.87, 0.00, 0.00, 0.00, 0.00
222, 41918.62, 31301.31, 10914.18, 16183.89, 4093.81, 16923.42, -25334.83, 0.00, 0.10, 0.79, 0.59
223, 41875.07, 31271.50, 10901.48, 16161.43, 4040.75, 16689.55, -25306.78, 0.00, 0.00, 0.00, 0.00
224, 41866.38, 31254.64, 10904.99, 16178.08, 4046.36, 16757.44, -25322.83, 0.00, 0.00, 0.00, 0.00
225, 41909.39, 31283.19, 10917.80, 16203.38, 4106.93, 17019.36, -25385.03, 0.00, 0.00, 0.00, 0.00
226, 41914.95, 31293.54, 10905.68, 16180.56, 4085.68, 16957.69, -25405.01, 0.00, 0.00, 0.00, 0.00
227, 41878.52, 31269.73, 10900.25, 16155.73, 4044.70, 16704.78, -25275.64, 0.00, 0.00, 0.00, 0.00
228, 41856.14, 31246.75, 10902.91, 16165.94, 4048.55, 16714.54, -25264.22, 0.00, 0.00, 0.00, 0.00
229, 41896.31, 31272.01, 10913.95, 16198.67, 4102.91, 16990.70, -25321.53, 0.00, 0.00, 0.00, 0.00
230, 41908.13, 31284.15, 10901.88, 16179.91, 4092.92, 16991.19, -25374.95, 0.00, 0.00, 0.00, 0.00
231, 41873.71, 31262.74, 10889.08, 16146.36, 4038.09, 16725.21, -25337.36, 0.00, 0.00, 0.00, 0.00
232, 41856.25, 31247.49, 10895.80, 16155.53, 4033.64, 16667.20, -25300.77, 0.00, 0.11, 0.79, 0.59
233, 41891.01, 31266.94, 10909.73, 16190.71, 4089.79, 16937.12, -25367.29, 0.00, 0.00, 0.00, 0.00
234, 41923.63, 31295.66, 10909.86, 16191.02, 4110.69, 17016.23, -25368.63, 0.00, 0.00, 0.00, 0.00
235, 41893.25, 31279.77, 10894.84, 16161.05, 4053.24, 16770.42, -25342.65, 0.00, 0.00, 0.00, 0.00
236, 41859.41, 31252.19, 10893.37, 16159.51, 4022.53, 16662.11, -25293.55, 0.00, 0.00, 0.00, 0.00
237, 41885.45, 31265.84, 10908.50, 16192.79, 4090.19, 16901.79, -25361.21, 0.00, 0.00, 0.00, 0.00
238, 41921.21, 31293.42, 10913.08, 16195.54, 4106.98, 17041.66, -25420.66, 0.00, 0.00, 0.00, 0.00
239, 41900.02, 31285.15, 10904.32, 16167.15, 4063.48, 16838.73, -25337.18, 0.00, 0.00, 0.00, 0.00
240, 41871.30, 31265.46, 10910.31, 16163.02, 4042.47, 16677.42, -25271.13, 0.00, 0.00, 0.00, 0.00
241, 41881.16, 31264.63, 10918.67, 16184.36, 4087.71, 16830.71, -25320.08, 0.00, 0.11, 0.79, 0.59
242, 41925.03, 31296.96, 10925.06, 16203.74, 4133.02, 17032.30, -25335.84, 0.00, 0.00, 0.00, 0.00
243, 41915.09, 31298.79, 10917.51, 16187.38, 4094.86, 16897.40, -25296.68, 0.00, 0.00, 0.00, 0.00
244, 41872.08, 31269.15, 10908.03, 16167.42, 4043.79, 16684.37, -25327.43, 0.00, 0.00, 0.00, 0.00
245, 41873.78, 31262.47, 10918.36, 16191.29, 4071.55, 16802.03, -25320.99, 0.00, 0.00, 0.00, 0.00
246, 41920.88, 31294.07, 10931.41, 16212.99, 4135.59, 17043.81, -25320.77, 0.00, 0.00, 0.00, 0.00
247, 41919.11, 31295.77, 10916.61, 16184.47, 4106.44, 16930.02, -25316.41, 0.00, 0.00, 0.00, 0.00
248, 41877.89, 31271.43, 10906.22, 16166.75, 4050.74, 16700.17, -25282.88, 0.00, 0.00, 0.00, 0.00
249, 41870.52, 31261.80, 10915.41, 16183.40, 4064.37, 16756.61, -25291.98, 0.00, 0.00, 0.00, 0.00
250, 41910.79, 31285.00, 10921.06, 16202.98, 4116.32, 17015.55, -25349.31, 0.00, 0.00, 0.00, 0.00
251, 41922.26, 31299.39, 10912.25, 16184.54, 4103.53, 16946.96, -25374.82, 0.00, 0.11, 0.78, 0.59
252, 41883.52, 31275.88, 10901.84, 16160.51, 4046.92, 16703.64, -25326.02, 0.00, 0.00, 0.00, 0.00
253, 41866.05, 31259.18, 10908.23, 16170.23, 4044.17, 16720.67, -25303.54, 0.00, 0.00, 0.00, 0.00
254, 41900.51, 31276.71, 10917.33, 16190.66, 4099.18, 16981.47, -25374.95, 0.00, 0.00, 0.00, 0.00
255, 41919.98, 31294.30, 10906.76, 16183.13, 4091.11, 16997.05, -25374.86, 0.00, 0.00, 0.00, 0.00
0, 41886.86, 31275.48, 10893.19, 16162.12, 4048.71, 16755.96, -25318.78, 0.00, 0.00, 0.00, 0.00
1, 41862.65, 31256.19, 10904.14, 16166.77, 4056.26, 16676.88, -25308.86, 0.00, 0.00, 0.00, 0.00
2, 41896.06, 31276.33, 10919.77, 16205.30, 4100.72, 16939.92, -25327.92, 0.00, 0.00, 0.00, 0.00
3, 41927.13, 31301.47, 10920.86, 16198.67, 4127.70, 17035.34, -25326.69, 0.00, 0.00, 0.00, 0.00
4, 41901.54, 31288.75, 10909.04, 16169.68, 4075.17, 16805.96, -25289.86, 0.00, 0.00, 0.00, 0.00
5, 41862.91, 31256.86, 10901.26, 16163.06, 4038.94, 16682.85, -25291.24, 0.00, 0.11, 0.79, 0.58
6, 41885.11, 31268.61, 10914.33, 16196.86, 4084.11, 16906.03, -25321.55, 0.00, 0.00, 0.00, 0.00
7, 41926.73, 31303.55, 10919.97, 16205.95, 4117.84, 17054.69, -25348.75, 0.00, 0.00, 0.00, 0.00
8, 41909.83, 31297.60, 10912.08, 16175.22, 4080.38, 16850.20, -25329.98, 0.00, 0.00, 0.00, 0.00
9, 41866.87, 31264.37, 10902.26, 16157.85, 4034.91, 16661.68, -25332.88, 0.00, 0.00, 0.00, 0.00
10, 41877.64, 31264.35, 10913.75, 16189.17, 4066.23, 16830.51, -25334.99, 0.00, 0.00, 0.00, 0.00
11, 41924.16, 31295.21, 10922.69, 16203.81, 4118.78, 17041.44, -25327.01, 0.00, 0.00, 0.00, 0.00
12, 41917.10, 31293.80, 10909.75, 16167.78, 4087.08, 16888.80, -25314.82, 0.00, 0.00, 0.00, 0.00
13, 41873.27, 31260.52, 10899.29, 16143.12, 4036.59, 16670.53, -25329.53, 0.00, 0.00, 0.00, 0.00
14, 41869.82, 31250.69, 10906.49, 16168.42, 4055.12, 16775.01, -25346.77, 0.00, 0.00, 0.00, 0.00
15, 41919.51, 31286.23, 10919.85, 16193.59, 4113.70, 17021.97, -25351.68, 0.00, 0.11, 0.79, 0.58
16, 41925.81, 31298.68, 10910.53, 16171.84, 4090.12, 16918.71, -25359.42, 0.00, 0.00, 0.00, 0.00
17, 41873.45, 31263.76, 10897.17, 16145.58, 4044.24, 16688.57, -25371.78, 0.00, 0.00, 0.00, 0.00
18, 41855.68, 31245.59, 10905.33, 16160.00, 4049.35, 16726.17, -25309.82, 0.00, 0.00, 0.00, 0.00
19, 41900.45, 31272.57, 10916.59, 16188.54, 4117.17, 16996.47, -25333.40, 0.00, 0.00, 0.00, 0.00
20, 41915.84, 31290.27, 10911.18, 16176.72, 4112.01, 16984.78, -25329.49, 0.00, 0.00, 0.00, 0.00
21, 41877.96, 31268.73, 10903.09, 16153.27, 4064.15, 16739.67, -25291.02, 0.00, 0.00, 0.00, 0.00
22, 41863.21, 31257.08, 10908.17, 16173.16, 4054.56, 16722.21, -25274.39, 0.00, 0.00, 0.00, 0.00
23, 41901.38, 31281.89, 10922.89, 16207.03, 4118.51, 17000.65, -25296.50, 0.00, 0.00, 0.00, 0.00
24, 41922.57, 31300.58, 10915.79, 16191.45, 4126.89, 17029.37, -25317.28, 0.00, 0.10, 0.79, 0.58
25, 41891.28, 31284.06, 10904.39, 16161.94, 4072.00, 16766.85, -25316.01, 0.00, 0.00, 0.00, 0.00
26, 41862.11, 31259.88, 10906.65, 16164.24, 4055.57, 16675.92, -25309.46, 0.00, 0.00, 0.00, 0.00
27, 41892.96, 31276.13, 10922.36, 16196.32, 4112.61, 16928.83, -25345.56, 0.00, 0.00, 0.00, 0.00
28, 41921.68, 31297.45, 10918.40, 16188.00, 4129.51, 17020.92, -25362.34, 0.00, 0.00, 0.00, 0.00
29, 41892.82, 31283.10, 10904.39, 16155.93, 4072.67, 16788.17, -25345.98, 0.00, 0.00, 0.00, 0.00
30, 41849.48, 31250.29, 10899.74, 16146.70, 4039.92, 16643.96, -25336.80, 0.00, 0.00, 0.00, 0.00
31, 41869.00, 31259.20, 10915.23, 16178.88, 4087.53, 16870.89, -25341.89, 0.00, 0.00, 0.00, 0.00
32, 41914.59, 31293.58, 10923.92, 16191.11, 4124.63, 17044.19, -25366.79, 0.00, 0.00, 0.00, 0.00
33, 41903.82, 31292.11, 10912.86, 16162.46, 4079.44, 16849.62, -25337.27, 0.00, 0.00, 0.00, 0.00
34, 41859.23, 31258.53, 10901.04, 16146.50, 4046.96, 16664.70, -25328.46, 0.00, 0.10, 0.79, 0.58
35, 41868.26, 31258.00, 10913.53, 16174.86, 4067.19, 16835.18, -25342.41, 0.00, 0.00, 0.00, 0.00
36, 41918.21, 31292.58, 10930.58, 16195.45, 4133.93, 17050.56, -25320.30, 0.00, 0.00, 0.00, 0.00
37, 41912.61, 31294.59, 10921.35, 16172.92, 4110.42, 16897.58, -25303.02, 0.00, 0.00, 0.00, 0.00
38, 41870.61, 31265.48, 10913.78, 16148.00, 4054.45, 16668.99, -25297.97, 0.00, 0.00, 0.00, 0.00
39, 41866.29, 31255.56, 10921.87, 16167.37, 4066.32, 16760.95, -25339.03, 0.00, 0.00, 0.00, 0.00
40, 41907.64, 31283.97, 10926.65, 16189.61, 4120.77, 17012.11, -25342.54, 0.00, 0.00, 0.00, 0.00
41, 41914.82, 31298.23, 10915.74, 16174.37, 4104.74, 16942.20, -25359.62, 0.00, 0.00, 0.00, 0.00
42, 41877.20, 31275.54, 10904.54, 16152.55, 4044.77, 16698.76, -25354.28, 0.00, 0.00, 0.00, 0.00
43, 41865.69, 31261.46, 10913.95, 16168.11, 4058.27, 16733.14, -25302.38, 0.00, 0.00, 0.00, 0.00
44, 41911.57, 31290.63, 10930.54, 16199.65, 4127.41, 17017.21, -25308.88, 0.00, 0.10, 0.79, 0.59
45, 41929.10, 31306.63, 10926.87, 16187.04, 4127.70, 17000.02, -25346.56, 0.00, 0.00, 0.00, 0.00
46, 41882.41, 31275.23, 10909.13, 16150.83, 4054.11, 16726.23, -25350.10, 0.00, 0.00, 0.00, 0.00
47, 41866.58, 31259.27, 10920.55, 16168.25, 4053.24, 16710.70, -25268.91, 0.00, 0.00, 0.00, 0.00
48, 41912.49, 31287.72, 10942.99, 16212.81, 4124.14, 17003.15, -25313.82, 0.00, 0.00, 0.00, 0.00
49, 41933.46, 31305.25, 10935.01, 16197.68, 4123.94, 17034.91, -25375.73, 0.00, 0.00, 0.00, 0.00
50, 41895.48, 31283.25, 10912.57, 16158.92, 4052.33, 16771.81, -25365.07, 0.00, 0.00, 0.00, 0.00
51, 41865.00, 31261.04, 10915.50, 16164.51, 4039.45, 16677.28, -25300.47, 0.00, 0.00, 0.00, 0.00
52, 41891.93, 31275.23, 10935.05, 16201.39, 4117.06, 16932.83, -25309.46, 0.00, 0.00, 0.00, 0.00
53, 41918.39, 31293.69, 10930.36, 16187.16, 4130.71, 17022.66, -25380.25, 0.00, 0.00, 0.00, 0.00
54, 41902.70, 31291.30, 10921.15, 16165.21, 4084.36, 16819.93, -25315.79, 0.00, 0.11, 0.79, 0.58
55, 41871.05, 31271.27, 10919.99, 16167.13, 4052.35, 16684.75, -25291.36, 0.00, 0.00, 0.00, 0.00
56, 41887.91, 31280.79, 10936.66, 16202.35, 4093.90, 16883.88, -25334.20, 0.00, 0.00, 0.00, 0.00
57, 41926.95, 31308.60, 10943.70, 16205.08, 4144.35, 17054.58, -25324.12, 0.00, 0.00, 0.00, 0.00
58, 41914.01, 31303.64, 10928.95, 16171.53, 4104.41, 16877.85, -25301.48, 0.00, 0.00, 0.00, 0.00
59, 41871.45, 31273.91, 10914.65, 16160.85, 4048.50, 16679.32, -25303.49, 0.00, 0.00, 0.00, 0.00
60, 41885.27, 31278.29, 10928.46, 16198.60, 4081.96, 16827.60, -25325.55, 0.00, 0.00, 0.00, 0.00
61, 41929.82, 31309.38, 10938.34, 16211.14, 4137.82, 17040.79, -25348.64, 0.00, 0.00, 0.00, 0.00
62, 41926.24, 31313.70, 10926.96, 16177.99, 4110.64, 16901.43, -25355.48, 0.00, 0.00, 0.00, 0.00
63, 41882.16, 31286.43, 10917.06, 16158.59, 4052.59, 16680.82, -25319.32, 0.00, 0.00, 0.00, 0.00
64, 41873.98, 31275.12, 10925.89, 16178.62, 4071.73, 16774.34, -25307.09, 0.00, 0.11, 0.80, 0.58
65, 41918.32, 31304.47, 10934.67, 16204.03, 4123.65, 17035.34, -25367.22, 0.00, 0.00, 0.00, 0.00
66, 41924.11, 31315.71, 10919.77, 16181.75, 4089.18, 16958.80, -25407.65, 0.00, 0.00, 0.00, 0.00
67, 41889.47, 31294.59, 10915.16, 16166.43, 4049.82, 16729.86, -25299.74, 0.00, 0.00, 0.00, 0.00
68, 41881.78, 31282.79, 10931.41, 16188.76, 4060.04, 16765.78, -25276.38, 0.00, 0.00, 0.00, 0.00
69, 41927.82, 31309.88, 10950.86, 16223.03, 4130.58, 17041.37, -25305.84, 0.00, 0.00, 0.00, 0.00
70, 41947.61, 31329.28, 10945.34, 16208.01, 4135.90, 17026.55, -25324.71, 0.00, 0.00, 0.00, 0.00
71, 41906.21, 31302.92, 10929.56, 16173.03, 4083.75, 16761.37, -25316.99, 0.00, 0.00, 0.00, 0.00
72, 41878.88, 31276.28, 10926.65, 16174.30, 4063.28, 16708.55, -25305.50, 0.00, 0.00, 0.00, 0.00
73, 41916.27, 31297.65, 10937.96, 16208.75, 4112.68, 16988.38, -25322.09, 0.00, 0.11, 0.80, 0.58
74, 41949.75, 31326.82, 10937.47, 16202.87, 4132.70, 17052.19, -25331.99, 0.00, 0.00, 0.00, 0.00
75, 41926.60, 31316.42, 10926.27, 16180.02, 4079.19, 16809.83, -25300.63, 0.00, 0.00, 0.00, 0.00
76, 41906.32, 31304.13, 10932.33, 16195.96, 4058.85, 16717.18, -25273.92, 0.00, 0.00, 0.00, 0.00
77, 41938.96, 31323.85, 10950.52, 16240.26, 4112.01, 16971.01, -25307.74, 0.00, 0.00, 0.00, 0.00
78, 41978.09, 31353.69, 10954.75, 16240.49, 4137.38, 17088.98, -25365.36, 0.00, 0.00, 0.00, 0.00
79, 41951.61, 31342.04, 10937.45, 16202.18, 4078.52, 16859.34, -25375.96, 0.00, 0.00, 0.00, 0.00
80, 41908.54, 31308.91, 10937.58, 16183.94, 4048.57, 16690.87, -25304.57, 0.00, 0.00, 0.00, 0.00
81, 41923.67, 31312.51, 10953.94, 16213.75, 4094.03, 16895.66, -25315.96, 0.00, 0.00, 0.00, 0.00
82, 41957.69, 31333.46, 10950.28, 16216.68, 4125.69, 17071.88, -25367.33, 0.00, 0.00, 0.00, 0.00
83, 41936.39, 31321.77, 10928.24, 16175.38, 4073.25, 16884.93, -25376.13, 0.00, 0.11, 0.80, 0.58
84, 41893.83, 31288.64, 10920.93, 16155.95, 4025.91, 16677.46, -25317.28, 0.00, 0.00, 0.00, 0.00
85, 41897.70, 31283.54, 10933.27, 16179.64, 4083.46, 16809.83, -25342.23, 0.00, 0.00, 0.00, 0.00
86, 41937.50, 31307.93, 10936.51, 16194.08, 4118.78, 17046.18, -25385.26, 0.00, 0.00, 0.00, 0.00
87, 41938.22, 31314.59, 10928.39, 16172.04, 4101.43, 16926.19, -25351.55, 0.00, 0.00, 0.00, 0.00
88, 41894.34, 31284.69, 10921.44, 16149.09, 4053.94, 16681.31, -25312.88, 0.00, 0.00, 0.00, 0.00
89, 41889.85, 31277.53, 10929.38, 16177.70, 4069.76, 16759.52, -25360.09, 0.00, 0.00, 0.00, 0.00
90, 41937.59, 31308.49, 10942.09, 16211.45, 4134.38, 17035.36, -25360.65, 0.00, 0.00, 0.00, 0.00
91, 41949.06, 31322.93, 10939.46, 16194.02, 4132.84, 16981.85, -25283.00, 0.00, 0.00, 0.00, 0.00
92, 41903.11, 31292.35, 10923.50, 16163.95, 4076.31, 16726.28, -25276.71, 0.00, 0.00, 0.00, 0.00
93, 41880.62, 31270.78, 10924.77, 16166.64, 4066.83, 16699.52, -25309.35, 0.00, 0.12, 0.80, 0.58
94, 41921.77, 31295.82, 10940.26, 16198.93, 4123.96, 16984.15, -25351.26, 0.00, 0.00, 0.00, 0.00
95, 41940.77, 31313.63, 10934.23, 16190.06, 4125.10, 17021.59, -25341.00, 0.00, 0.00, 0.00, 0.00
96, 41902.23, 31288.35, 10916.12, 16154.50, 4060.42, 16758.18, -25324.44, 0.00, 0.00, 0.00, 0.00
97, 41879.43, 31268.03, 10919.81, 16158.83, 4053.94, 16687.01, -25285.83, 0.00, 0.00, 0.00, 0.00
98, 41911.71, 31287.43, 10933.09, 16189.03, 4115.69, 16942.82, -25335.14, 0.00, 0.00, 0.00, 0.00
99, 41937.93, 31310.46, 10922.81, 16177.39, 4118.04, 17015.55, -25386.95, 0.00, 0.00, 0.00, 0.00
100, 41910.39, 31300.22, 10906.96, 16152.35, 4055.39, 16781.53, -25396.74, 0.00, 0.00, 0.00, 0.00
101, 41879.34, 31281.20, 10907.14, 16158.54, 4025.55, 16671.03, -25351.15, 0.00, 0.00, 0.00, 0.00
102, 41904.36, 31295.21, 10926.11, 16196.10, 4100.43, 16902.41, -25305.75, 0.00, 0.00, 0.00, 0.00
103, 41943.92, 31326.55, 10938.03, 16204.66, 4160.08, 17054.69, -25286.46, 0.00, 0.11, 0.79, 0.59
104, 41923.07, 31319.02, 10926.83, 16177.72, 4108.50, 16847.94, -25302.26, 0.00, 0.00, 0.00, 0.00
105, 41876.80, 31284.75, 10911.41, 16155.75, 4052.39, 16654.98, -25312.84, 0.00, 0.00, 0.00, 0.00
106, 41886.30, 31284.84, 10917.78, 16183.27, 4080.82, 16827.15, -25366.70, 0.00, 0.00, 0.00, 0.00
107, 41934.26, 31322.19, 10927.57, 16205.98, 4130.33, 17038.98, -25387.49, 0.00, 0.00, 0.00, 0.00
108, 41928.45, 31327.76, 10920.82, 16182.86, 4108.45, 16888.66, -25301.35, 0.00, 0.00, 0.00, 0.00
109, 41886.88, 31300.06, 10919.36, 16165.85, 4063.50, 16674.76, -25251.41, 0.00, 0.00, 0.00, 0.00
110, 41893.96, 31297.63, 10933.36, 16194.20, 4087.42, 16797.34, -25290.26, 0.00, 0.00, 0.00, 0.00
111, 41938.55, 31326.06, 10938.67, 16211.21, 4136.03, 17038.60, -25335.08, 0.00, 0.00, 0.00, 0.00
112, 41932.88, 31326.64, 10922.02, 16179.82, 4104.14, 16921.77, -25353.00, 0.00, 0.11, 0.79, 0.60
113, 41889.69, 31300.13, 10913.17, 16155.62, 4044.75, 16675.34, -25341.98, 0.00, 0.00, 0.00, 0.00
114, 41883.59, 31291.53, 10924.59, 16175.76, 4055.97, 16736.83, -25330.83, 0.00, 0.00, 0.00, 0.00
115, 41930.22, 31319.58, 10938.32, 16203.41, 4121.48, 17015.33, -25346.77, 0.00, 0.00, 0.00, 0.00
116, 41939.49, 31328.23, 10919.34, 16175.38, 4095.42, 16961.64, -25391.09, 0.00, 0.00, 0.00, 0.00
117, 41916.80, 31316.45, 10913.51, 16154.63, 4033.24, 16701.07, -25335.19, 0.00, 0.00, 0.00, 0.00
118, 41901.05, 31304.20, 10923.50, 16180.85, 4059.46, 16713.96, -25279.42, 0.00, 0.00, 0.00, 0.00
119, 41933.05, 31327.38, 10939.03, 16221.17, 4142.07, 17005.52, -25320.86, 0.00, 0.00, 0.00, 0.00
120, 41960.88, 31357.33, 10930.43, 16204.59, 4134.65, 17007.73, -25326.69, 0.00, 0.00, 0.00, 0.00
121, 41934.53, 31340.81, 10918.22, 16169.65, 4074.03, 16748.43, -25309.66, 0.00, 0.00, 0.00, 0.00
122, 41909.77, 31318.39, 10920.73, 16182.26, 4050.36, 16707.12, -25311.81, 0.00, 0.11, 0.80, 0.60
123, 41945.55, 31340.97, 10937.31, 16222.52, 4105.57, 16973.11, -25368.42, 0.00, 0.00, 0.00, 0.00
124, 41975.84, 31365.17, 10933.53, 16213.28, 4130.92, 17052.68, -25398.42, 0.00, 0.00, 0.00, 0.00
125, 41951.50, 31351.29, 10919.99, 16178.39, 4080.11, 16824.65, -25333.33, 0.00, 0.00, 0.00, 0.00
126, 41917.66, 31324.58, 10921.40, 16171.73, 4065.20, 16680.95, -25286.93, 0.00, 0.00, 0.00, 0.00
127, 41934.53, 31328.40, 10934.45, 16200.01, 4111.78, 16889.71, -25309.28, 0.00, 0.00, 0.00, 0.00
128, 41971.79, 31355.74, 10938.50, 16205.17, 4148.17, 17062.83, -25323.01, 0.00, 0.00, 0.00, 0.00
129, 41957.60, 31352.16, 10927.19, 16181.61, 4103.67, 16886.54, -25314.18, 0.00, 0.00, 0.00, 0.00
130, 41919.69, 31325.83, 10921.58, 16167.93, 4058.32, 16696.15, -25287.96, 0.00, 0.00, 0.00, 0.00
131, 41930.02, 31327.71, 10933.44, 16193.23, 4090.19, 16854.67, -25329.22, 0.00, 0.00, 0.00, 0.00
132, 41974.79, 31360.57, 10941.02, 16210.24, 4143.43, 17063.70, -25357.76, 0.00, 0.11, 0.79, 0.60
133, 41966.07, 31362.38, 10926.90, 16181.25, 4110.11, 16916.31, -25349.20, 0.00, 0.00, 0.00, 0.00
134, 41922.33, 31332.29, 10917.28, 16159.28, 4050.69, 16686.27, -25321.08, 0.00, 0.00, 0.00, 0.00
135, 41920.94, 31325.21, 10927.68, 16185.70, 4082.10, 16796.93, -25281.32, 0.00, 0.00, 0.00, 0.00
136, 41963.32, 31350.80, 10940.13, 16207.83, 4153.45, 17051.43, -25330.27, 0.00, 0.00, 0.00, 0.00
137, 41967.79, 31362.02, 10930.63, 16188.76, 4113.57, 16957.82, -25359.89, 0.00, 0.00, 0.00, 0.00
138, 41931.29, 31338.82, 10924.24, 16173.59, 4068.84, 16716.20, -25319.92, 0.00, 0.00, 0.00, 0.00
139, 41920.58, 31324.67, 10928.53, 16193.48, 4078.48, 16751.20, -25319.59, 0.00, 0.00, 0.00, 0.00
140, 41965.69, 31355.00, 10945.72, 16223.77, 4142.36, 17024.43, -25317.64, 0.00, 0.00, 0.00, 0.00
141, 41974.96, 31365.29, 10938.07, 16200.16, 4135.05, 16985.38, -25346.47, 0.00, 0.00, 0.00, 0.00
142, 41935.61, 31339.07, 10922.69, 16171.24, 4075.33, 16725.45, -25341.80, 0.00, 0.10, 0.78, 0.59
143, 41914.97, 31320.02, 10928.68, 16185.81, 4069.40, 16710.16, -25311.72, 0.00, 0.00, 0.00, 0.00
144, 41954.18, 31343.87, 10943.77, 16220.77, 4127.76, 16990.61, -25324.46, 0.00, 0.00, 0.00, 0.00
145, 41977.38, 31361.71, 10933.62, 16202.98, 4128.55, 17012.61, -25343.90, 0.00, 0.00, 0.00, 0.00
146, 41950.71, 31349.01, 10927.30, 16177.34, 4084.24, 16751.49, -25327.30, 0.00, 0.00, 0.00, 0.00
147, 41924.14, 31327.64, 10930.54, 16181.86, 4064.35, 16667.56, -25291.76, 0.00, 0.00, 0.00, 0.00
148, 41956.82, 31345.37, 10948.69, 16220.19, 4118.89, 16938.13, -25304.28, 0.00, 0.00, 0.00, 0.00
149, 41990.68, 31373.04, 10949.83, 16221.17, 4141.44, 17055.86, -25351.79, 0.00, 0.00, 0.00, 0.00
150, 41960.13, 31356.39, 10927.25, 16182.73, 4084.36, 16809.92, -25362.72, 0.00, 0.00, 0.00, 0.00
151, 41923.18, 31328.63, 10921.38, 16181.01, 4045.69, 16672.28, -25330.92, 0.00, 0.00, 0.00, 0.00
152, 41944.52, 31339.02, 10939.46, 16216.44, 4092.47, 16900.04, -25315.52, 0.00, 0.11, 0.79, 0.59
153, 41982.95, 31366.25, 10943.32, 16215.25, 4141.85, 17059.97, -25345.94, 0.00, 0.00, 0.00, 0.00
154, 41964.35, 31357.60, 10925.91, 16177.57, 4096.92, 16855.38, -25348.75, 0.00, 0.00, 0.00, 0.00
155, 41919.49, 31324.09, 10919.41, 16162.46, 4053.35, 16666.47, -25310.20, 0.00, 0.00, 0.00, 0.00
156, 41924.29, 31322.62, 10927.97, 16192.88, 4077.61, 16808.82, -25363.57, 0.00, 0.00, 0.00, 0.00
157, 41966.29, 31355.23, 10931.03, 16214.67, 4132.50, 17037.55, -25370.12, 0.00, 0.00, 0.00, 0.00
158, 41964.88, 31364.26, 10934.65, 16202.62, 4123.87, 16932.47, -25281.99, 0.00, 0.00, 0.00, 0.00
159, 41927.51, 31338.82, 10924.71, 16180.45, 4056.86, 16704.15, -25299.96, 0.00, 0.00, 0.00, 0.00
160, 41926.46, 31328.38, 10933.44, 16199.87, 4075.68, 16800.69, -25325.46, 0.00, 0.00, 0.00, 0.00
161, 41968.44, 31353.77, 10944.71, 16217.31, 4136.70, 17054.18, -25347.75, 0.00, 0.11, 0.79, 0.58
162, 41972.53, 31367.97, 10934.25, 16202.15, 4119.00, 16970.63, -25331.05, 0.00, 0.00, 0.00, 0.00
163, 41934.78, 31345.30, 10922.60, 16184.58, 4062.18, 16729.36, -25330.92, 0.00, 0.00, 0.00, 0.00
164, 41918.55, 31324.87, 10930.96, 16203.67, 4069.63, 16752.43, -25296.61, 0.00, 0.00, 0.00, 0.00
165, 41962.11, 31348.79, 10943.82, 16234.92, 4128.79, 17024.27, -25314.40, 0.00, 0.00, 0.00, 0.00
166, 41979.68, 31367.90, 10930.87, 16210.13, 4118.73, 17003.78, -25361.00, 0.00, 0.00, 0.00, 0.00
167, 41936.92, 31341.06, 10916.57, 16174.64, 4062.76, 16747.94, -25325.73, 0.00, 0.00, 0.00, 0.00
168, 41910.93, 31319.87, 10920.97, 16183.78, 4058.29, 16711.24, -25303.69, 0.00, 0.00, 0.00, 0.00
169, 41954.96, 31349.59, 10939.17, 16226.43, 4118.98, 16985.45, -25346.79, 0.00, 0.00, 0.00, 0.00
170, 41982.34, 31373.22, 10936.98, 16212.84, 4123.32, 17035.07, -25350.19, 0.00, 0.00, 0.00, 0.00
171, 41949.39, 31353.82, 10928.28, 16181.79, 4093.30, 16790.47, -25329.96, 0.00, 0.11, 0.80, 0.58
172, 41911.51, 31322.13, 10927.83, 16174.64, 4054.67, 16672.52, -25346.92, 0.00, 0.00, 0.00, 0.00
173, 41931.83, 31329.08, 10937.11, 16201.57, 4100.87, 16907.91, -25379.89, 0.00, 0.00, 0.00, 0.00
174, 41971.01, 31362.11, 10939.68, 16209.13, 4136.55, 17049.26, -25362.43, 0.00, 0.00, 0.00, 0.00
175, 41944.48, 31345.50, 10923.14, 16167.08, 4090.66, 16822.12, -25350.03, 0.00, 0.00, 0.00, 0.00
176, 41900.87, 31307.48, 10914.42, 16149.34, 4037.93, 16644.83, -25352.94, 0.00, 0.00, 0.00, 0.00
177, 41917.07, 31315.08, 10931.21, 16193.59, 4082.61, 16868.77, -25321.51, 0.00, 0.00, 0.00, 0.00
178, 41964.64, 31353.80, 10941.36, 16209.93, 4140.33, 17062.00, -25309.13, 0.00, 0.00, 0.00, 0.00
179, 41952.97, 31353.53, 10930.65, 16183.80, 4102.53, 16881.09, -25331.95, 0.00, 0.00, 0.00, 0.00
180, 41913.41, 31326.10, 10929.26, 16177.59, 4064.53, 16698.50, -25268.78, 0.00, 0.00, 0.00, 0.00
181, 41921.50, 31327.06, 10939.86, 16207.90, 4097.43, 16864.57, -25278.28, 0.00, 0.10, 0.79, 0.57
182, 41967.81, 31358.85, 10944.00, 16221.96, 4146.09, 17083.57, -25338.63, 0.00, 0.00, 0.00, 0.00
183, 41959.99, 31357.66, 10929.24, 16190.44, 4110.98, 16939.67, -25352.94, 0.00, 0.00, 0.00, 0.00
184, 41925.68, 31334.04, 10922.67, 16175.46, 4059.86, 16709.56, -25300.43, 0.00, 0.00, 0.00, 0.00
185, 41932.79, 31337.39, 10935.10, 16203.52, 4080.51, 16780.50, -25295.67, 0.00, 0.00, 0.00, 0.00
186, 41982.01, 31369.87, 10941.96, 16226.47, 4133.24, 17054.34, -25327.81, 0.00, 0.00, 0.00, 0.00
187, 41973.87, 31361.31, 10931.75, 16197.95, 4116.10, 16987.79, -25347.88, 0.00, 0.00, 0.00, 0.00
188, 41919.33, 31321.19, 10926.11, 16174.48, 4067.46, 16742.95, -25310.15, 0.00, 0.00, 0.00, 0.00
189, 41900.13, 31296.17, 10931.88, 16174.28, 4070.68, 16752.50, -25285.70, 0.00, 0.00, 0.00, 0.00
190, 41939.23, 31314.86, 10944.64, 16197.82, 4123.87, 17023.60, -25323.45, 0.00, 0.00, 0.00, 0.00
191, 41955.47, 31324.31, 10943.24, 16183.80, 4144.59, 17018.08, -25356.47, 0.00, 0.09, 0.79, 0.59
192, 41915.80, 31298.88, 10926.90, 16151.17, 4071.50, 16749.23, -25346.43, 0.00, 0.00, 0.00, 0.00
193, 41892.49, 31277.64, 10926.52, 16154.14, 4059.28, 16687.05, -25335.57, 0.00, 0.00, 0.00, 0.00
194, 41926.55, 31300.58, 10940.55, 16193.12, 4116.14, 16965.73, -25371.26, 0.00, 0.00, 0.00, 0.00
195, 41948.79, 31324.45, 10930.79, 16192.74, 4114.98, 17031.00, -25394.29, 0.00, 0.00, 0.00, 0.00
196, 41927.22, 31317.90, 10925.87, 16169.30, 4080.22, 16792.08, -25317.19, 0.00, 0.00, 0.00, 0.00
197, 41897.29, 31291.73, 10929.40, 16163.95, 4063.37, 16677.64, -25313.39, 0.00, 0.00, 0.00, 0.00
198, 41923.85, 31304.53, 10943.37, 16197.28, 4113.50, 16915.04, -25342.43, 0.00, 0.00, 0.00, 0.00
199, 41957.26, 31330.17, 10942.03, 16197.44, 4138.29, 17053.29, -25362.28, 0.00, 0.00, 0.00, 0.00
200, 41934.87, 31321.57, 10928.95, 16168.83, 4088.76, 16835.96, -25363.06, 0.00, 0.10, 0.80, 0.59
201, 41901.88, 31298.68, 10931.25, 16164.58, 4060.10, 16676.81, -25299.87, 0.00, 0.00, 0.00, 0.00
202, 41915.09, 31303.17, 10939.64, 16194.00, 4093.30, 16884.57, -25337.33, 0.00, 0.00, 0.00, 0.00
203, 41958.45, 31336.96, 10945.27, 16217.60, 4135.21, 17084.38, -25351.93, 0.00, 0.00, 0.00, 0.00
204, 41953.95, 31343.09, 10936.95, 16194.49, 4110.96, 16913.81, -25293.08, 0.00, 0.00, 0.00, 0.00
205, 41913.86, 31318.53, 10932.26, 16177.57, 4065.29, 16715.73, -25322.45, 0.00, 0.00, 0.00, 0.00
206, 41912.71, 31309.23, 10939.46, 16192.68, 4079.17, 16837.90, -25368.02, 0.00, 0.00, 0.00, 0.00
207, 41960.86, 31344.45, 10952.09, 16218.27, 4139.05, 17071.03, -25324.10, 0.00, 0.00, 0.00, 0.00
208, 41958.76, 31348.97, 10935.72, 16194.40, 4104.50, 16956.35, -25321.71, 0.00, 0.00, 0.00, 0.00
209, 41920.76, 31325.34, 10930.09, 16177.05, 4057.58, 16729.97, -25263.44, 0.00, 0.00, 0.00, 0.00
210, 41905.81, 31305.65, 10937.67, 16185.86, 4091.55, 16774.56, -25299.71, 0.00, 0.11, 0.78, 0.60
211, 41948.57, 31333.28, 10955.04, 16217.22, 4146.90, 17042.24, -25331.52, 0.00, 0.00, 0.00, 0.00
212, 41955.05, 31341.55, 10936.95, 16195.76, 4125.30, 16984.98, -25362.46, 0.00, 0.00, 0.00, 0.00
213, 41918.88, 31319.49, 10926.65, 16174.64, 4066.36, 16730.41, -25334.05, 0.00, 0.00, 0.00, 0.00
214, 41905.25, 31308.51, 10936.51, 16184.96, 4069.47, 16740.34, -25278.93, 0.00, 0.00, 0.00, 0.00
215, 41938.44, 31325.39, 10944.51, 16210.13, 4128.12, 17016.67, -25345.00, 0.00, 0.00, 0.00, 0.00
216, 41952.39, 31337.93, 10930.41, 16190.78, 4120.54, 17018.13, -25413.24, 0.00, 0.00, 0.00, 0.00
217, 41921.43, 31320.74, 10923.39, 16167.33, 4072.42, 16761.08, -25344.73, 0.00, 0.00, 0.00, 0.00
218, 41901.50, 31304.29, 10932.42, 16180.79, 4067.91, 16697.71, -25273.50, 0.00, 0.00, 0.00, 0.00
219, 41938.33, 31326.33, 10947.97, 16217.00, 4127.92, 16958.58, -25309.42, 0.00, 0.00, 0.00, 0.00
220, 41966.58, 31347.27, 10940.35, 16213.75, 4139.74, 17060.82, -25330.98, 0.00, 0.12, 0.78, 0.60
221, 41931.80, 31327.71, 10918.80, 16168.80, 4071.10, 16815.80, -25334.23, 0.00, 0.00, 0.00, 0.00
222, 41901.63, 31306.28, 10921.58, 16168.13, 4038.33, 16688.84, -25332.62, 0.00, 0.00, 0.00, 0.00
223, 41928.34, 31316.54, 10940.49, 16203.52, 4091.67, 16919.11, -25359.48, 0.00, 0.00, 0.00, 0.00
224, 41975.75, 31346.87, 10944.91, 16203.65, 4126.82, 17055.36, -25369.99, 0.00, 0.00, 0.00, 0.00
225, 41957.78, 31345.75, 10933.00, 16178.04, 4082.21, 16850.00, -25332.24, 0.00, 0.00, 0.00, 0.00
226, 41890.66, 31300.09, 10925.02, 16174.37, 4056.80, 16679.47, -25281.39, 0.00, 0.00, 0.00, 0.00
227, 41893.38, 31293.18, 10931.77, 16204.03, 4087.60, 16867.50, -25309.13, 0.00, 0.00, 0.00, 0.00
228, 41931.40, 31323.82, 10933.44, 16215.21, 4133.96, 17070.43, -25353.40, 0.00, 0.00, 0.00, 0.00
229, 41924.00, 31330.64, 10929.87, 16193.79, 4106.84, 16922.51, -25315.03, 0.00, 0.00, 0.00, 0.00
230, 41876.13, 31300.55, 10925.71, 16177.43, 4057.31, 16712.13, -25284.67, 0.00, 0.12, 0.78, 0.60
231, 41874.23, 31290.72, 10934.47, 16193.23, 4077.16, 16813.83, -25305.84, 0.00, 0.00, 0.00, 0.00
232, 41915.87, 31316.76, 10942.21, 16213.49, 4134.94, 17053.40, -25354.46, 0.00, 0.00, 0.00, 0.00
233, 41917.21, 31322.57, 10932.71, 16196.63, 4113.70, 16960.32, -25363.98, 0.00, 0.00, 0.00, 0.00
234, 41881.87, 31299.50, 10921.13, 16172.02, 4057.45, 16724.54, -25357.96, 0.00, 0.00, 0.00, 0.00
235, 41878.43, 31289.40, 10931.03, 16192.50, 4073.45, 16783.12, -25276.94, 0.00, 0.00, 0.00, 0.00
236, 41927.51, 31321.57, 10946.32, 16221.17, 4135.68, 17045.62, -25308.97, 0.00, 0.00, 0.00, 0.00
237, 41937.04, 31333.43, 10935.28, 16198.91, 4119.67, 16997.41, -25336.42, 0.00, 0.00, 0.00, 0.00
238, 41898.14, 31309.83, 10922.78, 16167.04, 4054.41, 16726.66, -25344.20, 0.00, 0.00, 0.00, 0.00
239, 41872.71, 31285.96, 10922.76, 16163.35, 4040.37, 16696.71, -25341.63, 0.00, 0.00, 0.00, 0.00
240, 41916.79, 31314.88, 10941.20, 16203.43, 4111.36, 16985.00, -25339.52, 0.00, 0.11, 0.79, 0.60
241, 41949.13, 31344.28, 10943.01, 16210.87, 4131.25, 17033.24, -25321.37, 0.00, 0.00, 0.00, 0.00
242, 41927.16, 31335.24, 10939.44, 16188.72, 4090.26, 16807.97, -25294.15, 0.00, 0.00, 0.00, 0.00
243, 41894.75, 31307.39, 10937.54, 16182.84, 4058.74, 16726.53, -25309.97, 0.00, 0.00, 0.00, 0.00
244, 41921.77, 31320.18, 10949.23, 16213.53, 4111.71, 16968.46, -25299.60, 0.00, 0.00, 0.00, 0.00
245, 41955.50, 31346.94, 10950.43, 16206.76, 4130.47, 17035.83, -25364.96, 0.00, 0.00, 0.00, 0.00
246, 41929.79, 31336.16, 10938.16, 16179.96, 4086.32, 16813.74, -25319.05, 0.00, 0.00, 0.00, 0.00
247, 41897.98, 31312.85, 10938.52, 16182.73, 4059.66, 16700.06, -25262.46, 0.00, 0.00, 0.00, 0.00
248, 41918.77, 31320.98, 10949.81, 16215.61, 4095.60, 16913.30, -25317.75, 0.00, 0.00, 0.00, 0.00
249, 41950.98, 31342.49, 10942.30, 16212.30, 4116.39, 17057.53, -25388.61, 0.00, 0.12, 0.79, 0.60
250, 41930.98, 31332.45, 10930.47, 16177.59, 4095.04, 16858.15, -25363.55, 0.00, 0.00, 0.00, 0.00
251, 41894.39, 31305.54, 10931.84, 16166.84, 4049.78, 16673.66, -25331.54, 0.00, 0.00, 0.00, 0.00
252, 41901.11, 31303.97, 10941.16, 16193.23, 4086.10, 16829.10, -25360.69, 0.00, 0.00, 0.00, 0.00
253, 41946.36, 31339.38, 10952.60, 16213.71, 4141.40, 17048.12, -25327.52, 0.00, 0.00, 0.00, 0.00
254, 41935.98, 31340.38, 10940.44, 16186.51, 4107.20, 16894.70, -25343.48, 0.00, 0.00, 0.00, 0.00
255, 41896.27, 31313.56, 10932.19, 16176.76, 4058.72, 16673.78, -25324.77, 0.00, 0.00, 0.00, 0.00
0, 41896.42, 31309.79, 10942.56, 16207.00, 4078.43, 16797.74, -25308.79, 0.00, 0.00, 0.00, 0.00
1, 41946.55, 31346.82, 10952.58, 16232.78, 4123.96, 17057.53, -25352.40, 0.00, 0.00, 0.00, 0.00
2, 41963.01, 31367.54, 10954.57, 16219.36, 4114.69, 16969.53, -25348.24, 0.00, 0.00, 0.00, 0.00
3, 41928.90, 31348.90, 10947.35, 16202.20, 4055.14, 16725.94, -25341.74, 0.00, 0.12, 0.79, 0.59
4, 41918.55, 31336.99, 10958.57, 16226.34, 4064.58, 16786.03, -25309.10, 0.00, 0.00, 0.00, 0.00
5, 41965.71, 31365.80, 10971.67, 16255.93, 4120.16, 17069.33, -25328.57, 0.00, 0.00, 0.00, 0.00
6, 41978.92, 31381.27, 10956.69, 16238.03, 4094.26, 17035.07, -25343.12, 0.00, 0.00, 0.00, 0.00
7, 41937.55, 31355.88, 10946.57, 16205.89, 4068.31, 16764.93, -25318.85, 0.00, 0.00, 0.00, 0.00
8, 41918.10, 31335.20, 10952.04, 16213.98, 4049.26, 16727.84, -25314.85, 0.00, 0.00, 0.00, 0.00
9, 41949.51, 31353.44, 10959.17, 16242.14, 4102.01, 17003.37, -25360.78, 0.00, 0.00, 0.00, 0.00
10, 41956.21, 31358.20, 10944.60, 16213.42, 4111.07, 17036.68, -25401.75, 0.00, 0.00, 0.00, 0.00
11, 41914.50, 31326.62, 10926.67, 16169.99, 4059.03, 16767.27, -25361.94, 0.00, 0.00, 0.00, 0.00
12, 41886.96, 31306.93, 10927.16, 16177.54, 4036.86, 16674.24, -25330.43, 0.00, 0.00, 0.00, 0.00
13, 41929.17, 31337.95, 10950.21, 16232.98, 4099.85, 16970.67, -25328.53, 0.00, 0.12, 0.79, 0.59
14, 41966.88, 31370.14, 10955.10, 16232.33, 4134.65, 17080.82, -25367.62, 0.00, 0.00, 0.00, 0.00
15, 41940.79, 31353.33, 10938.03, 16193.86, 4070.05, 16844.14, -25399.11, 0.00, 0.00, 0.00, 0.00
16, 41907.24, 31323.46, 10931.05, 16181.39, 4026.76, 16683.43, -25374.06, 0.00, 0.00, 0.00, 0.00
17, 41926.08, 31331.09, 10945.72, 16216.97, 4087.82, 16898.05, -25312.05, 0.00, 0.00, 0.00, 0.00
18, 41981.16, 31377.33, 10959.40, 16237.25, 4144.01, 17083.08, -25324.75, 0.00, 0.00, 0.00, 0.00
19, 41960.41, 31370.02, 10942.59, 16205.33, 4094.33, 16900.00, -25304.83, 0.00, 0.00, 0.00, 0.00
20, 41913.36, 31331.13, 10934.18, 16186.22, 4066.18, 16696.46, -25291.40, 0.00, 0.00, 0.00, 0.00
21, 41917.81, 31325.39, 10944.26, 16207.58, 4080.94, 16810.70, -25348.46, 0.00, 0.00, 0.00, 0.00
22, 41950.56, 31346.33, 10947.01, 16221.00, 4122.76, 17044.37, -25370.55, 0.00, 0.00, 0.00, 0.00
23, 41947.18, 31348.54, 10939.55, 16204.97, 4104.70, 16945.59, -25331.77, 0.00, 0.12, 0.79, 0.58
24, 41909.32, 31320.29, 10931.23, 16181.79, 4057.42, 16723.40, -25280.65, 0.00, 0.00, 0.00, 0.00
25, 41909.30, 31313.41, 10938.07, 16193.91, 4067.26, 16801.98, -25309.06, 0.00, 0.00, 0.00, 0.00
26, 41951.56, 31340.72, 10949.67, 16215.32, 4124.86, 17045.87, -25351.01, 0.00, 0.00, 0.00, 0.00
27, 41951.50, 31343.83, 10932.57, 16182.86, 4098.50, 16953.62, -25392.18, 0.00, 0.00, 0.00, 0.00
28, 41913.07, 31319.26, 10921.75, 16160.94, 4037.93, 16699.05, -25362.17, 0.00, 0.00, 0.00, 0.00
29, 41895.48, 31303.35, 10928.30, 16178.04, 4050.16, 16722.01, -25333.82, 0.00, 0.00, 0.00, 0.00
30, 41935.80, 31328.72, 10943.12, 16204.88, 4122.71, 17001.63, -25356.85, 0.00, 0.00, 0.00, 0.00
31, 41961.15, 31351.07, 10939.93, 16199.85, 4122.53, 17016.14, -25355.42, 0.00, 0.00, 0.00, 0.00
32, 41929.55, 31332.21, 10931.54, 16173.34, 4075.93, 16769.42, -25323.54, 0.00, 0.00, 0.00, 0.00
33, 41904.58, 31312.27, 10934.38, 16182.19, 4062.05, 16717.38, -25313.75, 0.00, 0.11, 0.79, 0.58
34, 41943.00, 31337.46, 10949.27, 16227.57, 4116.21, 16994.28, -25343.14, 0.00, 0.00, 0.00, 0.00
35, 41962.76, 31356.28, 10947.06, 16215.27, 4134.18, 17042.91, -25356.42, 0.00, 0.00, 0.00, 0.00
36, 41928.92, 31334.19, 10929.02, 16175.53, 4074.54, 16795.88, -25346.83, 0.00, 0.00, 0.00, 0.00
37, 41901.90, 31309.00, 10932.89, 16178.88, 4049.42, 16708.04, -25330.58, 0.00, 0.00, 0.00, 0.00
38, 41924.25, 31319.91, 10941.87, 16214.42, 4096.45, 16956.23, -25357.85, 0.00, 0.00, 0.00, 0.00
39, 41962.29, 31352.86, 10940.51, 16221.96, 4127.05, 17078.45, -25363.33, 0.00, 0.00, 0.00, 0.00
40, 41938.53, 31343.54, 10926.92, 16185.70, 4091.67, 16850.60, -25305.53, 0.00, 0.00, 0.00, 0.00
41, 41901.36, 31315.82, 10919.09, 16177.59, 4046.92, 16699.41, -25297.08, 0.00, 0.00, 0.00, 0.00
42, 41915.02, 31318.97, 10927.63, 16209.48, 4084.62, 16893.87, -25375.96, 0.00, 0.11, 0.80, 0.58
43, 41955.77, 31347.67, 10937.54, 16215.59, 4134.80, 17062.72, -25387.20, 0.00, 0.00, 0.00, 0.00
44, 41951.63, 31359.79, 10932.35, 16203.16, 4105.08, 16901.99, -25311.70, 0.00, 0.00, 0.00, 0.00
45, 41912.00, 31336.25, 10922.16, 16192.56, 4050.27, 16701.87, -25318.16, 0.00, 0.00, 0.00, 0.00
46, 41914.10, 31328.00, 10934.70, 16227.05, 4079.95, 16848.79, -25301.30, 0.00, 0.00, 0.00, 0.00
47, 41951.54, 31350.13, 10943.59, 16241.36, 4141.31, 17081.07, -25297.99, 0.00, 0.00, 0.00, 0.00
48, 41952.48, 31359.63, 10932.15, 16212.01, 4111.00, 16945.68, -25342.45, 0.00, 0.00, 0.00, 0.00
49, 41913.48, 31333.30, 10920.53, 16188.50, 4050.85, 16716.89, -25338.63, 0.00, 0.00, 0.00, 0.00
50, 41919.60, 31336.72, 10940.80, 16222.65, 4084.74, 16810.37, -25260.69, 0.00, 0.00, 0.00, 0.00
51, 41968.48, 31369.62, 10957.12, 16256.71, 4154.90, 17091.91, -25288.81, 0.00, 0.00, 0.00, 0.00
52, 41972.24, 31374.12, 10945.40, 16228.80, 4141.24, 17020.45, -25310.22, 0.00, 0.12, 0.80, 0.59
53, 41934.71, 31348.68, 10936.10, 16202.76, 4088.31, 16766.47, -25279.51, 0.00, 0.00, 0.00, 0.00
54, 41922.95, 31337.23, 10946.63, 16217.40, 4090.06, 16759.45, -25291.82, 0.00, 0.00, 0.00, 0.00
55, 41963.10, 31362.16, 10962.46, 16248.78, 4143.97, 17029.41, -25322.07, 0.00, 0.00, 0.00, 0.00
56, 41980.69, 31377.87, 10949.45, 16237.42, 4134.58, 17050.09, -25321.44, 0.00, 0.00, 0.00, 0.00
57, 41945.15, 31356.97, 10937.56, 16209.24, 4093.63, 16802.97, -25292.25, 0.00, 0.00, 0.00, 0.00
58, 41916.09, 31331.18, 10940.04, 16206.11, 4072.58, 16732.31, -25289.90, 0.00, 0.00, 0.00, 0.00
59, 41948.16, 31346.38, 10953.07, 16237.07, 4129.40, 16994.19, -25341.20, 0.00, 0.00, 0.00, 0.00
60, 41967.43, 31360.37, 10946.63, 16219.95, 4143.34, 17047.47, -25363.89, 0.00, 0.00, 0.00, 0.00
61, 41936.54, 31344.92, 10931.10, 16195.18, 4084.02, 16808.78, -25370.59, 0.00, 0.00, 0.00, 0.00
62, 41894.77, 31311.19, 10929.67, 16201.21, 4048.95, 16693.13, -25363.89, 0.00, 0.11, 0.80, 0.58
63, 41907.15, 31311.51, 10946.36, 16228.80, 4106.33, 16922.46, -25294.17, 0.00, 0.00, 0.00, 0.00
64, 41937.37, 31335.76, 10947.95, 16236.40, 4144.75, 17062.76, -25317.64, 0.00, 0.00, 0.00, 0.00
65, 41902.64, 31314.28, 10930.43, 16203.36, 4101.61, 16850.18, -25315.23, 0.00, 0.00, 0.00, 0.00
66, 41847.58, 31265.64, 10922.98, 16185.86, 4070.03, 16680.08, -25296.56, 0.00, 0.00, 0.00, 0.00
67, 41854.89, 31264.05, 10936.33, 16216.46, 4105.99, 16868.75, -25305.01, 0.00, 0.00, 0.00, 0.00
68, 41876.73, 31278.31, 10927.75, 16208.68, 4125.35, 17045.51, -25357.43, 0.00, 0.00, 0.00, 0.00
69, 41857.53, 31271.12, 10917.98, 16180.83, 4096.54, 16870.29, -25356.49, 0.00, 0.00, 0.00, 0.00
70, 41817.92, 31245.81, 10920.17, 16189.30, 4057.71, 16691.14, -25286.01, 0.00, 0.00, 0.00, 0.00
71, 41811.64, 31235.40, 10927.79, 16217.33, 4086.48, 16822.62, -25298.84, 0.00, 0.00, 0.00, 0.00
72, 41832.56, 31241.95, 10928.08, 16222.14, 4135.18, 17052.26, -25346.07, 0.00, 0.12, 0.80, 0.58
73, 41822.17, 31234.77, 10913.60, 16189.41, 4101.86, 16931.83, -25360.89, 0.00, 0.00, 0.00, 0.00
74, 41767.61, 31190.56, 10901.53, 16163.64, 4046.74, 16689.11, -25345.45, 0.00, 0.00, 0.00, 0.00
75, 41752.01, 31168.97, 10909.08, 16182.98, 4056.55, 16744.47, -25343.86, 0.00, 0.00, 0.00, 0.00
76, 41789.07, 31187.10, 10924.19, 16211.76, 4116.03, 17018.35, -25362.84, 0.00, 0.00, 0.00, 0.00
77, 41785.31, 31180.68, 10913.31, 16177.59, 4099.85, 16953.26, -25392.41, 0.00, 0.00, 0.00, 0.00
78, 41739.91, 31150.37, 10906.85, 16152.64, 4043.39, 16689.58, -25384.54, 0.00, 0.00, 0.00, 0.00
79, 41704.75, 31121.65, 10905.28, 16166.41, 4037.46, 16678.85, -25348.82, 0.00, 0.00, 0.00, 0.00
80, 41729.36, 31132.63, 10914.31, 16192.56, 4102.35, 16953.53, -25334.79, 0.00, 0.00, 0.00, 0.00
81, 41748.68, 31144.79, 10915.38, 16176.43, 4118.17, 16982.14, -25353.38, 0.00, 0.14, 0.80, 0.58
82, 41712.42, 31120.47, 10906.40, 16145.11, 4061.65, 16712.35, -25331.01, 0.00, 0.00, 0.00, 0.00
83, 41687.01, 31097.89, 10908.03, 16150.68, 4028.92, 16644.18, -25359.82, 0.00, 0.00, 0.00, 0.00
84, 41721.88, 31120.58, 10920.46, 16193.44, 4085.54, 16914.30, -25434.36, 0.00, 0.00, 0.00, 0.00
85, 41758.71, 31154.11, 10930.70, 16205.37, 4127.85, 17021.32, -25335.57, 0.00, 0.00, 0.00, 0.00
86, 41729.59, 31135.35, 10921.58, 16166.41, 4077.07, 16796.29, -25305.33, 0.00, 0.00, 0.00, 0.00
87, 41698.43, 31105.80, 10923.54, 16153.45, 4046.40, 16668.84, -25282.57, 0.00, 0.00, 0.00, 0.00
88, 41727.06, 31121.43, 10937.96, 16193.41, 4093.10, 16907.51, -25303.07, 0.00, 0.00, 0.00, 0.00
89, 41763.45, 31153.21, 10933.47, 16196.36, 4118.80, 17045.22, -25368.78, 0.00, 0.00, 0.00, 0.00
90, 41750.69, 31150.64, 10922.09, 16162.59, 4074.50, 16822.44, -25383.33, 0.00, 0.00, 0.00, 0.00
91, 41724.65, 31134.04, 10923.88, 16159.15, 4044.17, 16660.32, -25320.93, 0.00, 0.14, 0.79, 0.57
92, 41734.62, 31138.04, 10932.93, 16186.98, 4078.66, 16848.25, -25341.18, 0.00, 0.00, 0.00, 0.00
93, 41790.23, 31179.81, 10941.38, 16206.20, 4125.42, 17059.95, -25361.67, 0.00, 0.00, 0.00, 0.00
94, 41809.41, 31207.68, 10944.29, 16194.96, 4117.39, 16911.46, -25298.40, 0.00, 0.00, 0.00, 0.00
95, 41774.87, 31189.31, 10934.90, 16179.71, 4068.80, 16690.38, -25317.24, 0.00, 0.00, 0.00, 0.00
96, 41780.21, 31188.15, 10941.16, 16201.53, 4078.39, 16800.04, -25354.97, 0.00, 0.00, 0.00, 0.00
97, 41831.58, 31229.92, 10954.46, 16233.49, 4135.72, 17062.00, -25326.74, 0.00, 0.00, 0.00, 0.00
98, 41841.64, 31247.92, 10943.55, 16217.73, 4115.92, 16963.32, -25325.22, 0.00, 0.00, 0.00, 0.00
99, 41803.08, 31223.84, 10933.60, 16191.33, 4080.80, 16707.97, -25300.97, 0.00, 0.00, 0.00, 0.00
100, 41811.35, 31228.94, 10954.66, 16229.74, 4091.51, 16793.58, -25268.13, 0.00, 0.00, 0.00, 0.00
101, 41856.01, 31255.36, 10963.84, 16253.76, 4147.63, 17074.29, -25332.04, 0.00, 0.14, 0.80, 0.56
102, 41876.17, 31274.31, 10952.98, 16230.36, 4133.96, 17021.95, -25351.06, 0.00, 0.00, 0.00, 0.00
103, 41850.71, 31260.10, 10946.16, 16207.32, 4079.42, 16765.35, -25290.13, 0.00, 0.00, 0.00, 0.00
104, 41843.11, 31251.49, 10958.34, 16222.00, 4076.15, 16746.84, -25285.16, 0.00, 0.00, 0.00, 0.00
105, 41874.50, 31269.75, 10962.64, 16247.82, 4128.28, 17021.03, -25312.12, 0.00, 0.00, 0.00, 0.00
106, 41901.61, 31296.17, 10955.89, 16233.78, 4131.03, 17047.81, -25340.51, 0.00, 0.00, 0.00, 0.00
107, 41863.70, 31271.97, 10935.01, 16194.67, 4064.33, 16778.25, -25359.66, 0.00, 0.00, 0.00, 0.00
108, 41841.77, 31255.83, 10934.23, 16199.05, 4051.66, 16696.89, -25315.56, 0.00, 0.00, 0.00, 0.00
109, 41877.02, 31279.75, 10950.54, 16240.84, 4112.23, 16979.68, -25335.28, 0.00, 0.00, 0.00, 0.00
110, 41892.27, 31290.72, 10936.26, 16217.42, 4123.09, 17048.93, -25349.63, 0.00, 0.00, 0.00, 0.00
111, 41868.28, 31277.26, 10922.16, 16180.36, 4073.45, 16806.72, -25311.38, 0.00, 0.13, 0.81, 0.56
112, 41840.59, 31256.28, 10915.47, 16182.91, 4045.76, 16689.06, -25293.12, 0.00, 0.00, 0.00, 0.00
113, 41869.93, 31276.44, 10935.12, 16226.99, 4101.48, 16918.15, -25310.00, 0.00, 0.00, 0.00, 0.00
114, 41907.46, 31304.73, 10932.04, 16231.59, 4122.69, 17078.32, -25384.67, 0.00, 0.00, 0.00, 0.00
115, 41879.03, 31283.97, 10909.28, 16183.09, 4066.07, 16868.46, -25370.82, 0.00, 0.00, 0.00, 0.00
116, 41843.78, 31257.80, 10903.14, 16172.29, 4027.90, 16681.13, -25325.96, 0.00, 0.00, 0.00, 0.00
117, 41852.23, 31256.01, 10913.31, 16193.88, 4064.91, 16822.73, -25334.63, 0.00, 0.00, 0.00, 0.00
118, 41888.71, 31283.14, 10908.70, 16199.52, 4091.80, 17015.67, -25425.98, 0.00, 0.00, 0.00, 0.00
119, 41892.78, 31298.03, 10899.96, 16185.99, 4069.29, 16907.26, -25378.17, 0.00, 0.00, 0.00, 0.00
120, 41864.61, 31280.93, 10905.21, 16186.42, 4038.40, 16729.79, -25258.39, 0.00, 0.00, 0.00, 0.00
121, 41861.08, 31269.26, 10907.49, 16203.65, 4046.16, 16813.07, -25314.91, 0.00, 0.14, 0.80, 0.57
122, 41908.49, 31302.07, 10921.24, 16226.72, 4100.72, 17061.96, -25364.00, 0.00, 0.00, 0.00, 0.00
123, 41915.40, 31315.98, 10913.42, 16209.84, 4093.32, 16981.65, -25354.68, 0.00, 0.00, 0.00, 0.00
124, 41873.02, 31289.60, 10894.82, 16178.86, 4029.77, 16721.56, -25359.75, 0.00, 0.00, 0.00, 0.00
125, 41865.40, 31281.24, 10900.19, 16195.04, 4025.97, 16751.40, -25358.57, 0.00, 0.00, 0.00, 0.00
126, 41914.62, 31313.63, 10916.39, 16222.09, 4099.76, 17028.32, -25344.55, 0.00, 0.00, 0.00, 0.00
127, 41937.37, 31333.03, 10917.04, 16197.88, 4105.97, 16999.91, -25374.39, 0.00, 0.00, 0.00, 0.00
128, 41902.68, 31310.55, 10901.19, 16167.37, 4036.90, 16732.65, -25359.51, 0.00, 0.00, 0.00, 0.00
129, 41879.57, 31289.76, 10900.07, 16185.39, 4023.60, 16717.07, -25327.19, 0.00, 0.00, 0.00, 0.00
130, 41920.98, 31322.50, 10924.62, 16238.85, 4113.88, 17018.75, -25317.42, 0.00, 0.14, 0.81, 0.57
131, 41954.18, 31352.43, 10923.72, 16232.86, 4125.33, 17063.03, -25338.29, 0.00, 0.00, 0.00, 0.00
132, 41932.18, 31340.47, 10917.84, 16204.17, 4076.80, 16814.19, -25318.20, 0.00, 0.00, 0.00, 0.00
133, 41895.59, 31306.68, 10914.33, 16204.03, 4049.78, 16721.14, -25310.96, 0.00, 0.00, 0.00, 0.00
134, 41924.16, 31320.92, 10928.97, 16238.18, 4106.42, 16972.51, -25323.32, 0.00, 0.00, 0.00, 0.00
135, 41955.09, 31343.29, 10923.77, 16231.08, 4123.52, 17074.92, -25340.06, 0.00, 0.00, 0.00, 0.00
136, 41931.34, 31333.12, 10903.16, 16196.03, 4058.81, 16830.64, -25359.17, 0.00, 0.00, 0.00, 0.00
137, 41900.09, 31312.18, 10894.55, 16188.97, 4018.35, 16678.89, -25334.43, 0.00, 0.00, 0.00, 0.00
138, 41914.91, 31312.96, 10916.82, 16221.24, 4072.13, 16887.44, -25321.13, 0.00, 0.00, 0.00, 0.00
139, 41949.35, 31335.56, 10916.77, 16219.63, 4100.90, 17040.48, -25381.21, 0.00, 0.00, 0.00, 0.00
140, 41953.82, 31346.17, 10909.66, 16192.05, 4066.70, 16862.24, -25345.96, 0.00, 0.14, 0.80, 0.58
141, 41918.93, 31321.37, 10905.28, 16188.29, 4027.16, 16700.53, -25306.24, 0.00, 0.00, 0.00, 0.00
142, 41924.96, 31318.55, 10913.86, 16214.00, 4069.11, 16840.38, -25338.65, 0.00, 0.00, 0.00, 0.00
143, 41966.67, 31346.40, 10926.61, 16232.55, 4131.23, 17062.74, -25353.78, 0.00, 0.00, 0.00, 0.00
144, 41960.17, 31348.05, 10915.54, 16201.86, 4092.27, 16915.76, -25338.50, 0.00, 0.00, 0.00, 0.00
145, 41924.25, 31319.84, 10907.47, 16172.47, 4038.96, 16659.45, -25334.40, 0.00, 0.00, 0.00, 0.00
146, 41915.02, 31306.90, 10914.07, 16197.24, 4058.38, 16751.38, -25325.91, 0.00, 0.00, 0.00, 0.00
147, 41960.93, 31340.41, 10921.31, 16228.82, 4122.02, 17022.35, -25355.35, 0.00, 0.00, 0.00, 0.00
148, 41969.29, 31354.65, 10912.14, 16209.51, 4106.98, 16957.51, -25361.61, 0.00, 0.00, 0.00, 0.00
149, 41923.89, 31325.21, 10898.98, 16177.43, 4036.19, 16698.25, -25386.04, 0.00, 0.00, 0.00, 0.00
150, 41903.11, 31301.56, 10901.26, 16185.01, 4032.43, 16705.71, -25321.71, 0.00, 0.14, 0.80, 0.58
151, 41957.02, 31340.81, 10929.20, 16234.27, 4119.00, 16994.84, -25331.16, 0.00, 0.00, 0.00, 0.00
152, 41972.68, 31358.71, 10919.27, 16224.26, 4109.50, 16991.10, -25398.91, 0.00, 0.00, 0.00, 0.00
153, 41934.96, 31335.87, 10902.42, 16195.09, 4044.28, 16725.94, -25348.60, 0.00, 0.00, 0.00, 0.00
154, 41923.18, 31326.91, 10917.44, 16213.51, 4049.04, 16694.16, -25278.41, 0.00, 0.00, 0.00, 0.00
155, 41956.44, 31346.11, 10930.18, 16241.31, 4108.38, 16975.84, -25342.14, 0.00, 0.00, 0.00, 0.00
156, 41984.98, 31370.29, 10926.07, 16226.87, 4116.72, 17021.19, -25362.79, 0.00, 0.00, 0.00, 0.00
157, 41952.46, 31351.40, 10910.96, 16191.11, 4059.50, 16752.88, -25351.88, 0.00, 0.00, 0.00, 0.00
158, 41919.31, 31325.43, 10910.71, 16198.55, 4040.66, 16666.82, -25322.27, 0.00, 0.00, 0.00, 0.00
159, 41945.53, 31339.25, 10929.51, 16239.17, 4092.18, 16929.12, -25325.24, 0.00, 0.00, 0.00, 0.00
160, 41972.13, 31361.13, 10923.10, 16237.16, 4111.25, 17039.99, -25352.38, 0.00, 0.13, 0.79, 0.58
161, 41953.39, 31354.06, 10909.13, 16201.35, 4066.05, 16810.95, -25347.39, 0.00, 0.00, 0.00, 0.00
162, 41926.24, 31335.45, 10913.04, 16199.45, 4035.76, 16657.10, -25304.34, 0.00, 0.00, 0.00, 0.00
163, 41951.25, 31350.85, 10935.61, 16246.88, 4088.25, 16883.23, -25306.89, 0.00, 0.00, 0.00, 0.00
164, 41985.80, 31372.66, 10934.83, 16250.83, 4124.88, 17067.81, -25334.74, 0.00, 0.00, 0.00, 0.00
165, 41969.11, 31364.82, 10917.89, 16213.22, 4080.91, 16888.26, -25333.42, 0.00, 0.00, 0.00, 0.00
166, 41925.64, 31333.23, 10907.52, 16183.40, 4029.53, 16668.21, -25331.81, 0.00, 0.00, 0.00, 0.00
167, 41933.17, 31333.26, 10919.59, 16209.28, 4064.60, 16790.32, -25343.90, 0.00, 0.00, 0.00, 0.00
168, 41977.36, 31366.49, 10929.96, 16238.34, 4118.31, 17035.94, -25361.54, 0.00, 0.00, 0.00, 0.00
169, 41978.23, 31376.13, 10920.19, 16218.78, 4088.16, 16925.70, -25340.13, 0.00, 0.00, 0.00, 0.00
170, 41946.54, 31354.24, 10914.02, 16205.44, 4041.26, 16702.54, -25303.52, 0.00, 0.13, 0.80, 0.58
171, 41940.43, 31342.84, 10922.11, 16222.43, 4053.33, 16763.74, -25321.55, 0.00, 0.00, 0.00, 0.00
172, 41983.57, 31371.86, 10933.71, 16257.79, 4102.28, 17037.24, -25387.51, 0.00, 0.00, 0.00, 0.00
173, 41998.30, 31389.60, 10927.57, 16246.30, 4092.27, 16982.10, -25403.74, 0.00, 0.00, 0.00, 0.00
174, 41960.91, 31368.79, 10919.72, 16224.91, 4046.29, 16729.70, -25326.22, 0.00, 0.00, 0.00, 0.00
175, 41950.00, 31357.26, 10926.14, 16242.52, 4033.62, 16738.93, -25304.54, 0.00, 0.00, 0.00, 0.00
176, 41988.27, 31380.60, 10938.88, 16272.61, 4103.51, 17012.49, -25356.06, 0.00, 0.00, 0.00, 0.00
177, 42000.11, 31393.36, 10933.60, 16258.19, 4108.23, 17020.32, -25370.10, 0.00, 0.00, 0.00, 0.00
178, 41960.01, 31365.29, 10918.13, 16220.88, 4048.21, 16759.70, -25356.29, 0.00, 0.00, 0.00, 0.00
179, 41923.27, 31327.53, 10911.65, 16207.85, 4020.88, 16678.60, -25369.16, 0.00, 0.13, 0.80, 0.58
180, 41949.04, 31338.66, 10922.81, 16243.03, 4076.24, 16941.59, -25377.52, 0.00, 0.00, 0.00, 0.00
181, 41972.11, 31360.90, 10924.01, 16230.41, 4106.37, 17016.43, -25337.02, 0.00, 0.00, 0.00, 0.00
182, 41947.72, 31343.40, 10910.36, 16195.69, 4056.26, 16772.62, -25324.01, 0.00, 0.00, 0.00, 0.00
183, 41919.09, 31323.22, 10910.91, 16202.09, 4041.37, 16670.13, -25314.87, 0.00, 0.00, 0.00, 0.00
184, 41942.87, 31337.66, 10924.97, 16242.74, 4091.71, 16902.97, -25348.55, 0.00, 0.00, 0.00, 0.00
185, 41973.96, 31360.55, 10923.05, 16240.96, 4120.12, 17030.84, -25379.94, 0.00, 0.00, 0.00, 0.00
186, 41951.34, 31349.73, 10909.51, 16203.14, 4077.11, 16817.70, -25341.98, 0.00, 0.00, 0.00, 0.00
187, 41913.63, 31315.53, 10909.98, 16187.54, 4037.37, 16649.21, -25318.45, 0.00, 0.00, 0.00, 0.00
188, 41928.09, 31317.68, 10925.87, 16226.14, 4080.15, 16858.00, -25332.19, 0.00, 0.00, 0.00, 0.00
189, 41974.96, 31355.09, 10937.33, 16249.00, 4139.48, 17066.85, -25349.36, 0.00, 0.13, 0.80, 0.58
190, 41959.72, 31351.99, 10926.90, 16214.80, 4096.49, 16894.41, -25355.28, 0.00, 0.00, 0.00, 0.00
191, 41917.14, 31317.79, 10920.55, 16190.53, 4040.32, 16689.94, -25331.14, 0.00, 0.00, 0.00, 0.00
192, 41920.94, 31314.59, 10932.55, 16220.21, 4072.17, 16826.77, -25303.27, 0.00, 0.00, 0.00, 0.00
193, 41962.27, 31340.88, 10939.17, 16237.27, 4127.63, 17063.05, -25339.01, 0.00, 0.00, 0.00, 0.00
194, 41976.66, 31363.41, 10936.40, 16228.21, 4109.57, 16969.24, -25343.79, 0.00, 0.00, 0.00, 0.00
195, 41932.30, 31329.88, 10918.56, 16192.52, 4038.78, 16716.38, -25368.83, 0.00, 0.00, 0.00, 0.00
196, 41913.07, 31309.72, 10917.69, 16204.59, 4034.00, 16764.01, -25342.47, 0.00, 0.00, 0.00, 0.00
197, 41965.53, 31352.75, 10938.97, 16249.36, 4126.18, 17045.46, -25325.67, 0.00, 0.00, 0.00, 0.00
198, 41983.79, 31373.76, 10939.46, 16235.73, 4116.52, 17001.59, -25325.64, 0.00, 0.00, 0.00, 0.00
199, 41942.91, 31347.38, 10924.75, 16201.39, 4050.54, 16738.30, -25332.53, 0.00, 0.14, 0.81, 0.57
200, 41917.63, 31322.84, 10923.72, 16209.22, 4041.28, 16727.29, -25312.59, 0.00, 0.00, 0.00, 0.00
201, 41950.69, 31338.49, 10934.74, 16235.39, 4094.84, 16999.80, -25352.87, 0.00, 0.00, 0.00, 0.00
202, 41979.77, 31367.68, 10936.44, 16236.96, 4109.75, 17031.45, -25356.80, 0.00, 0.00, 0.00, 0.00
203, 41964.35, 31365.67, 10936.80, 16219.12, 4076.24, 16789.67, -25269.36, 0.00, 0.00, 0.00, 0.00
204, 41938.87, 31347.90, 10936.22, 16229.65, 4055.88, 16718.30, -25283.33, 0.00, 0.00, 0.00, 0.00
205, 41959.92, 31358.56, 10940.96, 16259.35, 4096.27, 16972.71, -25325.29, 0.00, 0.00, 0.00, 0.00
206, 41990.30, 31379.63, 10940.49, 16245.45, 4117.17, 17062.23, -25324.55, 0.00, 0.00, 0.00, 0.00
207, 41962.58, 31365.15, 10929.98, 16218.74, 4072.02, 16831.62, -25316.72, 0.00, 0.00, 0.00, 0.00
208, 41924.25, 31336.65, 10927.10, 16213.33, 4037.10, 16700.62, -25321.62, 0.00, 0.00, 0.00, 0.00
209, 41940.43, 31338.73, 10939.52, 16242.86, 4079.19, 16911.53, -25343.32, 0.00, 0.14, 0.80, 0.57
210, 41980.82, 31368.59, 10945.89, 16241.78, 4113.39, 17061.06, -25352.49, 0.00, 0.00, 0.00, 0.00
211, 41960.55, 31362.22, 10930.00, 16214.69, 4071.66, 16865.26, -25349.78, 0.00, 0.00, 0.00, 0.00
212, 41929.19, 31346.11, 10924.53, 16219.97, 4034.62, 16702.47, -25308.63, 0.00, 0.00, 0.00, 0.00
213, 41943.67, 31353.97, 10941.13, 16250.34, 4076.04, 16873.53, -25314.89, 0.00, 0.00, 0.00, 0.00
214, 41988.60, 31382.99, 10945.11, 16265.57, 4116.23, 17096.47, -25346.68, 0.00, 0.00, 0.00, 0.00
215, 41974.36, 31370.49, 10928.57, 16225.04, 4078.05, 16937.01, -25335.63, 0.00, 0.00, 0.00, 0.00
216, 41929.93, 31339.38, 10924.88, 16198.06, 4031.20, 16702.52, -25307.14, 0.00, 0.00, 0.00, 0.00
217, 41924.90, 31328.45, 10934.76, 16210.96, 4050.11, 16789.02, -25352.29, 0.00, 0.00, 0.00, 0.00
218, 41964.15, 31353.53, 10938.81, 16238.00, 4099.96, 17040.77, -25394.69, 0.00, 0.14, 0.80, 0.58
219, 41968.28, 31367.92, 10930.65, 16229.76, 4093.72, 16973.27, -25364.78, 0.00, 0.00, 0.00, 0.00
220, 41930.95, 31346.89, 10920.70, 16205.75, 4029.86, 16721.45, -25410.07, 0.00, 0.00, 0.00, 0.00
221, 41919.49, 31335.22, 10933.22, 16227.05, 4036.48, 16762.60, -25345.63, 0.00, 0.00, 0.00, 0.00
222, 41970.07, 31371.30, 10958.12, 16266.17, 4124.21, 17054.36, -25277.50, 0.00, 0.00, 0.00, 0.00
223, 41986.05, 31384.15, 10950.70, 16241.36, 4120.66, 17018.21, -25312.14, 0.00, 0.00, 0.00, 0.00
224, 41942.24, 31352.54, 10936.80, 16207.81, 4060.06, 16748.29, -25316.88, 0.00, 0.00, 0.00, 0.00
225, 41921.46, 31331.58, 10941.98, 16219.19, 4049.26, 16714.48, -25313.44, 0.00, 0.00, 0.00, 0.00
226, 41962.74, 31359.16, 10957.96, 16258.21, 4113.64, 17006.50, -25299.18, 0.00, 0.00, 0.00, 0.00
227, 41985.71, 31378.92, 10954.61, 16248.11, 4125.37, 17039.36, -25317.02, 0.00, 0.00, 0.00, 0.00
228, 41951.54, 31353.66, 10942.41, 16208.17, 4063.97, 16765.55, -25336.86, 0.00, 0.14, 0.79, 0.59
229, 41905.81, 31310.41, 10935.48, 16192.32, 4027.87, 16657.39, -25341.38, 0.00, 0.00, 0.00, 0.00
230, 41936.54, 31329.41, 10951.57, 16232.10, 4087.20, 16914.26, -25354.12, 0.00, 0.00, 0.00, 0.00
231, 41975.55, 31368.19, 10951.37, 16243.88, 4123.99, 17020.36, -25352.76, 0.00, 0.00, 0.00, 0.00
232, 41964.24, 31372.10, 10948.69, 16229.85, 4085.54, 16813.05, -25321.31, 0.00, 0.00, 0.00, 0.00
233, 41927.07, 31334.19, 10945.27, 16204.14, 4044.46, 16659.60, -25311.18, 0.00, 0.00, 0.00, 0.00
234, 41941.28, 31334.44, 10955.57, 16234.56, 4091.40, 16868.39, -25334.72, 0.00, 0.00, 0.00, 0.00
235, 41974.07, 31365.51, 10951.62, 16248.82, 4125.86, 17038.60, -25386.11, 0.00, 0.00, 0.00, 0.00
236, 41964.37, 31367.34, 10943.37, 16222.29, 4092.69, 16854.31, -25348.98, 0.00, 0.00, 0.00, 0.00
237, 41930.11, 31341.30, 10942.65, 16208.39, 4049.89, 16674.71, -25321.15, 0.00, 0.00, 0.00, 0.00
238, 41942.53, 31343.92, 10957.05, 16236.28, 4079.26, 16835.62, -25355.28, 0.00, 0.14, 0.79, 0.58
239, 41984.24, 31370.29, 10962.57, 16248.22, 4126.38, 17059.14, -25324.66, 0.00, 0.00, 0.00, 0.00
240, 41979.12, 31371.88, 10951.50, 16216.08, 4103.91, 16923.24, -25306.94, 0.00, 0.00, 0.00, 0.00
241, 41935.65, 31340.47, 10939.03, 16190.89, 4038.09, 16677.37, -25339.81, 0.00, 0.00, 0.00, 0.00
242, 41935.11, 31333.37, 10953.05, 16222.72, 4060.26, 16757.68, -25341.89, 0.00, 0.00, 0.00, 0.00
243, 41976.93, 31356.75, 10960.54, 16237.45, 4114.55, 17005.18, -25337.96, 0.00, 0.00, 0.00, 0.00
244, 41986.63, 31369.33, 10949.87, 16219.05, 4097.54, 16936.99, -25344.96, 0.00, 0.00, 0.00, 0.00
245, 41943.70, 31341.68, 10934.65, 16200.90, 4050.67, 16701.40, -25331.72, 0.00, 0.00, 0.00, 0.00
246, 41923.73, 31318.79, 10940.51, 16217.38, 4057.24, 16729.10, -25355.33, 0.00, 0.00, 0.00, 0.00
247, 41955.21, 31332.85, 10948.46, 16242.21, 4102.08, 17008.25, -25353.18, 0.00, 0.00, 0.00, 0.00
248, 41981.22, 31362.04, 10946.74, 16231.97, 4109.50, 17002.44, -25334.96, 0.00, 0.14, 0.79, 0.58
249, 41946.51, 31341.68, 10933.49, 16201.62, 4050.31, 16747.85, -25349.63, 0.00, 0.00, 0.00, 0.00
250, 41931.27, 31327.33, 10948.31, 16216.57, 4052.39, 16708.04, -25276.54, 0.00, 0.00, 0.00, 0.00
251, 41968.13, 31348.48, 10968.40, 16251.98, 4115.81, 16980.37, -25297.61, 0.00, 0.00, 0.00, 0.00
252, 41982.39, 31360.30, 10952.98, 16230.29, 4115.40, 17021.70, -25359.46, 0.00, 0.00, 0.00, 0.00
253, 41952.52, 31344.74, 10936.71, 16199.31, 4063.64, 16771.50, -25360.60, 0.00, 0.00, 0.00, 0.00
254, 41924.41, 31322.13, 10935.77, 16203.74, 4039.03, 16660.72, -25320.28, 0.00, 0.00, 0.00, 0.00
255, 41950.18, 31333.81, 10950.52, 16228.35, 4089.54, 16887.81, -25340.78, 0.00, 0.00, 0.00, 0.00
0, 41980.35, 31358.20, 10951.97, 16230.36, 4122.20, 17008.63, -25386.31, 0.00, 0.00, 0.00, 0.00
1, 41962.23, 31353.53, 10942.21, 16209.55, 4078.28, 16798.88, -25372.07, 0.00, 0.00, 0.00, 0.00
2, 41927.16, 31323.71, 10940.06, 16201.08, 4042.36, 16655.40, -25339.72, 0.00, 0.14, 0.80, 0.57
3, 41943.32, 31323.02, 10953.43, 16225.44, 4077.52, 16844.30, -25344.69, 0.00, 0.00, 0.00, 0.00
4, 41985.83, 31353.60, 10961.16, 16241.63, 4124.81, 17044.66, -25328.66, 0.00, 0.00, 0.00, 0.00
5, 41979.84, 31355.61, 10943.93, 16208.52, 4077.65, 16870.63, -25349.09, 0.00, 0.00, 0.00, 0.00
6, 41945.73, 31332.32, 10938.81, 16193.55, 4029.84, 16667.52, -25348.17, 0.00, 0.00, 0.00, 0.00
7, 41930.62, 31324.47, 10952.29, 16236.11, 4080.74, 16813.47, -25320.28, 0.00, 0.00, 0.00, 0.00
8, 41961.89, 31346.89, 10957.74, 16257.59, 4140.66, 17042.29, -25318.31, 0.00, 0.00, 0.00, 0.00
9, 41951.79, 31344.70, 10942.27, 16227.21, 4102.55, 16916.83, -25343.50, 0.00, 0.00, 0.00, 0.00
10, 41907.30, 31313.77, 10931.86, 16207.74, 4039.92, 16691.68, -25328.75, 0.00, 0.00, 0.00, 0.00
11, 41900.22, 31304.06, 10937.00, 16229.76, 4044.86, 16766.63, -25324.06, 0.00, 0.15, 0.80, 0.57
12, 41933.61, 31328.43, 10948.33, 16254.70, 4124.08, 17021.43, -25384.54, 0.00, 0.00, 0.00, 0.00
13, 41939.56, 31335.36, 10940.93, 16234.81, 4105.23, 16961.33, -25372.58, 0.00, 0.00, 0.00, 0.00
14, 41899.77, 31308.06, 10932.26, 16210.24, 4049.20, 16718.23, -25332.82, 0.00, 0.00, 0.00, 0.00
15, 41888.98, 31295.48, 10941.87, 16225.62, 4056.80, 16724.38, -25324.66, 0.00, 0.00, 0.00, 0.00
16, 41931.58, 31322.19, 10957.14, 16259.40, 4118.78, 17012.49, -25360.51, 0.00, 0.00, 0.00, 0.00
17, 41954.29, 31345.68, 10950.86, 16246.57, 4117.50, 17014.55, -25364.96, 0.00, 0.00, 0.00, 0.00
18, 41925.57, 31330.39, 10940.28, 16219.39, 4067.64, 16761.08, -25328.13, 0.00, 0.00, 0.00, 0.00
19, 41898.30, 31306.19, 10931.17, 16217.04, 4035.76, 16692.62, -25343.21, 0.00, 0.00, 0.00, 0.00
20, 41933.19, 31326.04, 10952.20, 16247.66, 4107.56, 16950.87, -25334.25, 0.00, 0.00, 0.00, 0.00
21, 41958.56, 31347.22, 10945.63, 16241.18, 4123.54, 17018.62, -25345.25, 0.00, 0.14, 0.80, 0.57
22, 41934.73, 31332.76, 10934.00, 16210.78, 4065.96, 16791.50, -25348.20, 0.00, 0.00, 0.00, 0.00
23, 41905.90, 31310.93, 10933.78, 16203.05, 4031.58, 16663.07, -25364.00, 0.00, 0.00, 0.00, 0.00
24, 41932.95, 31328.27, 10948.73, 16244.73, 4088.94, 16909.72, -25357.52, 0.00, 0.00, 0.00, 0.00
25, 41972.53, 31359.43, 10951.35, 16253.36, 4129.46, 17059.88, -25324.44, 0.00, 0.00, 0.00, 0.00
26, 41951.00, 31350.55, 10937.74, 16224.55, 4076.27, 16851.52, -25310.11, 0.00, 0.00, 0.00, 0.00
27, 41918.10, 31324.92, 10935.52, 16216.73, 4039.70, 16685.51, -25302.58, 0.00, 0.00, 0.00, 0.00
28, 41927.94, 31328.27, 10946.05, 16244.04, 4076.42, 16870.49, -25332.97, 0.00, 0.00, 0.00, 0.00
29, 41961.78, 31350.58, 10948.06, 16245.18, 4118.11, 17052.84, -25354.83, 0.00, 0.00, 0.00, 0.00
30, 41948.81, 31347.16, 10932.84, 16211.74, 4075.82, 16884.31, -25355.91, 0.00, 0.00, 0.00, 0.00
31, 41911.82, 31320.22, 10928.73, 16197.15, 4051.21, 16684.91, -25339.55, 0.00, 0.14, 0.80, 0.58
32, 41921.39, 31321.59, 10944.62, 16227.01, 4070.27, 16810.68, -25348.69, 0.00, 0.00, 0.00, 0.00
33, 41964.48, 31352.86, 10951.24, 16249.14, 4120.05, 17050.38, -25387.18, 0.00, 0.00, 0.00, 0.00
34, 41958.71, 31352.10, 10935.57, 16218.98, 4085.74, 16933.95, -25431.28, 0.00, 0.00, 0.00, 0.00
35, 41921.25, 31326.73, 10924.30, 16202.58, 4029.42, 16693.22, -25390.29, 0.00, 0.00, 0.00, 0.00
36, 41910.19, 31315.49, 10934.70, 16225.56, 4047.23, 16744.76, -25351.62, 0.00, 0.00, 0.00, 0.00
37, 41951.59, 31342.64, 10947.97, 16257.94, 4109.01, 17030.11, -25384.25, 0.00, 0.00, 0.00, 0.00
38, 41969.67, 31362.76, 10945.83, 16242.16, 4097.81, 17015.67, -25323.45, 0.00, 0.00, 0.00, 0.00
39, 41928.12, 31334.33, 10937.56, 16209.44, 4049.89, 16761.04, -25305.53, 0.00, 0.00, 0.00, 0.00
40, 41908.09, 31316.42, 10939.86, 16227.97, 4036.46, 16750.62, -25332.93, 0.00, 0.00, 0.00, 0.00
41, 41944.54, 31336.65, 10957.27, 16255.04, 4113.64, 17040.86, -25314.27, 0.00, 0.14, 0.80, 0.57
42, 41967.86, 31358.18, 10954.10, 16248.42, 4119.31, 17069.96, -25293.68, 0.00, 0.00, 0.00, 0.00
43, 41929.17, 31331.42, 10937.65, 16209.10, 4059.84, 16792.15, -25287.40, 0.00, 0.00, 0.00, 0.00
44, 41903.06, 31307.93, 10936.13, 16205.84, 4036.14, 16695.39, -25312.32, 0.00, 0.00, 0.00, 0.00
45, 41942.18, 31334.46, 10957.72, 16254.17, 4103.33, 16989.83, -25316.21, 0.00, 0.00, 0.00, 0.00
46, 41971.50, 31357.98, 10954.34, 16250.52, 4124.03, 17092.94, -25350.61, 0.00, 0.00, 0.00, 0.00
47, 41939.11, 31338.98, 10936.51, 16216.06, 4061.51, 16847.45, -25311.99, 0.00, 0.00, 0.00, 0.00
48, 41904.40, 31309.74, 10930.87, 16208.93, 4026.02, 16717.85, -25295.67, 0.00, 0.00, 0.00, 0.00
49, 41930.64, 31325.30, 10951.39, 16248.62, 4094.41, 16947.12, -25325.46, 0.00, 0.00, 0.00, 0.00
50, 41962.14, 31350.71, 10945.87, 16259.78, 4113.79, 17096.56, -25372.83, 0.00, 0.13, 0.80, 0.58
51, 41947.14, 31345.50, 10937.45, 16232.91, 4078.39, 16894.23, -25354.03, 0.00, 0.00, 0.00, 0.00
52, 41909.09, 31313.59, 10934.21, 16216.55, 4038.58, 16712.38, -25351.17, 0.00, 0.00, 0.00, 0.00
53, 41912.18, 31304.31, 10943.26, 16237.09, 4075.15, 16879.23, -25343.90, 0.00, 0.00, 0.00, 0.00
54, 41948.10, 31327.40, 10946.79, 16242.77, 4122.09, 17080.67, -25363.75, 0.00, 0.00, 0.00, 0.00
55, 41947.74, 31337.99, 10939.97, 16225.38, 4093.45, 16933.84, -25334.12, 0.00, 0.00, 0.00, 0.00
56, 41915.96, 31320.56, 10938.12, 16220.77, 4043.74, 16734.68, -25281.52, 0.00, 0.00, 0.00, 0.00
57, 41917.59, 31315.31, 10950.72, 16248.91, 4081.47, 16853.68, -25298.08, 0.00, 0.00, 0.00, 0.00
58, 41957.26, 31337.77, 10958.39, 16256.13, 4123.07, 17083.64, -25373.45, 0.00, 0.00, 0.00, 0.00
59, 41953.35, 31338.69, 10940.69, 16227.68, 4087.71, 16974.21, -25420.17, 0.00, 0.00, 0.00, 0.00
60, 41917.10, 31314.30, 10935.99, 16209.06, 4041.15, 16738.91, -25333.29, 0.00, 0.13, 0.80, 0.58
61, 41912.07, 31307.84, 10950.05, 16231.19, 4064.69, 16793.58, -25287.31, 0.00, 0.00, 0.00, 0.00
62, 41947.29, 31330.17, 10954.99, 16254.46, 4118.24, 17052.21, -25346.36, 0.00, 0.00, 0.00, 0.00
63, 41956.23, 31341.26, 10943.66, 16230.50, 4103.69, 16999.89, -25362.70, 0.00, 0.00, 0.00, 0.00
64, 41923.63, 31324.81, 10941.85, 16214.92, 4064.08, 16770.20, -25298.71, 0.00, 0.00, 0.00, 0.00
65, 41902.52, 31298.90, 10944.51, 16218.87, 4058.65, 16758.40, -25305.91, 0.00, 0.00, 0.00, 0.00
66, 41933.70, 31314.90, 10951.21, 16247.64, 4106.82, 17027.83, -25343.84, 0.00, 0.00, 0.00, 0.00
67, 41960.30, 31343.80, 10950.92, 16250.70, 4113.86, 17071.99, -25359.37, 0.00, 0.00, 0.00, 0.00
68, 41927.71, 31324.47, 10940.78, 16222.31, 4063.30, 16840.16, -25325.11, 0.00, 0.00, 0.00, 0.00
69, 41899.30, 31300.96, 10941.13, 16219.23, 4046.00, 16757.35, -25332.62, 0.00, 0.00, 0.00, 0.00
70, 41922.73, 31309.23, 10950.28, 16248.98, 4089.61, 17000.36, -25388.61, 0.00, 0.13, 0.80, 0.58
71, 41955.96, 31339.07, 10953.74, 16250.61, 4125.91, 17098.01, -25341.36, 0.00, 0.00, 0.00, 0.00
72, 41927.63, 31323.71, 10935.84, 16213.91, 4078.59, 16863.14, -25349.83, 0.00, 0.00, 0.00, 0.00
73, 41889.94, 31288.93, 10928.77, 16202.47, 4032.05, 16713.85, -25327.34, 0.00, 0.00, 0.00, 0.00
74, 41917.32, 31305.63, 10948.71, 16245.85, 4091.69, 16947.58, -25283.06, 0.00, 0.00, 0.00, 0.00
75, 41955.86, 31336.76, 10955.10, 16259.13, 4138.72, 17120.29, -25345.85, 0.00, 0.00, 0.00, 0.00
76, 41932.90, 31322.35, 10938.85, 16211.76, 4077.90, 16904.65, -25381.97, 0.00, 0.00, 0.00, 0.00
77, 41890.66, 31285.87, 10930.94, 16191.49, 4036.01, 16723.55, -25313.95, 0.00, 0.00, 0.00, 0.00
78, 41906.26, 31292.38, 10951.30, 16229.78, 4082.21, 16896.58, -25275.46, 0.00, 0.00, 0.00, 0.00
79, 41953.15, 31326.73, 10958.01, 16246.28, 4127.23, 17117.55, -25333.49, 0.00, 0.00, 0.00, 0.00
80, 41938.64, 31319.91, 10939.03, 16206.44, 4083.95, 16966.90, -25344.66, 0.00, 0.14, 0.79, 0.57
81, 41900.24, 31299.06, 10933.15, 16198.40, 4037.28, 16740.18, -25325.51, 0.00, 0.00, 0.00, 0.00
82, 41897.65, 31290.41, 10941.92, 16226.02, 4058.56, 16839.27, -25339.21, 0.00, 0.00, 0.00, 0.00
83, 41933.73, 31311.75, 10947.24, 16239.41, 4113.50, 17084.13, -25359.10, 0.00, 0.00, 0.00, 0.00
84, 41938.44, 31324.36, 10938.90, 16220.50, 4090.17, 17014.91, -25338.65, 0.00, 0.00, 0.00, 0.00
85, 41904.00, 31305.61, 10934.34, 16199.99, 4049.78, 16772.90, -25315.65, 0.00, 0.00, 0.00, 0.00
86, 41890.05, 31289.00, 10944.49, 16220.26, 4068.11, 16803.55, -25313.91, 0.00, 0.00, 0.00, 0.00
87, 41933.39, 31316.31, 10957.47, 16257.45, 4119.99, 17088.78, -25347.64, 0.00, 0.00, 0.00, 0.00
88, 41947.14, 31334.28, 10945.78, 16232.48, 4116.74, 17053.55, -25375.78, 0.00, 0.00, 0.00, 0.00
89, 41907.95, 31309.58, 10935.05, 16203.18, 4056.15, 16783.19, -25325.15, 0.00, 0.00, 0.00, 0.00
90, 41886.83, 31286.38, 10942.39, 16210.74, 4047.19, 16758.40, -25303.87, 0.00, 0.14, 0.79, 0.57
91, 41922.33, 31305.27, 10958.52, 16243.19, 4104.99, 17018.91, -25360.22, 0.00, 0.00, 0.00, 0.00
92, 41955.61, 31337.84, 10961.94, 16240.82, 4124.63, 17068.66, -25344.87, 0.00, 0.00, 0.00, 0.00
93, 41939.92, 31337.84, 10959.75, 16227.66, 4089.48, 16845.91, -25272.65, 0.00, 0.00, 0.00, 0.00
94, 41917.41, 31322.57, 10962.55, 16237.38, 4058.99, 16761.97, -25268.36, 0.00, 0.00, 0.00, 0.00
95, 41949.71, 31346.04, 10978.86, 16285.15, 4106.26, 17018.55, -25324.12, 0.00, 0.00, 0.00, 0.00
96, 41980.75, 31371.57, 10974.44, 16283.67, 4122.73, 17116.74, -25397.44, 0.00, 0.00, 0.00, 0.00
97, 41949.04, 31349.93, 10955.82, 16238.97, 4067.26, 16875.54, -25373.07, 0.00, 0.00, 0.00, 0.00
98, 41909.88, 31317.88, 10951.75, 16225.20, 4025.46, 16733.63, -25302.13, 0.00, 0.00, 0.00, 0.00
99, 41927.56, 31320.47, 10965.65, 16256.67, 4078.72, 16961.80, -25322.94, 0.00, 0.14, 0.80, 0.57
100, 41959.34, 31341.26, 10966.75, 16259.15, 4110.11, 17129.84, -25362.39, 0.00, 0.00, 0.00, 0.00
101, 41939.27, 31330.57, 10949.36, 16222.99, 4059.90, 16933.39, -25376.38, 0.00, 0.00, 0.00, 0.00
102, 41898.32, 31298.61, 10945.40, 16203.74, 4028.01, 16734.73, -25345.11, 0.00, 0.00, 0.00, 0.00
103, 41896.80, 31287.72, 10953.11, 16220.35, 4058.38, 16870.52, -25348.31, 0.00, 0.00, 0.00, 0.00
104, 41936.25, 31315.93, 10956.40, 16236.22, 4111.31, 17089.12, -25368.63, 0.00, 0.00, 0.00, 0.00
105, 41940.48, 31327.89, 10955.22, 16221.38, 4096.49, 16976.95, -25345.54, 0.00, 0.00, 0.00, 0.00
106, 41904.91, 31305.52, 10952.31, 16209.06, 4048.30, 16748.27, -25317.24, 0.00, 0.00, 0.00, 0.00
107, 41899.73, 31294.88, 10957.45, 16226.67, 4060.84, 16825.25, -25323.05, 0.00, 0.00, 0.00, 0.00
108, 41938.35, 31315.35, 10961.16, 16237.85, 4115.49, 17092.67, -25332.91, 0.00, 0.00, 0.00, 0.00
109, 41950.11, 31332.07, 10954.68, 16226.54, 4106.62, 17032.77, -25360.47, 0.00, 0.14, 0.80, 0.58
110, 41912.09, 31308.94, 10940.31, 16210.00, 4044.46, 16788.62, -25349.87, 0.00, 0.00, 0.00, 0.00
111, 41895.84, 31290.41, 10949.18, 16221.69, 4044.70, 16804.91, -25317.37, 0.00, 0.00, 0.00, 0.00
112, 41928.81, 31307.48, 10961.32, 16243.03, 4109.23, 17068.69, -25357.29, 0.00, 0.00, 0.00, 0.00
113, 41947.72, 31327.56, 10956.22, 16233.04, 4114.98, 17058.94, -25353.14, 0.00, 0.00, 0.00, 0.00
114, 41915.04, 31307.60, 10947.39, 16205.73, 4061.22, 16813.00, -25315.23, 0.00, 0.00, 0.00, 0.00
115, 41883.55, 31278.05, 10938.97, 16206.65, 4028.54, 16770.16, -25345.00, 0.00, 0.00, 0.00, 0.00
116, 41916.00, 31297.18, 10951.86, 16241.63, 4097.86, 17027.63, -25379.78, 0.00, 0.00, 0.00, 0.00
117, 41952.64, 31330.57, 10953.25, 16243.44, 4109.23, 17086.77, -25343.08, 0.00, 0.00, 0.00, 0.00
118, 41917.81, 31307.33, 10934.38, 16210.07, 4047.14, 16855.58, -25330.67, 0.00, 0.00, 0.00, 0.00
119, 41884.20, 31281.67, 10937.02, 16211.23, 4026.98, 16760.25, -25317.87, 0.00, 0.14, 0.80, 0.57
120, 41914.55, 31301.81, 10954.79, 16249.76, 4091.24, 16995.24, -25327.90, 0.00, 0.00, 0.00, 0.00
121, 41952.37, 31334.04, 10955.60, 16249.63, 4119.29, 17109.72, -25340.22, 0.00, 0.00, 0.00, 0.00
122, 41932.25, 31323.98, 10939.93, 16218.69, 4070.50, 16907.51, -25337.18, 0.00, 0.00, 0.00, 0.00
123, 41891.62, 31290.56, 10929.51, 16208.66, 4031.85, 16748.01, -25347.37, 0.00, 0.00, 0.00, 0.00
124, 41909.52, 31299.84, 10947.37, 16250.86, 4078.12, 16954.67, -25334.49, 0.00, 0.00, 0.00, 0.00
125, 41948.66, 31330.37, 10952.44, 16260.09, 4111.71, 17140.37, -25362.90, 0.00, 0.00, 0.00, 0.00
126, 41946.29, 31339.16, 10946.95, 16238.88, 4076.80, 16970.14, -25334.20, 0.00, 0.00, 0.00, 0.00
127, 41906.75, 31307.62, 10938.32, 16221.22, 4022.55, 16771.79, -25338.67, 0.00, 0.00, 0.00, 0.00
128, 41910.66, 31301.00, 10945.56, 16245.27, 4059.79, 16896.00, -25368.65, 0.00, 0.00, 0.00, 0.00
129, 41956.26, 31334.19, 10962.41, 16261.38, 4120.41, 17118.13, -25386.04, 0.00, 0.14, 0.79, 0.57
130, 41956.21, 31340.10, 10956.00, 16233.38, 4099.78, 17003.26, -25315.81, 0.00, 0.00, 0.00, 0.00
131, 41921.88, 31319.42, 10949.31, 16219.63, 4056.26, 16778.76, -25256.38, 0.00, 0.00, 0.00, 0.00
132, 41910.28, 31302.01, 10951.17, 16234.34, 4058.63, 16837.14, -25298.64, 0.00, 0.00, 0.00, 0.00
133, 41952.57, 31327.89, 10950.92, 16250.77, 4096.34, 17072.53, -25397.95, 0.00, 0.00, 0.00, 0.00
134, 41974.47, 31356.05, 10941.78, 16235.59, 4087.40, 17026.08, -25346.74, 0.00, 0.00, 0.00, 0.00
135, 41933.21, 31323.55, 10936.33, 16206.13, 4043.61, 16789.60, -25311.63, 0.00, 0.00, 0.00, 0.00
136, 41900.54, 31286.94, 10940.53, 16209.48, 4033.55, 16782.90, -25350.68, 0.00, 0.00, 0.00, 0.00
137, 41950.40, 31317.77, 10958.19, 16242.74, 4088.72, 17050.67, -25361.94, 0.00, 0.00, 0.00, 0.00
138, 41978.43, 31337.50, 10952.49, 16223.50, 4094.37, 17047.41, -25361.72, 0.00, 0.00, 0.00, 0.00
139, 41947.09, 31316.36, 10945.36, 16196.74, 4050.07, 16802.90, -25341.58, 0.00, 0.14, 0.80, 0.58
140, 41920.23, 31285.49, 10942.81, 16195.87, 4019.83, 16739.85, -25353.27, 0.00, 0.00, 0.00, 0.00
141, 41954.29, 31301.61, 10955.55, 16227.50, 4075.86, 16995.39, -25371.33, 0.00, 0.00, 0.00, 0.00
142, 41983.30, 31331.78, 10952.53, 16225.42, 4113.15, 17072.46, -25365.29, 0.00, 0.00, 0.00, 0.00
143, 41958.85, 31323.35, 10944.20, 16200.95, 4059.46, 16832.70, -25358.08, 0.00, 0.00, 0.00, 0.00
144, 41931.45, 31302.99, 10945.11, 16201.08, 4034.24, 16718.08, -25345.80, 0.00, 0.00, 0.00, 0.00
145, 41955.47, 31312.31, 10957.05, 16233.18, 4079.93, 16962.83, -25339.59, 0.00, 0.00, 0.00, 0.00
146, 41995.62, 31343.45, 10958.39, 16240.20, 4120.37, 17106.21, -25347.01, 0.00, 0.00, 0.00, 0.00
147, 41979.41, 31340.68, 10947.66, 16215.59, 4082.19, 16899.33, -25328.53, 0.00, 0.00, 0.00, 0.00
148, 41940.43, 31313.43, 10943.93, 16204.50, 4037.28, 16713.74, -25341.42, 0.00, 0.14, 0.80, 0.59
149, 41954.36, 31315.71, 10959.57, 16234.03, 4078.50, 16897.98, -25345.16, 0.00, 0.00, 0.00, 0.00
150, 41995.75, 31341.59, 10964.22, 16238.85, 4116.25, 17099.29, -25385.08, 0.00, 0.00, 0.00, 0.00
151, 41987.64, 31342.67, 10953.56, 16207.99, 4081.56, 16949.51, -25364.27, 0.00, 0.00, 0.00, 0.00
152, 41949.75, 31317.95, 10952.02, 16197.82, 4047.25, 16759.54, -25329.35, 0.00, 0.00, 0.00, 0.00
153, 41956.50, 31320.07, 10968.74, 16232.62, 4073.92, 16887.84, -25321.51, 0.00, 0.00, 0.00, 0.00
154, 41998.05, 31350.67, 10980.63, 16258.35, 4130.47, 17128.68, -25331.21, 0.00, 0.00, 0.00, 0.00
155, 41993.52, 31350.78, 10966.21, 16237.49, 4106.26, 17043.16, -25309.59, 0.00, 0.00, 0.00, 0.00
156, 41951.72, 31319.58, 10957.83, 16212.17, 4048.33, 16812.78, -25292.05, 0.00, 0.00, 0.00, 0.00
157, 41939.20, 31304.64, 10964.54, 16222.63, 4053.96, 16857.37, -25318.24, 0.00, 0.00, 0.00, 0.00
158, 41980.82, 31334.98, 10973.88, 16250.68, 4120.97, 17118.26, -25349.43, 0.00, 0.14, 0.79, 0.58
159, 41995.21, 31353.24, 10971.44, 16232.91, 4118.67, 17065.73, -25371.17, 0.00, 0.00, 0.00, 0.00
160, 41954.67, 31325.92, 10959.46, 16205.93, 4053.24, 16814.50, -25337.82, 0.00, 0.00, 0.00, 0.00
161, 41935.58, 31307.62, 10966.75, 16216.12, 4054.41, 16803.33, -25302.87, 0.00, 0.00, 0.00, 0.00
162, 41967.81, 31326.91, 10973.61, 16241.80, 4106.08, 17076.78, -25343.99, 0.00, 0.00, 0.00, 0.00
163, 41993.07, 31351.52, 10970.37, 16230.92, 4110.08, 17097.29, -25383.91, 0.00, 0.00, 0.00, 0.00
164, 41966.98, 31337.21, 10959.93, 16204.25, 4054.07, 16845.64, -25352.22, 0.00, 0.00, 0.00, 0.00
165, 41938.44, 31314.77, 10962.10, 16214.40, 4029.21, 16774.04, -25325.33, 0.00, 0.00, 0.00, 0.00
166, 41965.62, 31331.20, 10974.62, 16247.42, 4087.89, 17044.70, -25343.68, 0.00, 0.00, 0.00, 0.00
167, 41996.58, 31355.67, 10974.80, 16239.17, 4117.93, 17123.45, -25369.92, 0.00, 0.00, 0.00, 0.00
168, 41969.13, 31341.19, 10963.89, 16210.36, 4074.45, 16886.77, -25317.42, 0.00, 0.14, 0.79, 0.58
169, 41933.68, 31311.44, 10961.65, 16205.55, 4040.08, 16765.33, -25292.38, 0.00, 0.00, 0.00, 0.00
170, 41950.42, 31316.36, 10972.36, 16233.71, 4081.41, 16988.53, -25324.91, 0.00, 0.00, 0.00, 0.00
171, 41987.59, 31344.16, 10972.20, 16235.64, 4109.41, 17120.74, -25393.91, 0.00, 0.00, 0.00, 0.00
172, 41970.79, 31336.88, 10958.70, 16202.80, 4069.76, 16910.64, -25373.95, 0.00, 0.00, 0.00, 0.00
173, 41935.52, 31309.96, 10959.86, 16187.33, 4041.49, 16730.84, -25316.79, 0.00, 0.00, 0.00, 0.00
174, 41949.44, 31315.66, 10977.25, 16220.35, 4079.30, 16925.90, -25310.87, 0.00, 0.00, 0.00, 0.00
175, 41988.06, 31345.55, 10982.40, 16238.65, 4129.44, 17142.02, -25331.10, 0.00, 0.00, 0.00, 0.00
176, 41977.45, 31349.28, 10970.50, 16219.68, 4097.25, 16997.85, -25353.29, 0.00, 0.00, 0.00, 0.00
177, 41935.87, 31321.39, 10962.30, 16217.08, 4047.97, 16784.55, -25328.93, 0.00, 0.00, 0.00, 0.00
178, 41937.97, 31317.68, 10971.84, 16241.74, 4071.21, 16888.84, -25327.86, 0.00, 0.14, 0.79, 0.58
179, 41982.32, 31346.02, 10979.31, 16250.12, 4127.67, 17137.37, -25339.70, 0.00, 0.00, 0.00, 0.00
180, 41983.10, 31350.24, 10965.92, 16219.07, 4104.99, 17037.59, -25364.89, 0.00, 0.00, 0.00, 0.00
181, 41938.20, 31321.52, 10949.40, 16192.59, 4039.74, 16789.65, -25353.27, 0.00, 0.00, 0.00, 0.00
182, 41926.11, 31309.54, 10962.73, 16214.11, 4054.65, 16823.78, -25323.12, 0.00, 0.00, 0.00, 0.00
183, 41970.61, 31336.27, 10979.18, 16239.35, 4115.60, 17091.95, -25365.81, 0.00, 0.00, 0.00, 0.00
184, 41984.49, 31348.97, 10968.45, 16213.31, 4105.64, 17051.41, -25416.12, 0.00, 0.00, 0.00, 0.00
185, 41947.43, 31325.99, 10959.40, 16191.67, 4051.39, 16804.89, -25355.28, 0.00, 0.00, 0.00, 0.00
186, 41930.82, 31312.36, 10970.75, 16211.16, 4049.38, 16793.60, -25292.14, 0.00, 0.00, 0.00, 0.00
187, 41967.23, 31336.65, 10983.11, 16251.62, 4104.56, 17091.02, -25330.34, 0.00, 0.14, 0.79, 0.58
188, 41987.77, 31357.84, 10977.05, 16251.95, 4109.30, 17120.65, -25351.71, 0.00, 0.00, 0.00, 0.00
189, 41957.82, 31341.35, 10970.42, 16221.51, 4070.10, 16867.05, -25308.57, 0.00, 0.00, 0.00, 0.00
190, 41930.38, 31317.92, 10968.67, 16214.25, 4051.83, 16781.49, -25281.92, 0.00, 0.00, 0.00, 0.00
191, 41961.98, 31336.83, 10987.63, 16251.98, 4115.60, 17028.79, -25309.57, 0.00, 0.00, 0.00, 0.00
192, 41989.05, 31356.68, 10984.14, 16242.19, 4135.92, 17128.01, -25350.28, 0.00, 0.00, 0.00, 0.00
193, 41965.02, 31342.20, 10969.43, 16204.30, 4077.70, 16895.53, -25345.40, 0.00, 0.00, 0.00, 0.00
194, 41928.63, 31314.77, 10970.55, 16195.63, 4044.44, 16748.45, -25302.89, 0.00, 0.00, 0.00, 0.00
195, 41946.20, 31324.87, 10984.45, 16234.09, 4099.51, 16968.57, -25309.13, 0.00, 0.00, 0.00, 0.00
196, 41984.84, 31354.56, 10976.47, 16250.48, 4130.78, 17155.05, -25352.11, 0.00, 0.00, 0.00, 0.00
197, 41972.08, 31350.94, 10964.29, 16218.63, 4081.05, 16961.04, -25353.83, 0.00, 0.13, 0.79, 0.58
198, 41932.36, 31321.34, 10961.83, 16204.99, 4044.24, 16773.11, -25328.93, 0.00, 0.00, 0.00, 0.00
199, 41934.44, 31314.57, 10974.73, 16228.95, 4078.95, 16923.60, -25292.27, 0.00, 0.00, 0.00, 0.00
200, 41979.55, 31342.42, 10987.04, 16245.05, 4132.57, 17139.16, -25328.44, 0.00, 0.00, 0.00, 0.00
201, 41977.96, 31348.97, 10977.86, 16226.23, 4107.00, 17004.18, -25325.20, 0.00, 0.00, 0.00, 0.00
202, 41931.74, 31316.98, 10965.79, 16212.57, 4046.96, 16790.12, -25315.34, 0.00, 0.00, 0.00, 0.00
203, 41932.95, 31312.38, 10980.12, 16239.91, 4064.73, 16876.21, -25329.04, 0.00, 0.00, 0.00, 0.00
204, 41969.20, 31333.93, 10990.69, 16248.04, 4116.39, 17104.43, -25391.58, 0.00, 0.00, 0.00, 0.00
205, 41979.75, 31349.53, 10986.44, 16248.49, 4104.38, 17060.64, -25362.68, 0.00, 0.00, 0.00, 0.00
206, 41942.11, 31323.42, 10975.04, 16244.02, 4058.43, 16835.94, -25289.34, 0.00, 0.00, 0.00, 0.00
207, 41926.53, 31302.97, 10981.08, 16245.31, 4056.73, 16843.42, -25306.51, 0.00, 0.14, 0.79, 0.57
208, 41971.19, 31332.14, 10995.76, 16272.23, 4117.46, 17115.94, -25345.42, 0.00, 0.00, 0.00, 0.00
209, 41984.82, 31348.52, 10986.64, 16241.63, 4117.50, 17103.87, -25353.16, 0.00, 0.00, 0.00, 0.00
210, 41947.90, 31325.70, 10970.86, 16211.67, 4056.89, 16833.86, -25343.70, 0.00, 0.00, 0.00, 0.00
211, 41922.44, 31298.99, 10974.46, 16219.63, 4037.24, 16784.01, -25344.55, 0.00, 0.00, 0.00, 0.00
212, 41962.49, 31323.94, 10998.73, 16258.37, 4107.27, 17062.65, -25349.69, 0.00, 0.00, 0.00, 0.00
213, 41985.92, 31344.59, 10990.33, 16251.01, 4112.16, 17117.55, -25387.92, 0.00, 0.00, 0.00, 0.00
214, 41950.98, 31324.38, 10975.71, 16218.83, 4058.36, 16878.27, -25372.16, 0.00, 0.00, 0.00, 0.00
215, 41915.02, 31297.31, 10973.90, 16218.47, 4034.29, 16781.96, -25336.82, 0.00, 0.00, 0.00, 0.00
216, 41945.71, 31314.55, 10992.27, 16255.15, 4093.74, 17022.24, -25314.49, 0.00, 0.00, 0.00, 0.00
217, 41980.51, 31340.79, 10991.63, 16248.22, 4118.55, 17137.95, -25357.67, 0.00, 0.14, 0.80, 0.57
218, 41959.57, 31332.38, 10986.17, 16219.23, 4069.27, 16921.23, -25351.21, 0.00, 0.00, 0.00, 0.00
219, 41925.07, 31305.92, 10990.53, 16220.35, 4048.41, 16776.86, -25301.86, 0.00, 0.00, 0.00, 0.00
220, 41937.39, 31306.61, 10995.58, 16250.39, 4081.18, 16974.29, -25337.76, 0.00, 0.00, 0.00, 0.00
221, 41982.81, 31342.35, 10994.20, 16262.53, 4124.61, 17153.91, -25345.36, 0.00, 0.00, 0.00, 0.00
222, 41974.03, 31344.72, 10987.76, 16240.46, 4109.88, 16988.78, -25310.40, 0.00, 0.00, 0.00, 0.00
223, 41932.00, 31314.03, 10989.50, 16229.09, 4049.31, 16794.59, -25314.00, 0.00, 0.00, 0.00, 0.00
224, 41929.01, 31305.81, 10997.35, 16255.01, 4068.62, 16912.02, -25353.38, 0.00, 0.00, 0.00, 0.00
225, 41969.11, 31329.81, 11010.00, 16267.00, 4114.53, 17130.85, -25372.72, 0.00, 0.00, 0.00, 0.00
226, 41959.14, 31326.66, 10990.22, 16225.38, 4070.72, 17012.31, -25370.73, 0.00, 0.00, 0.00, 0.00
227, 41929.10, 31307.04, 11003.07, 16213.33, 4019.36, 16793.29, -25347.48, 0.00, 0.14, 0.79, 0.58
228, 41917.21, 31287.61, 11020.10, 16221.93, 4037.04, 16846.69, -25368.00, 0.00, 0.00, 0.00, 0.00
229, 41963.81, 31318.88, 11047.42, 16250.54, 4101.34, 17111.67, -25354.74, 0.00, 0.00, 0.00, 0.00
230, 41988.36, 31347.74, 11017.67, 16245.18, 4112.14, 17059.41, -25304.39, 0.00, 0.00, 0.00, 0.00
231, 41954.78, 31326.71, 10988.52, 16221.02, 4058.72, 16809.74, -25309.06, 0.00, 0.00, 0.00, 0.00
232, 41937.75, 31306.72, 11009.28, 16238.90, 4040.48, 16833.50, -25348.22, 0.00, 0.00, 0.00, 0.00
233, 41994.07, 31347.27, 11034.00, 16285.57, 4112.79, 17134.49, -25351.93, 0.00, 0.00, 0.00, 0.00
234, 41998.86, 31351.65, 11032.22, 16273.21, 4098.39, 17122.96, -25345.63, 0.00, 0.00, 0.00, 0.00
235, 41953.51, 31320.69, 11019.63, 16230.00, 4027.31, 16838.64, -25325.29, 0.00, 0.00, 0.00, 0.00
236, 41932.50, 31301.38, 11061.41, 16221.53, 4027.78, 16767.65, -25312.57, 0.00, 0.15, 0.80, 0.58
237, 41977.96, 31331.42, 11035.37, 16264.83, 4103.33, 17056.71, -25306.40, 0.00, 0.00, 0.00, 0.00
238, 42004.98, 31354.60, 11011.27, 16263.60, 4120.34, 17143.07, -25325.80, 0.00, 0.00, 0.00, 0.00
239, 41969.96, 31334.19, 10990.60, 16227.83, 4047.99, 16894.79, -25336.71, 0.00, 0.00, 0.00, 0.00
240, 41937.77, 31306.95, 10956.13, 16221.31, 4017.59, 16771.72, -25326.58, 0.00, 0.00, 0.00, 0.00
241, 41963.79, 31322.57, 10940.35, 16270.08, 4082.10, 17021.50, -25331.70, 0.00, 0.00, 0.00, 0.00
242, 41996.89, 31345.04, 10918.29, 16294.67, 4103.33, 17158.34, -25318.24, 0.00, 0.00, 0.00, 0.00
243, 41968.95, 31325.05, 10869.54, 16270.37, 4039.05, 16920.65, -25335.95, 0.00, 0.00, 0.00, 0.00
244, 41920.88, 31284.95, 10838.70, 16265.30, 3996.78, 16750.93, -25325.91, 0.00, 0.00, 0.00, 0.00
245, 41942.04, 31307.06, 10798.55, 16290.98, 4049.76, 16951.23, -25337.06, 0.00, 0.00, 0.00, 0.00
246, 41987.91, 31340.52, 10786.64, 16299.63, 4113.23, 17141.37, -25370.44, 0.00, 0.12, 0.78, 0.59
247, 41968.89, 31324.54, 10776.07, 16263.15, 4073.76, 16963.14, -25378.10, 0.00, 0.00, 0.00, 0.00
248, 41941.41, 31304.67, 10792.41, 16281.46, 4019.22, 16769.48, -25290.15, 0.00, 0.00, 0.00, 0.00
249, 41929.23, 31255.20, 10791.69, 16357.18, 4055.08, 16897.27, -25294.08, 0.00, 0.00, 0.00, 0.00
250, 41954.74, 31283.25, 10842.23, 16433.05, 4087.73, 17130.24, -25347.82, 0.00, 0.00, 0.00, 0.00
251, 41963.61, 31326.88, 10824.50, 16353.79, 4039.43, 17008.58, -25342.23, 0.00, 0.00, 0.00, 0.00
252, 41932.07, 31294.41, 10768.38, 16370.04, 4033.33, 16806.48, -25304.43, 0.00, 0.00, 0.00, 0.00
253, 41898.07, 31229.88, 10761.31, 16361.19, 4019.18, 16851.52, -25340.60, 0.00, 0.00, 0.00, 0.00
254, 41972.15, 31299.21, 10738.43, 16443.15, 4103.38, 17123.16, -25341.65, 0.00, 0.00, 0.00, 0.00
255, 42026.40, 31413.10, 10648.26, 16387.81, 4141.67, 17126.29, -25269.56, 0.00, 0.00, 0.00, 0.00
0, 42000.25, 31416.65, 10613.30, 16236.82, 4084.83, 16876.93, -25263.75, 0.00, 0.14, 0.78, 0.60
1, 41966.76, 31367.72, 10562.76, 16178.37, 4060.95, 16836.27, -25284.92, 0.00, 0.00, 0.00, 0.00
2, 41996.67, 31374.52, 10507.04, 16160.22, 4115.05, 17085.25, -25334.05, 0.00, 0.00, 0.00, 0.00
3, 41999.24, 31359.41, 10440.16, 16106.96, 4116.65, 17078.07, -25351.15, 0.00, 0.00, 0.00, 0.00
4, 41805.43, 31080.79, 10410.08, 16073.56, 4001.79, 16781.67, -25347.73, 0.00, 0.00, 0.00, 0.00
5, 41659.45, 30923.39, 10459.14, 16009.12, 3882.86, 16625.03, -25414.54, 0.00, 0.00, 0.00, 0.00
6, 41981.69, 31350.18, 10526.08, 16077.41, 4044.79, 16940.34, -25393.10, 0.00, 0.00, 0.00, 0.00
7, 42127.79, 31541.84, 10415.71, 16067.01, 4207.16, 17164.42, -25313.19, 0.00, 0.00, 0.00, 0.00
8, 42076.11, 31508.89, 10386.48, 16028.03, 4113.68, 16961.22, -25324.17, 0.00, 0.00, 0.00, 0.00
9, 42030.80, 31456.37, 10397.23, 16050.74, 4070.50, 16839.67, -25272.71, 0.00, 0.00, 0.00, 0.00
10, 42044.93, 31452.57, 10397.54, 16082.62, 4131.92, 17070.09, -25264.20, 0.00, 0.10, 0.82, 0.60
11, 42061.20, 31457.82, 10354.15, 16079.42, 4143.14, 17206.84, -25354.19, 0.00, 0.00, 0.00, 0.00
12, 41929.14, 31292.96, 10276.42, 16071.46, 4061.58, 16991.93, -25368.67, 0.00, 0.00, 0.00, 0.00
13, 41708.20, 30984.08, 10191.21, 16121.71, 3952.66, 16747.80, -25354.70, 0.00, 0.00, 0.00, 0.00
14, 41847.89, 31171.32, 10265.55, 16191.87, 4003.42, 16872.28, -25397.86, 0.00, 0.00, 0.00, 0.00
15, 41740.00, 31077.78, 10248.97, 16098.96, 3931.18, 16960.66, -25542.10, 0.00, 0.00, 0.00, 0.00
16, 41752.36, 31119.91, 10214.37, 16101.01, 3969.45, 16854.51, -25434.45, 0.00, 0.00, 0.00, 0.00
17, 41763.12, 31197.89, 10162.04, 16106.89, 3957.40, 16620.62, -25409.73, 0.00, 0.00, 0.00, 0.00
18, 42122.75, 31560.10, 10281.44, 16248.33, 4090.53, 16868.17, -25316.57, 0.00, 0.00, 0.00, 0.00
19, 42105.01, 31536.68, 10064.92, 16327.08, 4097.03, 17135.05, -25342.59, 0.00, 0.14, 0.80, 0.59
20, 42080.96, 31494.37, 9904.91, 16285.10, 4089.07, 17008.29, -25293.77, 0.00, 0.00, 0.00, 0.00
21, 42057.62, 31386.05, 9456.08, 16145.80, 4080.31, 16805.70, -25221.64, 0.00, 0.00, 0.00, 0.00
22, 42015.49, 31380.64, 9178.81, 16256.16, 4066.90, 16811.39, -25280.09, 0.00, 0.00, 0.00, 0.00
23, 42037.66, 31452.32, 9062.07, 16409.22, 4102.15, 17023.98, -25373.61, 0.00, 0.00, 0.00, 0.00
24, 42034.64, 31480.17, 8992.69, 16376.38, 4054.81, 16992.64, -25367.60, 0.00, 0.00, 0.00, 0.00
25, 41966.02, 31398.19, 8938.28, 16062.28, 3978.14, 16760.16, -25359.33, 0.00, 0.00, 0.00, 0.00
26, 42217.75, 31630.98, 8780.39, 16221.69, 4109.68, 16861.84, -25230.96, 0.00, 0.00, 0.00, 0.00
27, 42229.11, 31679.66, 8526.43, 16211.59, 4236.82, 17216.30, -25201.28, 0.00, 0.00, 0.00, 0.00
28, 41964.06, 31369.04, 8397.86, 16179.38, 4071.06, 17052.99, -25384.09, 0.00, 0.00, 0.00, 0.00
29, 42005.72, 31339.56, 8498.89, 16266.35, 4027.18, 16724.98, -25365.18, 0.00, 0.14, 0.80, 0.59
30, 42135.18, 31473.29, 8290.24, 16253.29, 4086.90, 16802.81, -25255.21, 0.00, 0.00, 0.00, 0.00
31, 42046.22, 31417.92, 8110.40, 16146.45, 4085.99, 17059.37, -25343.32, 0.00, 0.00, 0.00, 0.00
32, 42133.57, 31551.34, 8049.24, 15913.06, 4137.38, 17164.48, -25358.10, 0.00, 0.00, 0.00, 0.00
33, 42182.34, 31634.11, 7769.60, 15677.02, 4127.90, 16972.37, -25264.00, 0.00, 0.00, 0.00, 0.00
34, 42205.12, 31618.29, 7673.55, 15736.75, 4159.97, 16886.81, -25156.71, 0.00, 0.00, 0.00, 0.00
35, 42163.23, 31575.19, 7655.34, 15691.71, 4224.95, 17062.16, -25188.98, 0.00, 0.00, 0.00, 0.00
36, 42247.52, 31614.48, 7561.17, 15697.70, 4251.59, 17194.95, -25229.84, 0.00, 0.00, 0.00, 0.00
37, 42252.75, 31670.03, 7415.82, 15637.77, 4208.45, 17050.54, -25178.08, 0.00, 0.00, 0.00, 0.00
38, 42167.88, 31609.19, 7372.43, 15528.78, 4129.78, 16890.79, -25183.96, 0.00, 0.00, 0.00, 0.00
39, 42132.81, 31565.18, 7368.83, 15502.90, 4159.37, 17039.58, -25180.31, 0.00, 0.13, 0.81, 0.59
40, 42099.51, 31493.29, 7388.26, 15497.78, 4187.17, 17211.16, -25268.13, 0.00, 0.00, 0.00, 0.00
41, 42148.21, 31549.06, 7371.07, 15403.86, 4143.72, 17075.64, -25271.93, 0.00, 0.00, 0.00, 0.00
42, 42159.39, 31567.39, 7324.96, 15392.48, 4114.08, 16896.71, -25193.81, 0.00, 0.00, 0.00, 0.00
43, 42082.16, 31449.78, 7327.10, 15427.60, 4103.74, 16968.62, -25218.40, 0.00, 0.00, 0.00, 0.00
44, 42084.94, 31472.33, 7289.37, 15527.53, 4147.61, 17203.98, -25274.21, 0.00, 0.00, 0.00, 0.00
45, 42156.35, 31558.03, 7263.85, 15427.08, 4145.94, 17125.77, -25266.46, 0.00, 0.00, 0.00, 0.00
46, 42159.16, 31582.61, 7283.49, 15328.78, 4101.19, 16901.12, -25248.46, 0.00, 0.00, 0.00, 0.00
47, 42108.18, 31549.02, 7311.61, 15361.50, 4083.75, 16913.63, -25263.62, 0.00, 0.00, 0.00, 0.00
48, 42155.93, 31558.49, 7282.20, 15407.75, 4150.14, 17201.43, -25266.84, 0.00, 0.00, 0.00, 0.00
49, 42178.16, 31581.27, 7197.46, 15398.25, 4171.55, 17188.63, -25275.24, 0.00, 0.13, 0.80, 0.59
50, 42124.05, 31530.67, 7222.54, 15397.58, 4103.42, 16908.22, -25237.96, 0.00, 0.00, 0.00, 0.00
51, 42078.30, 31497.90, 7202.31, 15393.06, 4096.05, 16866.13, -25230.47, 0.00, 0.00, 0.00, 0.00
52, 42088.80, 31489.79, 7138.50, 15392.71, 4148.98, 17143.38, -25296.94, 0.00, 0.00, 0.00, 0.00
53, 42135.14, 31510.17, 7124.33, 15343.58, 4173.09, 17187.35, -25313.08, 0.00, 0.00, 0.00, 0.00
54, 42115.82, 31528.39, 7131.68, 15323.66, 4116.41, 16937.32, -25269.74, 0.00, 0.00, 0.00, 0.00
55, 42067.48, 31487.86, 7136.76, 15354.55, 4082.26, 16831.27, -25260.20, 0.00, 0.00, 0.00, 0.00
56, 42098.48, 31500.42, 7111.88, 15408.98, 4140.37, 17098.53, -25257.89, 0.00, 0.00, 0.00, 0.00
57, 42134.09, 31534.04, 7078.42, 15403.06, 4166.97, 17211.76, -25282.64, 0.00, 0.00, 0.00, 0.00
58, 42107.55, 31517.66, 7076.36, 15368.41, 4117.06, 16953.78, -25282.79, 0.00, 0.00, 0.00, 0.00
59, 42072.00, 31488.89, 7096.59, 15341.39, 4095.93, 16802.68, -25242.09, 0.00, 0.13, 0.80, 0.59
60, 42091.82, 31492.89, 7083.47, 15427.04, 4138.85, 17036.14, -25267.78, 0.00, 0.00, 0.00, 0.00
61, 42130.38, 31532.30, 7057.32, 15454.29, 4169.83, 17205.01, -25305.41, 0.00, 0.00, 0.00, 0.00
62, 42120.65, 31528.90, 7054.17, 15404.96, 4125.51, 17007.40, -25301.39, 0.00, 0.00, 0.00, 0.00
63, 42079.88, 31494.93, 7068.25, 15402.34, 4078.68, 16803.13, -25269.70, 0.00, 0.00, 0.00, 0.00
64, 42080.84, 31488.27, 7061.01, 15430.75, 4109.39, 16944.66, -25283.51, 0.00, 0.00, 0.00, 0.00
65, 42125.75, 31522.11, 7049.65, 15462.18, 4161.13, 17164.08, -25329.33, 0.00, 0.00, 0.00, 0.00
66, 42118.35, 31519.00, 7050.95, 15441.70, 4127.67, 17030.04, -25320.64, 0.00, 0.00, 0.00, 0.00
67, 42075.66, 31488.22, 7068.25, 15438.86, 4078.12, 16801.85, -25264.36, 0.00, 0.00, 0.00, 0.00
68, 42073.16, 31484.09, 7078.55, 15476.64, 4101.95, 16881.22, -25270.08, 0.00, 0.13, 0.80, 0.59
69, 42114.89, 31510.33, 7072.85, 15502.97, 4159.59, 17124.10, -25330.94, 0.00, 0.00, 0.00, 0.00
70, 42125.77, 31522.71, 7088.99, 15492.62, 4151.17, 17038.91, -25272.31, 0.00, 0.00, 0.00, 0.00
71, 42088.87, 31500.40, 7122.90, 15489.74, 4096.25, 16793.11, -25250.47, 0.00, 0.00, 0.00, 0.00
72, 42066.96, 31478.50, 7157.77, 15511.75, 4073.00, 16797.58, -25296.94, 0.00, 0.00, 0.00, 0.00
73, 42109.32, 31502.64, 7164.72, 15554.44, 4133.69, 17058.67, -25315.07, 0.00, 0.00, 0.00, 0.00
74, 42122.57, 31515.76, 7156.76, 15551.76, 4148.89, 17031.65, -25290.46, 0.00, 0.00, 0.00, 0.00
75, 42087.46, 31499.17, 7167.91, 15551.20, 4103.47, 16781.49, -25243.52, 0.00, 0.00, 0.00, 0.00
76, 42059.34, 31474.90, 7165.48, 15581.13, 4077.03, 16738.19, -25266.86, 0.00, 0.00, 0.00, 0.00
77, 42083.06, 31484.53, 7158.73, 15616.72, 4136.01, 17010.75, -25296.72, 0.00, 0.00, 0.00, 0.00
78, 42109.25, 31506.64, 7177.01, 15621.34, 4158.30, 17074.63, -25299.58, 0.00, 0.13, 0.79, 0.58
79, 42079.26, 31490.23, 7210.76, 15612.54, 4107.42, 16829.99, -25277.95, 0.00, 0.00, 0.00, 0.00
80, 42045.95, 31462.22, 7246.19, 15627.47, 4082.23, 16718.90, -25266.59, 0.00, 0.00, 0.00, 0.00
81, 42069.56, 31471.37, 7278.73, 15671.90, 4138.18, 16951.85, -25289.57, 0.00, 0.00, 0.00, 0.00
82, 42097.45, 31489.63, 7305.13, 15681.60, 4155.88, 17065.29, -25347.12, 0.00, 0.00, 0.00, 0.00
83, 42071.50, 31477.36, 7354.04, 15667.97, 4105.84, 16831.73, -25320.64, 0.00, 0.00, 0.00, 0.00
84, 42037.66, 31451.21, 7423.66, 15687.28, 4063.44, 16685.26, -25270.08, 0.00, 0.00, 0.00, 0.00
85, 42054.05, 31456.93, 7440.78, 15738.87, 4096.16, 16893.09, -25299.74, 0.00, 0.00, 0.00, 0.00
86, 42089.12, 31483.95, 7424.53, 15761.47, 4146.16, 17068.30, -25331.86, 0.00, 0.00, 0.00, 0.00
87, 42075.61, 31478.97, 7436.34, 15751.63, 4120.99, 16884.69, -25284.96, 0.00, 0.00, 0.00, 0.00
88, 42035.43, 31448.77, 7455.16, 15754.00, 4077.67, 16675.88, -25272.98, 0.00, 0.13, 0.79, 0.58
89, 42028.52, 31436.30, 7497.85, 15788.44, 4101.41, 16800.71, -25307.67, 0.00, 0.00, 0.00, 0.00
90, 42066.59, 31461.40, 7542.69, 15823.74, 4146.63, 17033.15, -25316.39, 0.00, 0.00, 0.00, 0.00
91, 42073.63, 31473.78, 7555.14, 15828.63, 4123.11, 16932.88, -25299.83, 0.00, 0.00, 0.00, 0.00
92, 42031.22, 31445.69, 7601.92, 15837.80, 4077.27, 16717.52, -25265.32, 0.00, 0.00, 0.00, 0.00
93, 42012.98, 31424.05, 7656.28, 15876.69, 4085.97, 16766.76, -25308.72, 0.00, 0.00, 0.00, 0.00
94, 42047.39, 31443.40, 7743.92, 15914.69, 4135.50, 17013.05, -25360.78, 0.00, 0.00, 0.00, 0.00
95, 42052.37, 31449.98, 7875.64, 15918.82, 4134.51, 16963.72, -25309.17, 0.00, 0.00, 0.00, 0.00
96, 42009.48, 31419.91, 7994.53, 15922.26, 4080.49, 16713.87, -25270.55, 0.00, 0.00, 0.00, 0.00
97, 41991.37, 31402.03, 8055.43, 15965.31, 4077.54, 16713.76, -25269.81, 0.00, 0.00, 0.00, 0.00
98, 42030.73, 31426.26, 8111.02, 16028.70, 4137.51, 17032.86, -25319.63, 0.00, 0.14, 0.79, 0.58
99, 42053.49, 31448.14, 8173.54, 16045.29, 4134.85, 17060.88, -25339.59, 0.00, 0.00, 0.00, 0.00
100, 42020.38, 31429.21, 8261.54, 16017.51, 4086.37, 16799.48, -25312.25, 0.00, 0.00, 0.00, 0.00
101, 41979.59, 31391.82, 8362.03, 16021.53, 4064.93, 16713.92, -25330.16, 0.00, 0.00, 0.00, 0.00
102, 42012.43, 31411.71, 8480.32, 16076.92, 4120.79, 16978.50, -25336.42, 0.00, 0.00, 0.00, 0.00
103, 42038.58, 31436.56, 8581.39, 16089.68, 4134.45, 17058.94, -25354.19, 0.00, 0.00, 0.00, 0.00
104, 42011.18, 31423.78, 8688.79, 16094.84, 4104.92, 16850.40, -25312.23, 0.00, 0.00, 0.00, 0.00
105, 41980.38, 31395.91, 8800.51, 16090.98, 4077.61, 16733.16, -25278.35, 0.00, 0.00, 0.00, 0.00
106, 42001.50, 31402.03, 8898.47, 16109.59, 4120.32, 16942.80, -25312.17, 0.00, 0.00, 0.00, 0.00
107, 42034.51, 31425.95, 8980.86, 16120.52, 4151.08, 17078.10, -25345.45, 0.00, 0.00, 0.00, 0.00
108, 42011.51, 31415.17, 9045.97, 16072.38, 4104.58, 16870.76, -25305.13, 0.00, 0.15, 0.80, 0.58
109, 41968.73, 31385.54, 9107.24, 16058.25, 4057.80, 16690.94, -25300.21, 0.00, 0.00, 0.00, 0.00
110, 41973.91, 31382.81, 9174.59, 16089.86, 4083.33, 16867.18, -25375.49, 0.00, 0.00, 0.00, 0.00
111, 42009.07, 31406.97, 9233.17, 16092.88, 4121.33, 17067.95, -25445.49, 0.00, 0.00, 0.00, 0.00
112, 42001.63, 31404.76, 9284.24, 16056.08, 4086.14, 16913.86, -25351.95, 0.00, 0.00, 0.00, 0.00
113, 41961.24, 31377.96, 9329.93, 16054.39, 4042.85, 16698.23, -25273.81, 0.00, 0.00, 0.00, 0.00
114, 41966.14, 31376.95, 9385.27, 16084.11, 4075.15, 16821.10, -25286.24, 0.00, 0.00, 0.00, 0.00
115, 42006.70, 31404.36, 9442.18, 16095.16, 4144.53, 17070.32, -25303.11, 0.00, 0.00, 0.00, 0.00
116, 41999.39, 31400.11, 9475.66, 16063.44, 4115.47, 16956.57, -25318.13, 0.00, 0.00, 0.00, 0.00
117, 41951.86, 31363.97, 9505.06, 16033.26, 4051.57, 16701.49, -25309.91, 0.00, 0.14, 0.78, 0.57
118, 41936.57, 31348.68, 9549.29, 16058.68, 4051.34, 16748.88, -25337.85, 0.00, 0.00, 0.00, 0.00
119, 41981.13, 31380.08, 9599.81, 16095.58, 4108.90, 17040.81, -25366.55, 0.00, 0.00, 0.00, 0.00
120, 41995.60, 31394.23, 9625.02, 16069.18, 4097.19, 16996.65, -25352.69, 0.00, 0.00, 0.00, 0.00
121, 41962.47, 31374.34, 9627.72, 16050.41, 4040.52, 16745.17, -25321.71, 0.00, 0.00, 0.00, 0.00
122, 41944.19, 31354.96, 9650.01, 16064.22, 4041.53, 16739.76, -25289.75, 0.00, 0.00, 0.00, 0.00
123, 41983.64, 31376.91, 9684.88, 16092.16, 4103.47, 17005.79, -25342.76, 0.00, 0.00, 0.00, 0.00
124, 42006.70, 31399.86, 9666.70, 16082.37, 4111.51, 17026.02, -25389.66, 0.00, 0.00, 0.00, 0.00
125, 41968.17, 31377.18, 9667.04, 16053.16, 4060.73, 16778.25, -25318.65, 0.00, 0.00, 0.00, 0.00
126, 41938.27, 31354.06, 9687.87, 16059.21, 4051.21, 16713.76, -25276.83, 0.00, 0.00, 0.00, 0.00
127, 41963.81, 31364.39, 9700.75, 16098.98, 4107.60, 16975.84, -25316.30, 0.00, 0.14, 0.79, 0.58
128, 41994.30, 31388.89, 9707.29, 16089.01, 4128.17, 17067.59, -25340.39, 0.00, 0.00, 0.00, 0.00
129, 41967.48, 31375.88, 9699.52, 16049.98, 4069.09, 16822.59, -25320.03, 0.00, 0.00, 0.00, 0.00
130, 41935.29, 31349.19, 9706.80, 16049.83, 4059.72, 16690.94, -25297.50, 0.00, 0.00, 0.00, 0.00
131, 41953.38, 31358.24, 9725.18, 16086.13, 4092.05, 16915.67, -25344.11, 0.00, 0.00, 0.00, 0.00
132, 41983.14, 31380.78, 9721.11, 16084.34, 4113.37, 17049.11, -25390.82, 0.00, 0.00, 0.00, 0.00
133, 41970.90, 31375.14, 9717.82, 16054.05, 4080.38, 16856.08, -25338.36, 0.00, 0.00, 0.00, 0.00
134, 41925.19, 31344.32, 9723.41, 16045.40, 4042.38, 16693.87, -25319.12, 0.00, 0.00, 0.00, 0.00
135, 41936.32, 31344.32, 9739.42, 16079.04, 4083.84, 16855.72, -25319.94, 0.00, 0.00, 0.00, 0.00
136, 41978.16, 31372.08, 9753.09, 16095.80, 4134.22, 17048.19, -25353.25, 0.00, 0.00, 0.00, 0.00
137, 41971.88, 31377.18, 9747.60, 16063.57, 4107.49, 16903.69, -25312.43, 0.00, 0.15, 0.79, 0.58
138, 41938.73, 31356.99, 9755.46, 16057.13, 4066.12, 16715.93, -25250.90, 0.00, 0.00, 0.00, 0.00
139, 41935.65, 31345.71, 9769.14, 16078.15, 4084.58, 16817.97, -25282.26, 0.00, 0.00, 0.00, 0.00
140, 41973.38, 31368.19, 9773.86, 16091.56, 4130.11, 17043.61, -25360.27, 0.00, 0.00, 0.00, 0.00
141, 41973.09, 31370.49, 9765.68, 16058.34, 4101.34, 16941.82, -25373.28, 0.00, 0.00, 0.00, 0.00
142, 41938.98, 31349.08, 9764.36, 16046.09, 4056.53, 16733.65, -25280.43, 0.00, 0.00, 0.00, 0.00
143, 41928.90, 31338.80, 9774.22, 16068.91, 4065.54, 16780.33, -25275.55, 0.00, 0.00, 0.00, 0.00
144, 41973.13, 31368.06, 9782.91, 16102.20, 4120.43, 17051.41, -25324.01, 0.00, 0.00, 0.00, 0.00
145, 41988.11, 31384.20, 9779.04, 16082.21, 4114.15, 17012.34, -25361.12, 0.00, 0.00, 0.00, 0.00
146, 41945.02, 31354.22, 9773.90, 16046.50, 4060.64, 16757.53, -25314.27, 0.00, 0.00, 0.00, 0.00
147, 41922.37, 31333.08, 9783.22, 16050.41, 4048.71, 16718.23, -25300.43, 0.00, 0.15, 0.79, 0.59
148, 41955.30, 31350.35, 9794.80, 16082.50, 4103.62, 16992.60, -25342.12, 0.00, 0.00, 0.00, 0.00
149, 41977.60, 31370.85, 9793.35, 16072.00, 4108.00, 17043.56, -25376.54, 0.00, 0.00, 0.00, 0.00
150, 41946.80, 31355.61, 9789.30, 16047.30, 4057.69, 16804.91, -25323.63, 0.00, 0.00, 0.00, 0.00
151, 41918.46, 31331.36, 9791.05, 16055.55, 4037.55, 16719.75, -25323.59, 0.00, 0.00, 0.00, 0.00
152, 41947.25, 31348.37, 9803.43, 16088.65, 4093.65, 16971.05, -25332.82, 0.00, 0.00, 0.00, 0.00
153, 41976.75, 31374.16, 9804.23, 16086.42, 4123.63, 17081.74, -25319.99, 0.00, 0.00, 0.00, 0.00
154, 41952.52, 31362.04, 9801.82, 16054.70, 4075.51, 16851.72, -25316.03, 0.00, 0.00, 0.00, 0.00
155, 41916.92, 31334.31, 9800.05, 16048.31, 4031.67, 16711.24, -25333.73, 0.00, 0.00, 0.00, 0.00
156, 41930.60, 31334.15, 9808.57, 16074.32, 4072.44, 16906.46, -25328.57, 0.00, 0.15, 0.79, 0.59
157, 41974.83, 31367.54, 9820.26, 16088.81, 4119.34, 17068.93, -25331.54, 0.00, 0.00, 0.00, 0.00
158, 41967.05, 31370.14, 9819.25, 16068.45, 4090.57, 16892.20, -25301.93, 0.00, 0.00, 0.00, 0.00
159, 41925.23, 31338.55, 9818.38, 16053.31, 4058.25, 16696.06, -25295.09, 0.00, 0.00, 0.00, 0.00
160, 41930.20, 31335.31, 9827.19, 16081.61, 4076.11, 16849.44, -25323.77, 0.00, 0.00, 0.00, 0.00
161, 41970.00, 31361.02, 9834.37, 16095.74, 4116.32, 17063.28, -25365.59, 0.00, 0.00, 0.00, 0.00
162, 41965.69, 31363.05, 9822.92, 16064.18, 4090.10, 16913.65, -25357.56, 0.00, 0.00, 0.00, 0.00
163, 41923.54, 31332.43, 9819.10, 16039.23, 4035.18, 16678.02, -25339.03, 0.00, 0.00, 0.00, 0.00
164, 41922.84, 31325.99, 9839.17, 16071.53, 4060.40, 16772.26, -25321.98, 0.00, 0.00, 0.00, 0.00
165, 41964.24, 31354.31, 9846.86, 16100.12, 4120.99, 17045.98, -25312.39, 0.00, 0.00, 0.00, 0.00
166, 41974.72, 31369.85, 9838.66, 16085.54, 4104.43, 17006.06, -25317.08, 0.00, 0.14, 0.79, 0.59
167, 41932.34, 31340.77, 9837.11, 16056.62, 4050.07, 16750.22, -25313.82, 0.00, 0.00, 0.00, 0.00
168, 41908.96, 31314.59, 9840.69, 16062.50, 4031.43, 16755.78, -25363.39, 0.00, 0.00, 0.00, 0.00
169, 41945.62, 31333.08, 9848.74, 16086.28, 4091.82, 17025.79, -25394.58, 0.00, 0.00, 0.00, 0.00
170, 41963.01, 31348.90, 9852.74, 16071.51, 4112.12, 17023.00, -25324.35, 0.00, 0.00, 0.00, 0.00
171, 41932.83, 31331.91, 9858.37, 16049.96, 4061.62, 16784.88, -25295.49, 0.00, 0.00, 0.00, 0.00
172, 41901.83, 31302.50, 9854.06, 16049.36, 4041.91, 16725.50, -25308.39, 0.00, 0.00, 0.00, 0.00
173, 41930.44, 31320.38, 9870.69, 16093.90, 4101.46, 17004.83, -25307.07, 0.00, 0.00, 0.00, 0.00
174, 41959.01, 31345.17, 9874.31, 16090.28, 4127.12, 17069.65, -25312.23, 0.00, 0.00, 0.00, 0.00
175, 41930.95, 31329.41, 9876.21, 16054.23, 4069.65, 16821.43, -25339.72, 0.00, 0.00, 0.00, 0.00
176, 41901.72, 31304.40, 9873.75, 16051.30, 4041.96, 16709.38, -25331.83, 0.00, 0.14, 0.79, 0.59
177, 41922.75, 31315.71, 9877.10, 16087.96, 4091.67, 16948.68, -25341.09, 0.00, 0.00, 0.00, 0.00
178, 41951.12, 31340.59, 9874.96, 16089.86, 4110.96, 17081.61, -25356.69, 0.00, 0.00, 0.00, 0.00
179, 41935.40, 31336.21, 9883.18, 16062.34, 4091.62, 16866.80, -25302.69, 0.00, 0.00, 0.00, 0.00
180, 41899.04, 31307.86, 9883.87, 16051.50, 4042.47, 16705.38, -25282.66, 0.00, 0.00, 0.00, 0.00
181, 41920.79, 31317.70, 9901.58, 16094.24, 4082.64, 16910.46, -25305.57, 0.00, 0.00, 0.00, 0.00
182, 41960.10, 31349.91, 9907.59, 16108.92, 4115.87, 17099.29, -25356.53, 0.00, 0.00, 0.00, 0.00
183, 41951.43, 31353.19, 9906.09, 16085.88, 4081.25, 16921.05, -25345.16, 0.00, 0.00, 0.00, 0.00
184, 41915.58, 31327.78, 9905.44, 16071.08, 4037.69, 16713.11, -25328.91, 0.00, 0.00, 0.00, 0.00
185, 41929.26, 31334.98, 9921.45, 16116.37, 4072.51, 16865.44, -25319.03, 0.00, 0.00, 0.00, 0.00
186, 41968.80, 31361.64, 9923.03, 16132.84, 4113.88, 17098.46, -25391.36, 0.00, 0.13, 0.79, 0.60
187, 41960.01, 31357.04, 9906.36, 16087.73, 4073.29, 16954.54, -25407.16, 0.00, 0.00, 0.00, 0.00
188, 41919.38, 31327.33, 9894.38, 16065.67, 4011.11, 16726.23, -25379.85, 0.00, 0.00, 0.00, 0.00
189, 41911.00, 31313.36, 9905.71, 16083.82, 4025.10, 16791.70, -25385.14, 0.00, 0.00, 0.00, 0.00
190, 41945.42, 31332.09, 9911.72, 16102.33, 4087.42, 17043.83, -25377.66, 0.00, 0.00, 0.00, 0.00
191, 41943.81, 31335.22, 9904.66, 16076.58, 4086.88, 16985.60, -25340.17, 0.00, 0.00, 0.00, 0.00
192, 41899.89, 31308.29, 9901.82, 16048.71, 4034.56, 16742.66, -25328.53, 0.00, 0.00, 0.00, 0.00
193, 41879.10, 31290.21, 9910.45, 16060.91, 4038.76, 16763.94, -25323.59, 0.00, 0.00, 0.00, 0.00
194, 41920.92, 31317.65, 9925.72, 16097.55, 4101.08, 17043.18, -25359.37, 0.00, 0.00, 0.00, 0.00
195, 41943.25, 31342.82, 9918.92, 16091.69, 4106.31, 17044.50, -25330.45, 0.00, 0.00, 0.00, 0.00
196, 41907.73, 31322.79, 9914.18, 16064.00, 4053.49, 16788.64, -25294.73, 0.00, 0.14, 0.79, 0.59
197, 41880.15, 31295.88, 9921.80, 16059.17, 4035.00, 16720.33, -25310.02, 0.00, 0.00, 0.00, 0.00
198, 41906.97, 31308.89, 9930.70, 16087.24, 4088.45, 16969.96, -25373.19, 0.00, 0.00, 0.00, 0.00
199, 41935.05, 31330.80, 9920.55, 16084.05, 4105.93, 17042.80, -25392.97, 0.00, 0.00, 0.00, 0.00
200, 41915.64, 31322.73, 9917.69, 16067.51, 4063.14, 16832.54, -25319.21, 0.00, 0.00, 0.00, 0.00
201, 41882.72, 31295.37, 9917.27, 16058.92, 4027.96, 16707.86, -25311.14, 0.00, 0.00, 0.00, 0.00
202, 41908.22, 31309.96, 9933.18, 16099.27, 4067.99, 16936.72, -25338.47, 0.00, 0.00, 0.00, 0.00
203, 41940.16, 31337.95, 9936.47, 16102.73, 4119.45, 17071.81, -25369.86, 0.00, 0.00, 0.00, 0.00
204, 41918.71, 31330.06, 9930.75, 16070.21, 4072.42, 16870.76, -25329.31, 0.00, 0.00, 0.00, 0.00
205, 41888.91, 31312.07, 9922.70, 16067.01, 4037.84, 16701.65, -25317.53, 0.00, 0.14, 0.79, 0.59
