%OpenBCI Raw EEG Data
%
%Sample Rate = 250.0 Hz
%First Column = SampleIndex
%Other Columns = EEG data in microvolts followed by Accel Data (in G) interleaved with Aux Data
0, 54839.02, 38423.90, 8660.94, 31356.41, 22651.79, 52725.37, 21881.75, 0.00, 0.03, 0.48, 0.14
1, 54817.94, 38401.10, 8634.77, 31403.78, 22653.40, 52790.53, 21870.71, 0.00, 0.00, 0.00, 0.00
2, 54792.84, 38322.94, 8462.55, 31339.20, 22529.22, 53935.54, 21702.47, 0.00, 0.00, 0.00, 0.00
3, 54800.86, 38297.23, 8436.58, 31227.13, 22447.48, 54081.70, 21648.38, 0.00, 0.00, 0.00, 0.00
4, 54841.39, 38401.73, 8652.81, 31346.89, 22633.91, 52850.12, 21854.64, 0.00, 0.00, 0.00, 0.00
5, 54826.55, 38386.39, 8663.16, 31402.32, 22669.29, 52709.57, 21882.38, 0.00, 0.00, 0.00, 0.00
6, 54804.15, 38326.71, 8520.31, 31364.66, 22572.47, 53714.91, 21744.09, 0.00, 0.07, 0.94, 0.29
7, 54792.13, 38267.79, 8399.81, 31227.69, 22437.46, 54244.89, 21632.51, 0.00, 0.00, 0.00, 0.00
8, 54836.14, 38378.19, 8615.32, 31319.64, 22600.74, 53022.11, 21835.62, 0.00, 0.00, 0.00, 0.00
9, 54836.49, 38403.29, 8664.85, 31408.98, 22671.46, 52681.41, 21893.91, 0.00, 0.00, 0.00, 0.00
10, 54794.70, 38332.86, 8536.89, 31392.55, 22595.85, 53498.96, 21782.38, 0.00, 0.00, 0.00, 0.00
11, 54787.79, 38251.79, 8374.77, 31241.68, 22446.87, 54368.92, 21626.05, 0.00, 0.00, 0.00, 0.00
12, 54828.65, 38335.48, 8593.78, 31290.65, 22576.29, 53254.91, 21799.66, 0.00, 0.00, 0.00, 0.00
13, 54840.03, 38394.51, 8689.91, 31404.94, 22688.47, 52678.66, 21903.05, 0.00, 0.00, 0.00, 0.00
14, 54822.55, 38371.82, 8582.00, 31413.63, 22639.21, 53299.19, 21825.14, 0.00, 0.00, 0.00, 0.00
15, 54800.26, 38277.68, 8405.69, 31278.54, 22476.24, 54395.56, 21633.34, 0.00, 0.00, 0.00, 0.00
16, 54808.69, 38319.41, 8550.64, 31264.99, 22551.17, 53509.23, 21757.84, 0.00, 0.07, 0.94, 0.29
17, 54824.67, 38378.46, 8677.97, 31378.56, 22682.73, 52709.66, 21888.66, 0.00, 0.00, 0.00, 0.00
18, 54801.51, 38346.74, 8606.32, 31404.60, 22648.11, 53132.73, 21839.42, 0.00, 0.00, 0.00, 0.00
19, 54773.91, 38266.90, 8422.58, 31294.65, 22491.29, 54353.65, 21646.17, 0.00, 0.00, 0.00, 0.00
20, 54798.29, 38300.72, 8507.90, 31234.04, 22512.32, 53793.70, 21715.14, 0.00, 0.00, 0.00, 0.00
21, 54822.03, 38378.41, 8676.48, 31360.70, 22676.85, 52781.83, 21879.05, 0.00, 0.00, 0.00, 0.00
22, 54801.47, 38356.73, 8626.95, 31391.93, 22661.38, 52986.64, 21848.49, 0.00, 0.00, 0.00, 0.00
23, 54783.70, 38285.92, 8444.82, 31318.35, 22525.08, 54192.59, 21670.53, 0.00, 0.00, 0.00, 0.00
24, 54796.37, 38281.32, 8469.50, 31224.69, 22485.65, 54021.32, 21676.41, 0.00, 0.00, 0.00, 0.00
25, 54838.73, 38393.28, 8675.34, 31365.55, 22679.04, 52881.41, 21888.46, 0.00, 0.00, 0.00, 0.00
26, 54809.40, 38380.83, 8644.89, 31397.74, 22681.46, 52893.66, 21880.44, 0.00, 0.07, 0.94, 0.29
27, 54768.57, 38299.27, 8457.48, 31319.82, 22540.66, 53996.79, 21692.17, 0.00, 0.00, 0.00, 0.00
28, 54777.86, 38264.53, 8421.73, 31211.37, 22457.54, 54240.21, 21634.07, 0.00, 0.00, 0.00, 0.00
29, 54821.63, 38373.65, 8646.64, 31337.86, 22647.23, 53013.02, 21848.45, 0.00, 0.00, 0.00, 0.00
30, 54804.75, 38378.61, 8655.42, 31404.29, 22678.64, 52813.44, 21871.67, 0.00, 0.00, 0.00, 0.00
31, 54772.59, 38311.69, 8506.63, 31379.05, 22580.45, 53771.14, 21737.99, 0.00, 0.00, 0.00, 0.00
32, 54770.02, 38259.30, 8397.13, 31198.47, 22449.78, 54387.34, 21619.23, 0.00, 0.00, 0.00, 0.00
33, 54807.32, 38373.56, 8592.41, 31284.24, 22607.80, 53166.84, 21816.78, 0.00, 0.00, 0.00, 0.00
34, 54814.88, 38407.16, 8688.19, 31391.26, 22688.29, 52769.85, 21890.92, 0.00, 0.00, 0.00, 0.00
35, 54779.95, 38342.54, 8549.70, 31363.59, 22604.05, 53531.18, 21769.62, 0.00, 0.00, 0.00, 0.00
36, 54764.97, 38257.45, 8388.77, 31213.83, 22447.54, 54452.82, 21602.74, 0.00, 0.06, 0.95, 0.30
37, 54803.55, 38346.90, 8586.71, 31269.84, 22579.04, 53379.81, 21790.85, 0.00, 0.00, 0.00, 0.00
38, 54828.13, 38415.88, 8690.87, 31391.82, 22695.56, 52749.91, 21902.72, 0.00, 0.00, 0.00, 0.00
39, 54792.86, 38368.13, 8592.70, 31382.05, 22633.67, 53308.04, 21812.69, 0.00, 0.00, 0.00, 0.00
40, 54767.72, 38278.59, 8416.39, 31245.99, 22465.04, 54439.68, 21616.33, 0.00, 0.00, 0.00, 0.00
41, 54794.25, 38331.27, 8557.72, 31224.04, 22524.03, 53623.35, 21726.43, 0.00, 0.00, 0.00, 0.00
42, 54807.88, 38389.30, 8676.97, 31349.57, 22665.36, 52770.70, 21862.53, 0.00, 0.00, 0.00, 0.00
43, 54792.24, 38368.51, 8617.78, 31377.20, 22634.36, 53125.87, 21815.77, 0.00, 0.00, 0.00, 0.00
44, 54760.99, 38282.61, 8424.80, 31272.59, 22477.90, 54342.50, 21623.88, 0.00, 0.00, 0.00, 0.00
45, 54789.24, 38309.73, 8501.28, 31224.09, 22488.22, 53874.48, 21683.29, 0.00, 0.00, 0.00, 0.00
46, 54835.42, 38416.66, 8690.94, 31373.71, 22674.88, 52832.50, 21884.57, 0.00, 0.07, 0.95, 0.30
47, 54808.35, 38381.14, 8643.58, 31394.77, 22656.46, 53001.04, 21863.85, 0.00, 0.00, 0.00, 0.00
48, 54761.86, 38287.84, 8452.78, 31320.78, 22512.56, 54180.80, 21672.83, 0.00, 0.00, 0.00, 0.00
49, 54791.12, 38288.65, 8474.08, 31230.37, 22475.75, 54108.27, 21675.38, 0.00, 0.00, 0.00, 0.00
50, 54810.70, 38376.51, 8671.72, 31347.14, 22649.89, 52924.35, 21866.96, 0.00, 0.00, 0.00, 0.00
51, 54803.01, 38386.41, 8641.97, 31405.29, 22663.97, 52894.13, 21875.41, 0.00, 0.00, 0.00, 0.00
52, 54762.38, 38316.36, 8479.71, 31353.10, 22548.42, 53976.13, 21725.54, 0.00, 0.00, 0.00, 0.00
53, 54759.27, 38269.96, 8449.16, 31221.14, 22447.39, 54304.63, 21642.48, 0.00, 0.00, 0.00, 0.00
54, 54791.14, 38369.34, 8648.92, 31328.79, 22623.99, 53059.84, 21847.55, 0.00, 0.00, 0.00, 0.00
55, 54798.50, 38399.43, 8691.70, 31406.53, 22679.26, 52809.57, 21890.85, 0.00, 0.07, 0.95, 0.30
56, 54760.27, 38334.76, 8531.95, 31368.30, 22578.97, 53715.60, 21760.61, 0.00, 0.00, 0.00, 0.00
57, 54755.09, 38271.08, 8401.53, 31250.11, 22432.14, 54428.38, 21621.18, 0.00, 0.00, 0.00, 0.00
58, 54790.74, 38358.23, 8607.79, 31315.98, 22578.35, 53243.04, 21811.81, 0.00, 0.00, 0.00, 0.00
59, 54800.30, 38396.81, 8689.71, 31400.04, 22668.51, 52775.28, 21894.27, 0.00, 0.00, 0.00, 0.00
60, 54762.80, 38332.23, 8575.29, 31379.97, 22597.19, 53488.04, 21787.96, 0.00, 0.00, 0.00, 0.00
61, 54751.25, 38258.52, 8403.61, 31243.67, 22435.92, 54478.20, 21608.28, 0.00, 0.00, 0.00, 0.00
62, 54795.50, 38348.13, 8592.17, 31282.92, 22553.65, 53452.81, 21781.86, 0.00, 0.00, 0.00, 0.00
63, 54811.08, 38397.37, 8690.56, 31389.16, 22670.95, 52760.91, 21889.76, 0.00, 0.00, 0.00, 0.00
64, 54781.66, 38362.39, 8598.45, 31392.87, 22619.83, 53274.66, 21815.14, 0.00, 0.00, 0.00, 0.00
65, 54774.54, 38281.45, 8412.68, 31276.19, 22462.52, 54434.86, 21628.80, 0.00, 0.07, 0.95, 0.29
66, 54809.07, 38329.30, 8559.35, 31257.62, 22514.64, 53691.57, 21735.15, 0.00, 0.00, 0.00, 0.00
67, 54819.35, 38403.29, 8693.58, 31386.52, 22663.80, 52790.21, 21886.22, 0.00, 0.00, 0.00, 0.00
68, 54781.06, 38362.41, 8601.42, 31405.18, 22629.60, 53100.43, 21837.83, 0.00, 0.00, 0.00, 0.00
69, 54761.35, 38281.45, 8430.05, 31293.60, 22481.63, 54314.40, 21648.09, 0.00, 0.00, 0.00, 0.00
70, 54784.77, 38308.21, 8515.34, 31227.22, 22473.43, 53936.30, 21689.33, 0.00, 0.00, 0.00, 0.00
71, 54815.30, 38399.54, 8685.42, 31361.87, 22651.30, 52851.68, 21879.25, 0.00, 0.00, 0.00, 0.00
72, 54800.69, 38377.00, 8651.62, 31398.84, 22648.96, 52962.08, 21869.57, 0.00, 0.00, 0.00, 0.00
73, 54776.61, 38284.94, 8468.43, 31332.52, 22515.67, 54123.68, 21699.56, 0.00, 0.00, 0.00, 0.00
74, 54774.58, 38261.69, 8452.13, 31224.47, 22441.02, 54159.26, 21664.38, 0.00, 0.00, 0.00, 0.00
75, 54814.28, 38377.63, 8660.47, 31349.51, 22618.36, 52957.94, 21862.13, 0.00, 0.07, 0.95, 0.28
76, 54810.23, 38390.73, 8663.71, 31410.26, 22646.81, 52869.88, 21875.38, 0.00, 0.00, 0.00, 0.00
77, 54779.83, 38317.32, 8508.62, 31362.78, 22540.77, 53900.70, 21725.29, 0.00, 0.00, 0.00, 0.00
78, 54776.01, 38263.05, 8428.91, 31212.91, 22422.42, 54327.39, 21627.70, 0.00, 0.00, 0.00, 0.00
79, 54825.09, 38373.36, 8646.30, 31319.58, 22596.99, 53097.44, 21836.80, 0.00, 0.00, 0.00, 0.00
80, 54841.10, 38406.69, 8694.25, 31408.47, 22665.16, 52808.41, 21901.87, 0.00, 0.00, 0.00, 0.00
81, 54792.93, 38338.61, 8546.37, 31373.18, 22574.50, 53670.79, 21771.47, 0.00, 0.00, 0.00, 0.00
82, 54773.04, 38255.23, 8411.54, 31231.76, 22426.09, 54455.84, 21617.11, 0.00, 0.00, 0.00, 0.00
83, 54820.76, 38345.73, 8623.06, 31298.54, 22570.46, 53299.68, 21807.66, 0.00, 0.00, 0.00, 0.00
84, 54832.98, 38398.69, 8698.49, 31399.53, 22666.70, 52781.27, 21897.56, 0.00, 0.00, 0.00, 0.00
85, 54793.98, 38363.48, 8589.53, 31391.86, 22600.27, 53443.42, 21803.81, 0.00, 0.06, 0.95, 0.29
86, 54779.14, 38275.44, 8423.25, 31258.98, 22439.77, 54489.37, 21625.49, 0.00, 0.00, 0.00, 0.00
87, 54819.51, 38333.33, 8584.99, 31271.12, 22534.04, 53525.86, 21766.08, 0.00, 0.00, 0.00, 0.00
88, 54825.86, 38390.15, 8694.16, 31387.53, 22662.28, 52780.13, 21887.34, 0.00, 0.00, 0.00, 0.00
89, 54784.35, 38345.45, 8599.41, 31391.64, 22609.30, 53239.42, 21807.01, 0.00, 0.00, 0.00, 0.00
90, 54773.77, 38280.47, 8394.89, 31297.20, 22453.51, 54431.82, 21621.31, 0.00, 0.00, 0.00, 0.00
91, 54801.94, 38318.29, 8551.26, 31258.15, 22489.16, 53773.29, 21710.40, 0.00, 0.00, 0.00, 0.00
92, 54823.55, 38389.75, 8693.46, 31369.42, 22646.41, 52817.13, 21870.29, 0.00, 0.00, 0.00, 0.00
93, 54799.05, 38366.03, 8638.59, 31391.30, 22623.90, 53075.09, 21834.70, 0.00, 0.00, 0.00, 0.00
94, 54769.50, 38284.45, 8451.53, 31304.38, 22477.88, 54289.30, 21655.11, 0.00, 0.07, 0.95, 0.28
95, 54799.70, 38303.18, 8504.08, 31238.89, 22462.36, 54021.80, 21687.27, 0.00, 0.00, 0.00, 0.00
96, 54832.98, 38394.57, 8695.63, 31362.80, 22635.39, 52907.94, 21881.66, 0.00, 0.00, 0.00, 0.00
97, 54822.82, 38388.02, 8665.03, 31412.31, 22632.21, 52969.05, 21871.88, 0.00, 0.00, 0.00, 0.00
98, 54791.99, 38325.89, 8485.91, 31364.39, 22500.74, 54111.00, 21692.14, 0.00, 0.00, 0.00, 0.00
99, 54809.11, 38310.17, 8468.20, 31222.44, 22433.84, 54249.27, 21662.71, 0.00, 0.00, 0.00, 0.00
100, 54836.61, 38381.59, 8670.78, 31332.45, 22610.29, 53029.64, 21864.43, 0.00, 0.00, 0.00, 0.00
101, 54827.60, 38384.05, 8669.93, 31397.12, 22635.70, 52883.62, 21870.76, 0.00, 0.00, 0.00, 0.00
102, 54782.25, 38318.22, 8515.88, 31345.26, 22535.05, 53875.46, 21723.44, 0.00, 0.00, 0.00, 0.00
103, 54783.43, 38268.24, 8442.46, 31210.50, 22428.46, 54402.42, 21631.23, 0.00, 0.00, 0.00, 0.00
104, 54836.18, 38376.91, 8663.63, 31313.29, 22599.15, 53176.96, 21835.46, 0.00, 0.08, 0.95, 0.29
105, 54833.61, 38402.00, 8693.06, 31398.41, 22658.03, 52825.80, 21889.85, 0.00, 0.00, 0.00, 0.00
106, 54796.84, 38337.35, 8553.50, 31367.68, 22567.59, 53635.67, 21767.02, 0.00, 0.00, 0.00, 0.00
107, 54791.30, 38265.58, 8418.14, 31228.81, 22416.47, 54482.53, 21609.73, 0.00, 0.00, 0.00, 0.00
108, 54821.59, 38347.57, 8607.83, 31277.35, 22539.45, 53362.93, 21782.29, 0.00, 0.00, 0.00, 0.00
109, 54830.91, 38395.13, 8693.26, 31385.18, 22640.26, 52792.88, 21881.15, 0.00, 0.00, 0.00, 0.00
110, 54802.18, 38353.89, 8604.24, 31380.33, 22586.24, 53403.32, 21797.29, 0.00, 0.00, 0.00, 0.00
111, 54791.39, 38278.25, 8427.08, 31248.54, 22427.09, 54497.33, 21621.87, 0.00, 0.00, 0.00, 0.00
112, 54826.05, 38340.37, 8572.68, 31254.42, 22502.80, 53607.19, 21755.78, 0.00, 0.00, 0.00, 0.00
113, 54838.73, 38405.10, 8702.16, 31376.75, 22642.54, 52812.66, 21887.07, 0.00, 0.00, 0.00, 0.00
114, 54792.08, 38358.92, 8614.27, 31379.84, 22595.29, 53221.89, 21822.25, 0.00, 0.08, 0.95, 0.30
115, 54773.24, 38281.00, 8431.99, 31276.10, 22444.15, 54417.18, 21635.97, 0.00, 0.00, 0.00, 0.00
116, 54802.81, 38304.52, 8527.30, 31232.18, 22466.36, 53845.53, 21712.62, 0.00, 0.00, 0.00, 0.00
117, 54829.01, 38378.55, 8686.40, 31358.13, 22622.38, 52851.77, 21873.44, 0.00, 0.00, 0.00, 0.00
118, 54804.75, 38351.12, 8636.18, 31383.90, 22608.59, 53068.83, 21838.57, 0.00, 0.00, 0.00, 0.00
119, 54776.23, 38278.12, 8456.16, 31306.59, 22474.46, 54275.40, 21660.05, 0.00, 0.00, 0.00, 0.00
121, 54827.35, 38390.42, 8682.00, 31350.42, 22617.17, 52953.14, 21870.64, 0.00, 0.00, 0.00, 0.00
122, 54809.36, 38382.37, 8661.97, 31398.90, 22625.46, 52964.87, 21868.12, 0.00, 0.00, 0.00, 0.00
123, 54772.70, 38308.36, 8489.33, 31337.73, 22501.34, 54068.15, 21697.82, 0.00, 0.00, 0.00, 0.00
124, 54779.30, 38274.61, 8441.72, 31212.11, 22399.69, 54301.86, 21621.20, 0.00, 0.07, 0.95, 0.30
125, 54824.67, 38383.15, 8665.86, 31323.67, 22582.95, 53072.45, 21839.91, 0.00, 0.00, 0.00, 0.00
126, 54805.49, 38379.87, 8679.67, 31382.92, 22619.03, 52878.66, 21862.93, 0.00, 0.00, 0.00, 0.00
127, 54771.27, 38314.96, 8519.93, 31344.50, 22518.49, 53820.76, 21719.44, 0.00, 0.00, 0.00, 0.00
128, 54776.97, 38264.04, 8411.32, 31211.33, 22389.88, 54438.23, 21607.63, 0.00, 0.00, 0.00, 0.00
129, 54815.71, 38349.65, 8635.28, 31298.54, 22558.23, 53233.89, 21815.55, 0.00, 0.00, 0.00, 0.00
130, 54813.18, 38374.30, 8695.28, 31386.79, 22638.31, 52824.52, 21888.86, 0.00, 0.00, 0.00, 0.00
131, 54782.80, 38313.88, 8564.16, 31360.79, 22551.03, 53581.13, 21770.24, 0.00, 0.00, 0.00, 0.00
132, 54778.07, 38246.43, 8417.04, 31222.86, 22396.94, 54505.26, 21609.08, 0.00, 0.00, 0.00, 0.00
133, 54809.92, 38326.82, 8597.80, 31262.51, 22512.74, 53437.41, 21777.21, 0.00, 0.00, 0.00, 0.00
134, 54817.76, 38377.03, 8690.94, 31364.08, 22619.85, 52804.83, 21877.28, 0.00, 0.07, 0.95, 0.30
135, 54788.64, 38329.35, 8587.99, 31358.78, 22559.41, 53362.39, 21796.57, 0.00, 0.00, 0.00, 0.00
136, 54774.36, 38249.20, 8405.93, 31239.51, 22403.33, 54491.27, 21613.46, 0.00, 0.00, 0.00, 0.00
137, 54810.57, 38313.66, 8558.04, 31240.67, 22474.61, 53668.79, 21732.78, 0.00, 0.00, 0.00, 0.00
138, 54829.43, 38381.81, 8695.79, 31361.82, 22618.38, 52825.98, 21869.59, 0.00, 0.00, 0.00, 0.00
139, 54792.89, 38339.92, 8616.40, 31369.71, 22580.40, 53183.43, 21813.89, 0.00, 0.00, 0.00, 0.00
140, 54769.28, 38261.58, 8423.34, 31266.04, 22427.81, 54389.79, 21623.95, 0.00, 0.00, 0.00, 0.00
141, 54798.68, 38294.26, 8503.99, 31214.41, 22435.99, 53916.32, 21683.76, 0.00, 0.00, 0.00, 0.00
142, 54829.74, 38390.33, 8683.85, 31354.62, 22607.54, 52873.86, 21863.40, 0.00, 0.00, 0.00, 0.00
143, 54804.89, 38364.24, 8638.90, 31380.15, 22591.73, 53024.39, 21835.78, 0.00, 0.07, 0.96, 0.30
144, 54770.96, 38278.88, 8451.84, 31290.12, 22448.77, 54207.38, 21654.84, 0.00, 0.00, 0.00, 0.00
145, 54787.45, 38279.30, 8471.60, 31190.94, 22403.67, 54121.51, 21645.38, 0.00, 0.00, 0.00, 0.00
146, 54825.16, 38380.58, 8677.01, 31328.74, 22586.53, 52931.63, 21841.74, 0.00, 0.00, 0.00, 0.00
147, 54814.77, 38369.52, 8660.38, 31380.42, 22600.99, 52886.21, 21849.48, 0.00, 0.00, 0.00, 0.00
148, 54786.67, 38298.04, 8491.34, 31323.51, 22489.59, 53963.19, 21701.04, 0.00, 0.00, 0.00, 0.00
149, 54798.61, 38258.45, 8435.24, 31199.59, 22383.71, 54302.40, 21624.75, 0.00, 0.00, 0.00, 0.00
150, 54829.57, 38359.82, 8646.84, 31300.89, 22553.33, 53064.80, 21826.23, 0.00, 0.00, 0.00, 0.00
151, 54820.02, 38373.43, 8667.36, 31373.87, 22598.15, 52818.69, 21857.41, 0.00, 0.00, 0.00, 0.00
152, 54790.63, 38318.36, 8525.25, 31342.40, 22508.72, 53723.73, 21729.49, 0.00, 0.00, 0.00, 0.00
153, 54796.35, 38264.06, 8415.34, 31214.63, 22379.04, 54441.36, 21605.06, 0.00, 0.06, 0.96, 0.30
154, 54830.48, 38349.36, 8623.71, 31288.66, 22524.59, 53262.66, 21800.53, 0.00, 0.00, 0.00, 0.00
155, 54830.37, 38372.22, 8679.00, 31380.15, 22604.43, 52795.40, 21878.11, 0.00, 0.00, 0.00, 0.00
156, 54792.39, 38332.12, 8566.24, 31368.21, 22538.34, 53496.20, 21775.38, 0.00, 0.00, 0.00, 0.00
157, 54777.44, 38254.32, 8400.12, 31226.39, 22375.57, 54481.05, 21598.49, 0.00, 0.00, 0.00, 0.00
158, 54822.37, 38331.92, 8581.08, 31264.39, 22484.49, 53474.82, 21766.37, 0.00, 0.00, 0.00, 0.00
159, 54838.35, 38393.28, 8693.51, 31391.35, 22612.83, 52794.28, 21889.91, 0.00, 0.00, 0.00, 0.00
160, 54801.29, 38345.22, 8603.83, 31388.46, 22560.26, 53296.21, 21813.69, 0.00, 0.00, 0.00, 0.00
161, 54791.81, 38274.93, 8422.65, 31273.73, 22402.95, 54467.94, 21628.17, 0.00, 0.00, 0.00, 0.00
162, 54830.93, 38341.93, 8555.33, 31275.41, 22467.53, 53745.62, 21753.03, 0.00, 0.00, 0.00, 0.00
163, 54852.39, 38410.46, 8700.39, 31407.31, 22616.34, 52850.86, 21899.59, 0.00, 0.05, 0.97, 0.31
164, 54807.91, 38358.68, 8626.03, 31403.17, 22575.89, 53141.45, 21833.16, 0.00, 0.00, 0.00, 0.00
165, 54784.48, 38274.19, 8428.89, 31296.76, 22424.81, 54349.07, 21632.87, 0.00, 0.00, 0.00, 0.00
166, 54806.45, 38289.81, 8490.11, 31231.13, 22421.62, 53961.36, 21673.05, 0.00, 0.00, 0.00, 0.00
167, 54827.02, 38373.36, 8673.55, 31356.21, 22602.51, 52873.92, 21866.06, 0.00, 0.00, 0.00, 0.00
168, 54790.52, 38341.27, 8633.88, 31378.92, 22599.27, 52979.31, 21849.10, 0.00, 0.00, 0.00, 0.00
169, 54761.08, 38256.37, 8448.98, 31302.14, 22471.17, 54139.14, 21675.67, 0.00, 0.00, 0.00, 0.00
170, 54767.47, 38232.86, 8439.39, 31197.63, 22415.80, 54167.30, 21653.52, 0.00, 0.00, 0.00, 0.00
171, 54795.48, 38320.50, 8645.16, 31317.52, 22603.69, 52966.23, 21858.31, 0.00, 0.00, 0.00, 0.00
172, 54775.72, 38302.60, 8637.41, 31353.71, 22626.54, 52876.47, 21869.97, 0.00, 0.00, 0.00, 0.00
173, 54735.69, 38224.34, 8475.87, 31294.32, 22517.57, 53916.16, 21717.04, 0.00, 0.03, 1.00, 0.32
174, 54743.91, 38193.52, 8400.75, 31169.48, 22414.31, 54347.26, 21627.05, 0.00, 0.00, 0.00, 0.00
175, 54781.51, 38297.43, 8613.98, 31268.46, 22587.62, 53103.92, 21831.30, 0.00, 0.00, 0.00, 0.00
176, 54777.95, 38310.51, 8645.39, 31345.62, 22637.94, 52800.63, 21868.99, 0.00, 0.00, 0.00, 0.00
177, 54743.20, 38245.60, 8500.73, 31309.52, 22544.08, 53664.50, 21739.57, 0.00, 0.00, 0.00, 0.00
178, 54724.87, 38161.49, 8374.42, 31170.60, 22407.04, 54452.34, 21607.05, 0.00, 0.00, 0.00, 0.00
179, 54766.71, 38253.85, 8587.85, 31242.96, 22555.26, 53294.02, 21805.00, 0.00, 0.00, 0.00, 0.00
180, 54782.07, 38292.70, 8659.94, 31323.89, 22640.66, 52772.98, 21884.73, 0.00, 0.00, 0.00, 0.00
181, 54754.48, 38248.28, 8550.64, 31308.85, 22563.41, 53435.38, 21780.72, 0.00, 0.00, 0.00, 0.00
182, 54752.45, 38176.73, 8393.50, 31183.45, 22410.21, 54488.84, 21614.58, 0.00, 0.00, 0.00, 0.00
183, 54787.21, 38240.91, 8552.31, 31197.74, 22495.20, 53525.96, 21758.19, 0.00, 0.01, 0.97, 0.32
184, 54812.53, 38311.00, 8682.65, 31319.80, 22623.05, 52784.47, 21882.49, 0.00, 0.00, 0.00, 0.00
185, 54791.03, 38283.53, 8611.93, 31327.29, 22579.69, 53253.36, 21823.04, 0.00, 0.00, 0.00, 0.00
186, 54774.69, 38208.18, 8427.28, 31209.14, 22433.57, 54448.16, 21655.78, 0.00, 0.00, 0.00, 0.00
187, 54810.72, 38250.67, 8543.98, 31170.98, 22465.09, 53771.52, 21731.06, 0.00, 0.00, 0.00, 0.00
188, 54849.50, 38341.87, 8703.23, 31303.75, 22621.35, 52809.91, 21891.77, 0.00, 0.00, 0.00, 0.00
189, 54826.77, 38320.77, 8645.25, 31327.47, 22596.03, 53074.28, 21853.90, 0.00, 0.00, 0.00, 0.00
190, 54806.54, 38251.28, 8461.12, 31232.61, 22447.12, 54297.66, 21659.40, 0.00, 0.00, 0.00, 0.00
191, 54837.95, 38277.88, 8529.18, 31168.23, 22425.77, 54004.47, 21683.43, 0.00, 0.00, 0.00, 0.00
192, 54862.00, 38376.40, 8693.96, 31310.57, 22595.09, 52875.42, 21873.93, 0.00, 0.04, 0.94, 0.31
193, 54845.43, 38369.70, 8658.46, 31343.31, 22591.76, 52953.72, 21873.68, 0.00, 0.00, 0.00, 0.00
194, 54833.25, 38314.09, 8489.24, 31285.00, 22474.66, 54117.80, 21718.81, 0.00, 0.00, 0.00, 0.00
195, 54854.55, 38304.34, 8467.58, 31177.91, 22397.19, 54252.82, 21675.18, 0.00, 0.00, 0.00, 0.00
196, 54884.33, 38396.12, 8671.38, 31282.74, 22564.44, 53007.56, 21872.39, 0.00, 0.00, 0.00, 0.00
197, 54856.23, 38386.91, 8673.93, 31332.83, 22582.17, 52863.19, 21887.19, 0.00, 0.00, 0.00, 0.00
198, 54828.36, 38342.41, 8537.45, 31311.80, 22490.93, 53890.52, 21764.14, 0.00, 0.00, 0.00, 0.00
199, 54841.19, 38313.88, 8442.19, 31212.82, 22371.59, 54441.96, 21671.94, 0.00, 0.00, 0.00, 0.00
200, 54880.73, 38405.91, 8654.73, 31300.33, 22517.15, 53188.07, 21857.95, 0.00, 0.00, 0.00, 0.00
201, 54880.68, 38434.32, 8697.94, 31350.91, 22579.82, 52822.00, 21909.13, 0.00, 0.00, 0.00, 0.00
202, 54837.52, 38377.56, 8554.46, 31331.47, 22501.68, 53646.96, 21796.48, 0.00, 0.07, 0.89, 0.30
203, 54831.11, 38300.27, 8418.58, 31203.41, 22360.57, 54519.41, 21644.78, 0.00, 0.00, 0.00, 0.00
204, 54862.82, 38374.52, 8607.10, 31247.25, 22485.14, 53372.88, 21809.83, 0.00, 0.00, 0.00, 0.00
205, 54868.17, 38415.14, 8677.77, 31355.85, 22584.11, 52792.56, 21903.12, 0.00, 0.00, 0.00, 0.00
206, 54842.53, 38382.48, 8562.86, 31372.55, 22534.00, 53432.34, 21829.56, 0.00, 0.00, 0.00, 0.00
207, 54844.14, 38326.29, 8407.85, 31267.14, 22393.29, 54561.23, 21660.14, 0.00, 0.00, 0.00, 0.00
208, 54883.19, 38391.31, 8589.69, 31239.62, 22479.73, 53634.42, 21783.45, 0.00, 0.00, 0.00, 0.00
209, 54884.82, 38446.21, 8674.87, 31354.76, 22605.06, 52823.83, 21906.59, 0.00, 0.00, 0.00, 0.00
210, 54850.08, 38411.45, 8601.35, 31386.56, 22568.87, 53258.57, 21851.09, 0.00, 0.00, 0.00, 0.00
211, 54831.24, 38338.23, 8418.65, 31271.41, 22423.49, 54497.53, 21668.94, 0.00, 0.00, 0.00, 0.00
212, 54860.39, 38360.82, 8516.73, 31213.18, 22448.37, 53895.44, 21733.58, 0.00, 0.09, 0.90, 0.31
213, 54884.77, 38433.20, 8667.40, 31364.46, 22602.42, 52880.22, 21897.40, 0.00, 0.00, 0.00, 0.00
214, 54865.62, 38420.08, 8621.27, 31402.10, 22593.50, 53104.97, 21883.52, 0.00, 0.00, 0.00, 0.00
215, 54849.84, 38365.72, 8467.09, 31299.37, 22477.92, 54355.51, 21729.31, 0.00, 0.00, 0.00, 0.00
216, 54879.99, 38368.71, 8504.28, 31220.67, 22446.65, 54168.91, 21729.72, 0.00, 0.00, 0.00, 0.00
217, 54905.23, 38449.07, 8677.95, 31330.42, 22613.55, 52966.75, 21909.38, 0.00, 0.00, 0.00, 0.00
218, 54865.68, 38431.03, 8646.91, 31374.99, 22614.04, 52980.29, 21903.35, 0.00, 0.00, 0.00, 0.00
219, 54837.95, 38360.13, 8493.86, 31333.39, 22508.47, 54130.96, 21755.98, 0.00, 0.00, 0.00, 0.00
220, 54841.66, 38325.26, 8452.13, 31219.20, 22415.76, 54365.70, 21687.94, 0.00, 0.00, 0.00, 0.00
221, 54866.67, 38412.75, 8643.29, 31308.56, 22577.92, 53086.02, 21865.95, 0.00, 0.00, 0.00, 0.00
222, 54862.04, 38421.89, 8662.58, 31372.13, 22630.71, 52898.51, 21907.82, 0.00, 0.10, 0.92, 0.32
223, 54835.06, 38374.68, 8525.89, 31355.88, 22548.91, 53897.39, 21790.60, 0.00, 0.00, 0.00, 0.00
224, 54839.91, 38324.50, 8419.14, 31225.23, 22419.80, 54530.52, 21662.37, 0.00, 0.00, 0.00, 0.00
225, 54882.09, 38430.94, 8610.27, 31300.24, 22572.58, 53272.03, 21845.99, 0.00, 0.00, 0.00, 0.00
226, 54888.08, 38460.49, 8682.38, 31384.98, 22646.32, 52864.40, 21913.36, 0.00, 0.00, 0.00, 0.00
227, 54855.05, 38398.89, 8575.07, 31370.02, 22572.11, 53660.97, 21814.68, 0.00, 0.00, 0.00, 0.00
228, 54853.19, 38330.07, 8413.35, 31225.77, 22419.38, 54614.68, 21652.65, 0.00, 0.00, 0.00, 0.00
229, 54894.41, 38403.49, 8602.61, 31265.46, 22535.23, 53483.79, 21809.58, 0.00, 0.00, 0.00, 0.00
230, 54900.75, 38444.06, 8679.99, 31382.94, 22638.49, 52837.87, 21917.20, 0.00, 0.00, 0.00, 0.00
231, 54860.10, 38405.62, 8585.77, 31373.71, 22584.29, 53422.70, 21846.88, 0.00, 0.11, 0.93, 0.32
232, 54851.38, 38343.72, 8419.08, 31262.54, 22429.95, 54591.09, 21669.43, 0.00, 0.00, 0.00, 0.00
233, 54866.63, 38370.70, 8545.99, 31224.92, 22485.79, 53708.74, 21768.10, 0.00, 0.00, 0.00, 0.00
234, 54890.20, 38437.67, 8682.78, 31357.55, 22624.75, 52832.05, 21907.77, 0.00, 0.00, 0.00, 0.00
235, 54874.07, 38426.56, 8623.44, 31390.95, 22593.95, 53221.36, 21866.00, 0.00, 0.00, 0.00, 0.00
236, 54853.32, 38354.05, 8427.68, 31301.61, 22441.71, 54486.36, 21684.97, 0.00, 0.00, 0.00, 0.00
237, 54862.11, 38356.73, 8497.62, 31207.95, 22439.38, 53961.58, 21726.81, 0.00, 0.00, 0.00, 0.00
238, 54887.23, 38437.13, 8668.43, 31329.84, 22598.28, 52882.13, 21894.03, 0.00, 0.00, 0.00, 0.00
239, 54876.50, 38432.46, 8640.02, 31381.69, 22599.56, 53067.09, 21882.65, 0.00, 0.00, 0.00, 0.00
240, 54854.71, 38366.45, 8468.52, 31329.41, 22476.22, 54309.24, 21722.59, 0.00, 0.00, 0.00, 0.00
241, 54868.86, 38355.21, 8465.03, 31224.16, 22418.93, 54212.66, 21697.20, 0.00, 0.11, 0.94, 0.32
242, 54901.43, 38445.11, 8658.15, 31317.61, 22587.67, 52974.46, 21884.10, 0.00, 0.00, 0.00, 0.00
243, 54879.75, 38443.28, 8642.08, 31371.25, 22602.44, 52948.84, 21891.61, 0.00, 0.00, 0.00, 0.00
244, 54847.91, 38381.61, 8485.21, 31338.80, 22494.21, 54076.09, 21746.53, 0.00, 0.00, 0.00, 0.00
245, 54864.01, 38344.93, 8441.45, 31215.06, 22403.71, 54413.26, 21673.50, 0.00, 0.00, 0.00, 0.00
246, 54902.16, 38437.54, 8636.58, 31321.34, 22575.37, 53108.32, 21869.68, 0.00, 0.00, 0.00, 0.00
247, 54889.80, 38447.37, 8649.28, 31415.67, 22618.80, 52867.17, 21909.11, 0.00, 0.00, 0.00, 0.00
248, 54854.49, 38389.10, 8543.89, 31354.15, 22526.98, 53823.58, 21788.21, 0.00, 0.00, 0.00, 0.00
249, 54858.98, 38332.21, 8418.83, 31203.23, 22394.84, 54552.78, 21663.51, 0.00, 0.00, 0.00, 0.00
250, 54889.31, 38401.93, 8615.23, 31269.44, 22532.97, 53300.21, 21835.82, 0.00, 0.00, 0.00, 0.00
251, 54897.45, 38441.49, 8680.32, 31370.34, 22620.48, 52828.35, 21921.61, 0.00, 0.11, 0.94, 0.32
252, 54872.73, 38411.76, 8575.40, 31383.93, 22557.98, 53583.07, 21835.62, 0.00, 0.00, 0.00, 0.00
253, 54870.82, 38356.69, 8425.13, 31264.68, 22407.58, 54621.49, 21667.80, 0.00, 0.00, 0.00, 0.00
254, 54902.03, 38416.05, 8589.15, 31262.89, 22509.48, 53531.44, 21812.89, 0.00, 0.00, 0.00, 0.00
255, 54905.56, 38456.71, 8678.82, 31376.48, 22621.35, 52812.66, 21931.22, 0.00, 0.00, 0.00, 0.00
0, 54886.59, 38423.50, 8602.76, 31393.22, 22577.56, 53352.23, 21867.36, 0.00, 0.00, 0.00, 0.00
1, 54870.87, 38352.62, 8422.18, 31283.17, 22428.97, 54575.34, 21690.06, 0.00, 0.00, 0.00, 0.00
2, 54891.93, 38398.53, 8543.86, 31247.67, 22472.24, 53785.70, 21775.87, 0.00, 0.00, 0.00, 0.00
3, 54892.73, 38451.91, 8680.86, 31360.86, 22607.54, 52838.92, 21909.51, 0.00, 0.00, 0.00, 0.00
4, 54857.59, 38411.18, 8610.54, 31374.76, 22574.05, 53160.09, 21866.80, 0.00, 0.00, 0.00, 0.00
5, 54842.91, 38351.03, 8426.03, 31295.99, 22436.10, 54441.11, 21701.67, 0.00, 0.10, 0.93, 0.33
6, 54879.86, 38378.26, 8499.09, 31235.15, 22442.80, 54040.17, 21749.77, 0.00, 0.00, 0.00, 0.00
7, 54907.08, 38459.82, 8685.73, 31359.16, 22616.08, 52900.74, 21933.45, 0.00, 0.00, 0.00, 0.00
8, 54873.06, 38432.10, 8635.46, 31391.84, 22603.33, 53023.19, 21915.86, 0.00, 0.00, 0.00, 0.00
9, 54847.80, 38365.52, 8457.12, 31328.52, 22473.22, 54253.02, 21744.18, 0.00, 0.00, 0.00, 0.00
10, 54862.54, 38341.09, 8460.20, 31219.78, 22412.56, 54273.43, 21711.28, 0.00, 0.00, 0.00, 0.00
11, 54893.27, 38426.78, 8661.88, 31331.62, 22582.71, 52994.13, 21897.24, 0.00, 0.00, 0.00, 0.00
12, 54885.51, 38433.02, 8655.11, 31389.20, 22601.17, 52908.12, 21906.01, 0.00, 0.00, 0.00, 0.00
13, 54858.91, 38387.96, 8497.89, 31368.75, 22501.25, 54018.49, 21776.39, 0.00, 0.00, 0.00, 0.00
14, 54863.00, 38350.09, 8430.32, 31246.89, 22397.10, 54467.18, 21687.18, 0.00, 0.00, 0.00, 0.00
15, 54911.91, 38457.36, 8631.30, 31330.30, 22572.76, 53152.58, 21887.90, 0.00, 0.09, 0.93, 0.33
16, 54900.33, 38458.68, 8656.72, 31410.30, 22622.74, 52846.45, 21934.06, 0.00, 0.00, 0.00, 0.00
17, 54853.77, 38385.10, 8547.87, 31376.73, 22532.08, 53751.43, 21810.16, 0.00, 0.00, 0.00, 0.00
18, 54858.69, 38331.95, 8415.23, 31239.80, 22401.83, 54564.36, 21671.45, 0.00, 0.00, 0.00, 0.00
19, 54897.56, 38415.43, 8612.95, 31286.54, 22539.45, 53336.91, 21848.90, 0.00, 0.00, 0.00, 0.00
20, 54907.44, 38459.50, 8679.63, 31387.08, 22623.56, 52804.59, 21931.58, 0.00, 0.00, 0.00, 0.00
21, 54877.87, 38418.04, 8579.45, 31392.24, 22560.73, 53504.17, 21836.87, 0.00, 0.00, 0.00, 0.00
22, 54868.46, 38342.70, 8421.94, 31266.18, 22421.01, 54590.20, 21681.15, 0.00, 0.00, 0.00, 0.00
23, 54886.99, 38393.90, 8569.64, 31267.65, 22506.04, 53561.98, 21814.59, 0.00, 0.00, 0.00, 0.00
24, 54899.19, 38448.00, 8689.26, 31391.37, 22625.64, 52785.16, 21930.93, 0.00, 0.08, 0.93, 0.31
25, 54870.60, 38411.34, 8610.47, 31396.98, 22579.55, 53269.77, 21866.11, 0.00, 0.00, 0.00, 0.00
26, 54857.39, 38343.19, 8417.85, 31280.33, 22425.53, 54516.59, 21673.08, 0.00, 0.00, 0.00, 0.00
27, 54885.09, 38375.89, 8527.30, 31238.82, 22458.54, 53814.59, 21745.97, 0.00, 0.00, 0.00, 0.00
28, 54908.87, 38451.46, 8683.74, 31365.67, 22618.62, 52830.31, 21907.59, 0.00, 0.00, 0.00, 0.00
29, 54887.99, 38433.11, 8633.27, 31392.17, 22599.27, 53120.24, 21869.44, 0.00, 0.00, 0.00, 0.00
30, 54864.01, 38363.06, 8456.29, 31300.89, 22457.45, 54386.00, 21686.64, 0.00, 0.00, 0.00, 0.00
31, 54881.44, 38359.68, 8496.41, 31211.04, 22424.30, 54072.06, 21693.62, 0.00, 0.00, 0.00, 0.00
32, 54918.52, 38445.45, 8680.50, 31337.35, 22594.46, 52896.32, 21881.42, 0.00, 0.00, 0.00, 0.00
33, 54893.85, 38435.21, 8650.39, 31375.19, 22590.66, 52969.79, 21869.01, 0.00, 0.00, 0.00, 0.00
34, 54870.65, 38377.07, 8492.75, 31323.33, 22479.37, 54167.77, 21722.83, 0.00, 0.07, 0.94, 0.32
35, 54886.43, 38349.76, 8478.15, 31209.22, 22412.83, 54294.38, 21686.29, 0.00, 0.00, 0.00, 0.00
36, 54912.49, 38434.07, 8662.40, 31316.92, 22572.94, 53012.64, 21870.24, 0.00, 0.00, 0.00, 0.00
37, 54898.61, 38437.73, 8659.92, 31365.49, 22599.27, 52871.80, 21886.51, 0.00, 0.00, 0.00, 0.00
38, 54859.02, 38380.65, 8512.19, 31329.10, 22500.29, 53917.68, 21749.14, 0.00, 0.00, 0.00, 0.00
39, 54874.38, 38342.98, 8436.44, 31216.24, 22395.53, 54467.40, 21657.61, 0.00, 0.00, 0.00, 0.00
40, 54907.82, 38423.45, 8635.01, 31315.17, 22548.64, 53178.53, 21853.39, 0.00, 0.00, 0.00, 0.00
41, 54898.54, 38437.71, 8670.55, 31378.63, 22606.35, 52822.87, 21908.93, 0.00, 0.00, 0.00, 0.00
42, 54876.14, 38393.99, 8558.80, 31351.99, 22530.96, 53684.62, 21796.30, 0.00, 0.00, 0.00, 0.00
43, 54878.65, 38336.84, 8421.89, 31227.08, 22394.64, 54577.06, 21654.37, 0.00, 0.00, 0.00, 0.00
44, 54904.44, 38413.84, 8588.14, 31264.14, 22511.74, 53390.67, 21823.73, 0.00, 0.06, 0.94, 0.32
45, 54900.24, 38449.98, 8656.03, 31368.39, 22606.53, 52795.89, 21924.45, 0.00, 0.00, 0.00, 0.00
46, 54871.41, 38406.62, 8547.49, 31374.67, 22555.01, 53445.93, 21849.05, 0.00, 0.00, 0.00, 0.00
47, 54869.20, 38344.21, 8437.65, 31254.78, 22408.25, 54597.78, 21673.41, 0.00, 0.00, 0.00, 0.00
48, 54911.17, 38412.41, 8574.60, 31252.05, 22489.01, 53646.82, 21799.57, 0.00, 0.00, 0.00, 0.00
49, 54911.73, 38455.97, 8676.17, 31356.10, 22607.98, 52804.47, 21919.28, 0.00, 0.00, 0.00, 0.00
50, 54881.46, 38414.85, 8609.89, 31383.99, 22573.34, 53235.02, 21876.57, 0.00, 0.00, 0.00, 0.00
51, 54868.86, 38348.66, 8436.06, 31284.13, 22431.47, 54502.40, 21705.17, 0.00, 0.00, 0.00, 0.00
52, 54891.57, 38365.00, 8528.93, 31210.72, 22447.21, 53890.52, 21757.37, 0.00, 0.00, 0.00, 0.00
53, 54907.08, 38437.15, 8681.01, 31333.39, 22597.37, 52836.13, 21908.60, 0.00, 0.00, 0.00, 0.00
54, 54880.82, 38414.06, 8627.75, 31369.91, 22578.84, 53063.26, 21886.40, 0.00, 0.05, 0.94, 0.32
55, 54860.19, 38352.82, 8460.16, 31291.88, 22444.01, 54335.39, 21718.96, 0.00, 0.00, 0.00, 0.00
56, 54902.72, 38362.81, 8495.07, 31199.12, 22412.14, 54131.88, 21725.18, 0.00, 0.00, 0.00, 0.00
57, 54921.57, 38446.14, 8679.45, 31328.79, 22587.35, 52925.20, 21918.21, 0.00, 0.00, 0.00, 0.00
58, 54870.74, 38418.27, 8654.35, 31379.17, 22599.65, 52947.82, 21919.64, 0.00, 0.00, 0.00, 0.00
59, 54833.03, 38329.35, 8477.88, 31327.27, 22479.55, 54108.52, 21755.80, 0.00, 0.00, 0.00, 0.00
60, 54816.73, 38265.65, 8430.70, 31198.52, 22384.38, 54346.03, 21686.49, 0.00, 0.00, 0.00, 0.00
61, 54824.71, 38338.14, 8613.40, 31310.61, 22552.15, 53035.50, 21885.80, 0.00, 0.00, 0.00, 0.00
62, 54799.08, 38343.25, 8643.96, 31371.99, 22589.21, 52838.92, 21916.20, 0.00, 0.00, 0.00, 0.00
63, 54751.00, 38265.47, 8518.99, 31335.71, 22497.88, 53848.50, 21793.53, 0.00, 0.00, 0.00, 0.00
64, 54740.45, 38202.50, 8405.26, 31204.38, 22378.45, 54483.45, 21677.06, 0.00, 0.05, 0.93, 0.32
65, 54768.99, 38295.93, 8613.89, 31278.70, 22528.46, 53195.21, 21857.52, 0.00, 0.00, 0.00, 0.00
66, 54750.39, 38301.41, 8639.66, 31361.33, 22591.00, 52777.34, 21921.16, 0.00, 0.00, 0.00, 0.00
67, 54691.95, 38225.64, 8502.22, 31353.35, 22508.90, 53587.28, 21815.62, 0.00, 0.00, 0.00, 0.00
68, 54681.55, 38156.19, 8364.38, 31217.92, 22361.94, 54549.86, 21661.66, 0.00, 0.00, 0.00, 0.00
69, 54714.57, 38226.31, 8541.32, 31243.31, 22468.06, 53409.04, 21806.56, 0.00, 0.00, 0.00, 0.00
70, 54723.04, 38276.04, 8624.62, 31348.50, 22570.25, 52748.73, 21900.98, 0.00, 0.00, 0.00, 0.00
71, 54712.02, 38258.92, 8548.27, 31355.88, 22531.03, 53345.27, 21836.92, 0.00, 0.00, 0.00, 0.00
72, 54713.80, 38203.00, 8377.90, 31243.80, 22378.90, 54533.49, 21657.61, 0.00, 0.00, 0.00, 0.00
73, 54753.86, 38251.23, 8506.40, 31232.07, 22430.53, 53653.21, 21761.79, 0.00, 0.05, 0.94, 0.32
74, 54775.25, 38314.60, 8637.47, 31365.67, 22568.96, 52766.05, 21892.17, 0.00, 0.00, 0.00, 0.00
75, 54753.48, 38290.64, 8582.04, 31364.06, 22546.58, 53147.17, 21845.30, 0.00, 0.00, 0.00, 0.00
76, 54735.73, 38221.66, 8395.29, 31254.31, 22398.01, 54414.00, 21659.31, 0.00, 0.00, 0.00, 0.00
77, 54748.34, 38238.94, 8460.87, 31189.71, 22397.16, 53885.43, 21699.88, 0.00, 0.00, 0.00, 0.00
78, 54779.92, 38331.05, 8642.35, 31319.96, 22571.21, 52796.99, 21878.56, 0.00, 0.00, 0.00, 0.00
79, 54755.78, 38311.63, 8597.24, 31349.97, 22556.37, 52976.45, 21855.13, 0.00, 0.00, 0.00, 0.00
80, 54744.25, 38248.48, 8418.54, 31279.21, 22422.64, 54221.95, 21679.87, 0.00, 0.00, 0.00, 0.00
81, 54775.21, 38244.71, 8437.27, 31186.11, 22379.33, 54115.09, 21672.77, 0.00, 0.00, 0.00, 0.00
82, 54797.54, 38333.31, 8629.83, 31307.19, 22547.81, 52874.23, 21863.76, 0.00, 0.00, 0.00, 0.00
83, 54781.17, 38322.80, 8612.24, 31350.58, 22558.92, 52848.02, 21870.73, 0.00, 0.05, 0.94, 0.31
84, 54748.88, 38249.78, 8444.22, 31297.29, 22440.90, 53983.44, 21711.93, 0.00, 0.00, 0.00, 0.00
85, 54759.52, 38219.54, 8404.23, 31182.76, 22348.12, 54315.34, 21634.34, 0.00, 0.00, 0.00, 0.00
86, 54793.64, 38319.18, 8611.72, 31282.85, 22513.44, 53009.75, 21831.57, 0.00, 0.00, 0.00, 0.00
87, 54788.10, 38333.20, 8633.72, 31359.36, 22554.76, 52768.67, 21875.18, 0.00, 0.00, 0.00, 0.00
88, 54755.54, 38283.84, 8488.63, 31327.47, 22459.70, 53735.80, 21746.55, 0.00, 0.00, 0.00, 0.00
89, 54770.94, 38245.31, 8374.37, 31196.06, 22326.44, 54462.46, 21620.80, 0.00, 0.00, 0.00, 0.00
90, 54810.19, 38326.94, 8577.21, 31262.09, 22467.84, 53203.74, 21800.71, 0.00, 0.00, 0.00, 0.00
91, 54803.14, 38353.71, 8624.87, 31353.91, 22543.34, 52727.00, 21870.85, 0.00, 0.00, 0.00, 0.00
92, 54769.30, 38309.28, 8511.41, 31344.25, 22469.40, 53478.69, 21771.89, 0.00, 0.00, 0.00, 0.00
93, 54768.46, 38246.31, 8359.02, 31216.00, 22315.73, 54509.91, 21607.01, 0.00, 0.06, 0.95, 0.31
94, 54814.61, 38317.57, 8540.80, 31240.74, 22429.66, 53423.53, 21770.02, 0.00, 0.00, 0.00, 0.00
95, 54831.09, 38375.24, 8648.36, 31354.42, 22549.51, 52710.64, 21884.55, 0.00, 0.00, 0.00, 0.00
96, 54794.05, 38338.34, 8552.76, 31350.51, 22489.88, 53258.93, 21810.79, 0.00, 0.00, 0.00, 0.00
97, 54787.36, 38261.45, 8369.50, 31250.67, 22338.69, 54487.52, 21644.67, 0.00, 0.00, 0.00, 0.00
98, 54818.10, 38295.04, 8506.07, 31227.00, 22400.11, 53686.79, 21747.62, 0.00, 0.00, 0.00, 0.00
99, 54821.27, 38349.20, 8643.26, 31330.44, 22541.89, 52737.75, 21892.19, 0.00, 0.00, 0.00, 0.00
100, 54795.05, 38311.92, 8574.87, 31345.93, 22511.13, 53074.30, 21845.46, 0.00, 0.00, 0.00, 0.00
101, 54778.13, 38247.10, 8391.49, 31260.95, 22369.96, 54351.02, 21668.18, 0.00, 0.00, 0.00, 0.00
102, 54806.12, 38276.33, 8460.22, 31193.02, 22365.87, 53929.64, 21707.32, 0.00, 0.00, 0.00, 0.00
103, 54826.50, 38351.70, 8633.14, 31316.16, 22529.96, 52798.75, 21884.68, 0.00, 0.06, 0.95, 0.32
104, 54810.68, 38339.61, 8603.70, 31359.92, 22533.66, 52932.46, 21878.04, 0.00, 0.00, 0.00, 0.00
105, 54785.73, 38276.22, 8425.42, 31296.33, 22407.20, 54165.16, 21715.55, 0.00, 0.00, 0.00, 0.00
106, 54808.35, 38268.04, 8426.92, 31196.42, 22346.85, 54178.82, 21688.48, 0.00, 0.00, 0.00, 0.00
107, 54842.33, 38363.28, 8626.70, 31317.52, 22516.68, 52905.77, 21871.85, 0.00, 0.00, 0.00, 0.00
108, 54824.47, 38356.78, 8615.86, 31369.98, 22528.46, 52823.50, 21867.11, 0.00, 0.00, 0.00, 0.00
109, 54800.95, 38309.61, 8466.13, 31338.78, 22426.69, 53925.79, 21731.10, 0.00, 0.00, 0.00, 0.00
110, 54809.67, 38271.66, 8400.77, 31209.94, 22322.91, 54368.80, 21650.28, 0.00, 0.00, 0.00, 0.00
111, 54848.05, 38351.77, 8611.48, 31297.56, 22483.31, 53056.22, 21835.42, 0.00, 0.00, 0.00, 0.00
112, 54836.20, 38357.52, 8633.05, 31371.14, 22532.57, 52761.40, 21874.04, 0.00, 0.06, 0.94, 0.31
113, 54795.77, 38308.36, 8495.41, 31344.34, 22447.10, 53673.42, 21747.02, 0.00, 0.00, 0.00, 0.00
114, 54791.07, 38254.85, 8367.91, 31205.36, 22310.15, 54490.06, 21613.76, 0.00, 0.00, 0.00, 0.00
115, 54826.86, 38327.74, 8560.90, 31259.99, 22447.90, 53260.56, 21798.45, 0.00, 0.00, 0.00, 0.00
116, 54819.73, 38341.98, 8624.29, 31349.24, 22531.96, 52728.68, 21876.30, 0.00, 0.00, 0.00, 0.00
117, 54780.50, 38297.05, 8520.57, 31344.30, 22474.10, 53432.11, 21791.81, 0.00, 0.00, 0.00, 0.00
118, 54776.57, 38231.38, 8361.23, 31214.93, 22324.83, 54529.16, 21623.41, 0.00, 0.00, 0.00, 0.00
119, 54806.25, 38288.07, 8520.40, 31223.46, 22414.42, 53499.03, 21757.48, 0.00, 0.00, 0.00, 0.00
120, 54825.00, 38346.07, 8628.09, 31338.51, 22538.29, 52727.65, 21878.09, 0.00, 0.00, 0.00, 0.00
121, 54806.79, 38325.04, 8549.52, 31349.68, 22499.47, 53221.98, 21820.35, 0.00, 0.00, 0.00, 0.00
122, 54791.12, 38256.69, 8362.03, 31247.87, 22353.82, 54479.20, 21639.19, 0.00, 0.05, 0.94, 0.32
123, 54826.95, 38291.84, 8486.20, 31209.09, 22395.98, 53763.72, 21721.51, 0.00, 0.00, 0.00, 0.00
124, 54845.61, 38360.53, 8646.12, 31329.97, 22544.17, 52761.16, 21883.74, 0.00, 0.00, 0.00, 0.00
125, 54821.00, 38347.30, 8574.82, 31355.79, 22524.14, 53048.29, 21852.72, 0.00, 0.00, 0.00, 0.00
126, 54788.82, 38265.13, 8394.96, 31270.56, 22383.33, 54320.95, 21674.06, 0.00, 0.00, 0.00, 0.00
127, 54806.86, 38263.64, 8440.87, 31194.47, 22356.24, 54012.39, 21690.20, 0.00, 0.00, 0.00, 0.00
128, 54841.99, 38358.70, 8628.31, 31303.86, 22527.23, 52834.54, 21876.05, 0.00, 0.00, 0.00, 0.00
129, 54825.47, 38344.04, 8606.63, 31339.92, 22530.42, 52914.80, 21867.16, 0.00, 0.00, 0.00, 0.00
130, 54797.89, 38277.16, 8435.84, 31292.73, 22414.55, 54121.68, 21710.52, 0.00, 0.00, 0.00, 0.00
131, 54810.75, 38247.23, 8405.75, 31170.74, 22330.87, 54234.14, 21658.46, 0.00, 0.00, 0.00, 0.00
132, 54839.91, 38330.87, 8607.28, 31276.24, 22503.36, 52941.18, 21852.99, 0.00, 0.06, 0.94, 0.32
133, 54821.92, 38337.02, 8601.91, 31335.56, 22524.84, 52813.28, 21876.81, 0.00, 0.00, 0.00, 0.00
134, 54790.58, 38290.19, 8450.72, 31302.86, 22424.99, 53870.68, 21738.75, 0.00, 0.00, 0.00, 0.00
135, 54800.62, 38247.50, 8374.42, 31177.13, 22312.03, 54411.14, 21633.98, 0.00, 0.00, 0.00, 0.00
136, 54828.36, 38324.03, 8585.30, 31257.80, 22468.82, 53105.15, 21825.88, 0.00, 0.00, 0.00, 0.00
137, 54825.77, 38338.94, 8630.92, 31348.23, 22530.04, 52737.84, 21876.86, 0.00, 0.00, 0.00, 0.00
138, 54804.31, 38295.31, 8510.02, 31347.05, 22454.65, 53585.71, 21769.48, 0.00, 0.00, 0.00, 0.00
139, 54796.53, 38231.68, 8365.14, 31185.15, 22308.18, 54473.59, 21621.06, 0.00, 0.00, 0.00, 0.00
140, 54833.36, 38304.79, 8548.18, 31226.41, 22428.39, 53291.50, 21782.82, 0.00, 0.00, 0.00, 0.00
141, 54840.70, 38355.12, 8628.67, 31334.46, 22524.99, 52691.89, 21878.51, 0.00, 0.00, 0.00, 0.00
142, 54801.09, 38306.82, 8524.75, 31331.78, 22461.96, 53333.27, 21791.50, 0.00, 0.06, 0.94, 0.31
143, 54794.25, 38237.33, 8361.63, 31218.59, 22315.06, 54476.50, 21626.23, 0.00, 0.00, 0.00, 0.00
144, 54835.73, 38309.97, 8517.53, 31213.41, 22395.73, 53534.57, 21756.36, 0.00, 0.00, 0.00, 0.00
145, 54852.83, 38375.60, 8638.23, 31332.05, 22525.06, 52712.56, 21884.32, 0.00, 0.00, 0.00, 0.00
146, 54822.25, 38333.06, 8565.25, 31345.28, 22486.17, 53150.01, 21827.33, 0.00, 0.00, 0.00, 0.00
167, 54804.22, 38335.74, 8553.48, 31336.61, 22500.03, 53281.98, 21775.87, 0.00, 0.00, 0.00, 0.00
168, 54792.91, 38267.14, 8377.72, 31226.41, 22351.27, 54451.17, 21600.59, 0.00, 0.00, 0.00, 0.00
169, 54822.37, 38318.04, 8517.27, 31211.82, 22412.88, 53562.40, 21708.86, 0.00, 0.00, 0.00, 0.00
170, 54836.85, 38386.84, 8655.53, 31334.11, 22555.39, 52675.32, 21848.90, 0.00, 0.00, 0.00, 0.00
171, 54818.01, 38365.89, 8582.64, 31352.10, 22523.99, 53062.55, 21808.64, 0.00, 0.06, 0.94, 0.31
172, 54805.22, 38301.52, 8399.43, 31260.57, 22380.87, 54333.04, 21629.09, 0.00, 0.00, 0.00, 0.00
173, 54831.89, 38312.48, 8477.03, 31194.38, 22382.01, 53809.23, 21669.81, 0.00, 0.00, 0.00, 0.00
174, 54852.30, 38401.57, 8643.69, 31320.58, 22546.40, 52710.44, 21847.55, 0.00, 0.00, 0.00, 0.00
175, 54824.40, 38390.10, 8607.57, 31362.51, 22549.42, 52892.38, 21847.67, 0.00, 0.00, 0.00, 0.00
176, 54795.88, 38307.78, 8427.75, 31281.40, 22415.38, 54135.14, 21671.29, 0.00, 0.00, 0.00, 0.00
177, 54806.77, 38290.06, 8442.10, 31179.07, 22366.03, 54033.20, 21653.86, 0.00, 0.00, 0.00, 0.00
178, 54836.67, 38378.37, 8634.99, 31301.81, 22538.34, 52794.75, 21841.88, 0.00, 0.00, 0.00, 0.00
179, 54820.29, 38383.44, 8617.92, 31352.37, 22553.31, 52763.88, 21852.38, 0.00, 0.00, 0.00, 0.00
180, 54787.61, 38317.21, 8457.83, 31311.42, 22441.73, 53897.52, 21703.34, 0.00, 0.00, 0.00, 0.00
181, 54802.70, 38281.07, 8415.95, 31193.04, 22346.85, 54236.93, 21629.07, 0.00, 0.05, 0.94, 0.31
183, 54826.79, 38381.21, 8630.43, 31350.71, 22554.54, 52678.81, 21856.47, 0.00, 0.00, 0.00, 0.00
184, 54790.49, 38319.94, 8492.99, 31318.95, 22458.61, 53634.75, 21726.52, 0.00, 0.00, 0.00, 0.00
185, 54794.72, 38270.95, 8378.39, 31184.06, 22330.69, 54358.52, 21608.50, 0.00, 0.00, 0.00, 0.00
186, 54823.04, 38356.00, 8575.40, 31243.89, 22477.27, 53095.94, 21793.75, 0.00, 0.00, 0.00, 0.00
187, 54814.77, 38389.37, 8632.98, 31345.10, 22553.00, 52614.75, 21866.33, 0.00, 0.00, 0.00, 0.00
188, 54783.54, 38344.66, 8516.30, 31339.80, 22482.97, 53370.58, 21771.56, 0.00, 0.00, 0.00, 0.00
189, 54781.11, 38275.42, 8373.61, 31203.44, 22338.62, 54391.49, 21608.64, 0.00, 0.00, 0.00, 0.00
190, 54820.02, 38342.72, 8544.92, 31220.96, 22439.12, 53305.73, 21747.60, 0.00, 0.00, 0.00, 0.00
191, 54830.23, 38387.71, 8644.87, 31331.56, 22548.53, 52598.23, 21853.66, 0.00, 0.06, 0.95, 0.32
192, 54792.48, 38345.71, 8554.15, 31337.61, 22502.82, 53141.67, 21789.91, 0.00, 0.00, 0.00, 0.00
193, 54782.80, 38289.95, 8382.64, 31231.44, 22354.63, 54354.70, 21615.50, 0.00, 0.00, 0.00, 0.00
194, 54818.68, 38330.38, 8505.73, 31208.24, 22406.71, 53562.46, 21729.90, 0.00, 0.00, 0.00, 0.00
195, 54833.16, 38382.62, 8639.80, 31329.30, 22554.32, 52622.66, 21884.57, 0.00, 0.00, 0.00, 0.00
196, 54800.57, 38353.43, 8578.35, 31350.18, 22521.51, 52954.14, 21833.59, 0.00, 0.00, 0.00, 0.00
197, 54790.61, 38296.83, 8404.28, 31267.90, 22381.05, 54221.06, 21655.89, 0.00, 0.00, 0.00, 0.00
198, 54822.86, 38319.25, 8474.17, 31194.16, 22375.10, 53800.82, 21689.91, 0.00, 0.00, 0.00, 0.00
199, 54848.25, 38397.86, 8636.18, 31319.17, 22540.21, 52674.21, 21862.44, 0.00, 0.00, 0.00, 0.00
200, 54820.91, 38376.58, 8595.41, 31362.40, 22532.10, 52801.21, 21847.49, 0.00, 0.05, 0.94, 0.32
201, 54787.45, 38305.95, 8421.15, 31300.46, 22401.57, 54035.54, 21684.12, 0.00, 0.00, 0.00, 0.00
202, 54801.02, 38290.01, 8421.31, 31192.57, 22344.05, 54043.36, 21661.92, 0.00, 0.00, 0.00, 0.00
203, 54828.85, 38379.96, 8626.12, 31306.30, 22519.45, 52783.82, 21860.12, 0.00, 0.00, 0.00, 0.00
204, 54815.24, 38382.37, 8614.72, 31361.84, 22540.19, 52706.98, 21874.67, 0.00, 0.00, 0.00, 0.00
205, 54785.44, 38324.55, 8455.33, 31314.08, 22433.48, 53796.27, 21726.86, 0.00, 0.00, 0.00, 0.00
206, 54801.74, 38277.65, 8393.84, 31186.25, 22328.54, 54224.05, 21636.71, 0.00, 0.00, 0.00, 0.00
207, 54843.07, 38368.89, 8607.50, 31282.00, 22487.08, 52922.74, 21824.96, 0.00, 0.00, 0.00, 0.00
208, 54834.80, 38390.46, 8639.82, 31344.79, 22541.09, 52622.00, 21870.33, 0.00, 0.00, 0.00, 0.00
209, 54792.75, 38337.13, 8501.89, 31324.31, 22458.09, 53532.88, 21752.85, 0.00, 0.00, 0.00, 0.00
210, 54787.34, 38278.01, 8386.58, 31200.26, 22323.22, 54342.05, 21619.46, 0.00, 0.05, 0.94, 0.32
211, 54821.07, 38349.11, 8574.73, 31247.40, 22451.70, 53112.91, 21783.70, 0.00, 0.00, 0.00, 0.00
212, 54825.43, 38382.57, 8642.21, 31351.00, 22541.13, 52583.62, 21863.80, 0.00, 0.00, 0.00, 0.00
213, 54785.22, 38331.72, 8531.68, 31335.60, 22476.60, 53286.16, 21781.89, 0.00, 0.00, 0.00, 0.00
214, 54782.92, 38266.90, 8375.38, 31202.99, 22327.85, 54361.16, 21618.88, 0.00, 0.00, 0.00, 0.00
215, 54818.72, 38326.20, 8537.76, 31211.17, 22413.68, 53331.55, 21753.41, 0.00, 0.00, 0.00, 0.00
216, 54827.73, 38375.17, 8650.50, 31319.13, 22533.98, 52565.11, 21877.08, 0.00, 0.00, 0.00, 0.00
217, 54795.59, 38350.68, 8573.48, 31334.22, 22493.39, 53061.03, 21822.30, 0.00, 0.00, 0.00, 0.00
218, 54784.77, 38281.92, 8388.97, 31224.42, 22341.10, 54294.31, 21644.00, 0.00, 0.00, 0.00, 0.00
219, 54816.76, 38315.94, 8498.69, 31184.73, 22374.27, 53569.62, 21724.87, 0.00, 0.00, 0.00, 0.00
220, 54834.15, 38381.68, 8651.53, 31306.32, 22521.53, 52581.63, 21871.43, 0.00, 0.05, 0.94, 0.32
221, 54809.67, 38363.53, 8587.23, 31332.83, 22503.87, 52867.21, 21841.99, 0.00, 0.00, 0.00, 0.00
222, 54786.07, 38293.12, 8404.55, 31256.43, 22370.43, 54143.10, 21672.50, 0.00, 0.00, 0.00, 0.00
223, 54794.67, 38280.60, 8442.61, 31165.91, 22335.74, 53832.59, 21681.68, 0.00, 0.00, 0.00, 0.00
224, 54819.15, 38366.52, 8624.82, 31292.26, 22505.99, 52664.02, 21866.02, 0.00, 0.00, 0.00, 0.00
225, 54800.73, 38361.27, 8602.65, 31339.47, 22518.33, 52743.10, 21873.39, 0.00, 0.00, 0.00, 0.00
226, 54778.22, 38308.00, 8433.45, 31283.68, 22397.79, 53949.29, 21712.26, 0.00, 0.00, 0.00, 0.00
227, 54794.27, 38286.59, 8413.62, 31171.65, 22324.86, 54063.01, 21670.13, 0.00, 0.00, 0.00, 0.00
228, 54824.22, 38363.64, 8616.24, 31275.83, 22492.74, 52775.68, 21864.54, 0.00, 0.00, 0.00, 0.00
229, 54811.41, 38365.67, 8617.76, 31331.29, 22517.75, 52641.48, 21880.37, 0.00, 0.00, 0.00, 0.00
230, 54785.06, 38318.46, 8470.93, 31301.02, 22424.79, 53698.77, 21751.73, 0.00, 0.05, 0.94, 0.32
231, 54797.60, 38277.65, 8389.12, 31174.89, 22309.59, 54231.48, 21649.27, 0.00, 0.00, 0.00, 0.00
232, 54841.25, 38373.81, 8593.20, 31264.79, 22462.68, 52932.46, 21836.78, 0.00, 0.00, 0.00, 0.00
233, 54837.28, 38400.86, 8627.35, 31347.87, 22521.55, 52577.07, 21889.24, 0.00, 0.00, 0.00, 0.00
234, 54800.73, 38354.21, 8499.99, 31325.83, 22445.55, 53440.23, 21779.38, 0.00, 0.00, 0.00, 0.00
235, 54799.55, 38282.37, 8372.94, 31190.61, 22311.58, 54328.62, 21640.13, 0.00, 0.00, 0.00, 0.00
236, 54830.41, 38346.34, 8558.06, 31234.19, 22438.56, 53134.86, 21807.28, 0.00, 0.00, 0.00, 0.00
237, 54828.94, 38380.27, 8631.15, 31337.66, 22530.13, 52546.45, 21893.91, 0.00, 0.00, 0.00, 0.00
238, 54794.83, 38341.20, 8532.06, 31329.08, 22471.21, 53200.23, 21810.63, 0.00, 0.00, 0.00, 0.00
239, 54791.23, 38283.26, 8379.47, 31210.10, 22325.90, 54334.07, 21643.93, 0.00, 0.00, 0.00, 0.00
240, 54825.32, 38338.94, 8527.03, 31209.58, 22401.90, 53374.94, 21763.51, 0.00, 0.06, 0.94, 0.31
241, 54841.16, 38399.94, 8643.49, 31324.70, 22522.04, 52552.48, 21886.60, 0.00, 0.00, 0.00, 0.00
242, 54804.02, 38364.31, 8575.04, 31335.60, 22483.37, 52998.44, 21830.37, 0.00, 0.00, 0.00, 0.00
243, 54790.74, 38289.32, 8379.04, 31229.41, 22329.79, 54259.44, 21647.44, 0.00, 0.00, 0.00, 0.00
244, 54815.30, 38314.09, 8472.36, 31178.49, 22354.09, 53626.04, 21716.37, 0.00, 0.00, 0.00, 0.00
245, 54839.11, 38385.23, 8641.74, 31311.91, 22519.47, 52580.49, 21884.12, 0.00, 0.00, 0.00, 0.00
246, 54805.87, 38350.03, 8586.85, 31331.76, 22497.07, 52814.98, 21857.37, 0.00, 0.00, 0.00, 0.00
247, 54784.05, 38286.70, 8409.04, 31259.79, 22363.21, 54082.01, 21686.24, 0.00, 0.00, 0.00, 0.00
248, 54814.48, 38295.64, 8446.03, 31177.06, 22330.26, 53861.55, 21691.29, 0.00, 0.00, 0.00, 0.00
249, 54840.07, 38387.46, 8629.40, 31294.47, 22495.31, 52652.50, 21876.68, 0.00, 0.06, 0.94, 0.31
250, 54819.02, 38378.75, 8604.73, 31339.31, 22499.22, 52681.65, 21875.05, 0.00, 0.00, 0.00, 0.00
251, 54788.28, 38316.97, 8436.91, 31294.03, 22381.96, 53854.63, 21712.42, 0.00, 0.00, 0.00, 0.00
252, 54807.21, 38296.34, 8408.23, 31189.53, 22300.56, 54071.73, 21647.57, 0.00, 0.00, 0.00, 0.00
253, 54840.16, 38375.51, 8616.49, 31276.66, 22468.73, 52777.03, 21838.84, 0.00, 0.00, 0.00, 0.00
254, 54832.25, 38380.71, 8624.89, 31344.21, 22509.93, 52599.17, 21878.40, 0.00, 0.00, 0.00, 0.00
255, 54811.53, 38339.34, 8471.85, 31318.75, 22417.81, 53610.95, 21749.03, 0.00, 0.00, 0.00, 0.00
0, 54806.30, 38291.64, 8374.84, 31181.67, 22296.67, 54226.71, 21634.16, 0.00, 0.00, 0.00, 0.00
1, 54823.33, 38361.31, 8573.32, 31251.63, 22445.06, 52944.22, 21821.76, 0.00, 0.00, 0.00, 0.00
2, 54816.42, 38376.36, 8615.19, 31332.25, 22505.05, 52537.08, 21876.72, 0.00, 0.00, 0.00, 0.00
3, 54784.64, 38325.28, 8496.93, 31318.10, 22433.39, 53351.00, 21774.69, 0.00, 0.06, 0.94, 0.31
4, 54780.57, 38257.47, 8355.95, 31184.39, 22288.13, 54309.46, 21625.51, 0.00, 0.00, 0.00, 0.00
5, 54813.16, 38332.30, 8537.83, 31219.51, 22399.13, 53157.95, 21782.62, 0.00, 0.00, 0.00, 0.00
6, 54822.68, 38375.78, 8628.51, 31321.59, 22508.83, 52510.53, 21890.78, 0.00, 0.00, 0.00, 0.00
7, 54785.15, 38325.89, 8537.49, 31317.50, 22456.55, 53114.80, 21820.06, 0.00, 0.00, 0.00, 0.00
8, 54779.12, 38263.95, 8378.01, 31202.79, 22310.17, 54293.66, 21653.01, 0.00, 0.00, 0.00, 0.00
9, 54817.18, 38319.00, 8504.79, 31184.48, 22370.74, 53405.65, 21762.44, 0.00, 0.00, 0.00, 0.00
10, 54827.96, 38375.69, 8626.57, 31298.70, 22500.27, 52534.55, 21894.27, 0.00, 0.00, 0.00, 0.00
11, 54792.02, 38335.88, 8565.39, 31317.34, 22467.93, 52931.48, 21842.62, 0.00, 0.00, 0.00, 0.00
12, 54772.37, 38263.97, 8387.51, 31226.97, 22325.84, 54206.13, 21669.01, 0.00, 0.00, 0.00, 0.00
13, 54795.99, 38282.05, 8458.08, 31162.87, 22328.95, 53673.00, 21720.84, 0.00, 0.06, 0.95, 0.31
14, 54829.45, 38365.85, 8630.59, 31296.98, 22490.97, 52591.75, 21888.30, 0.00, 0.00, 0.00, 0.00
15, 54807.46, 38354.99, 8596.17, 31327.69, 22480.29, 52774.55, 21863.38, 0.00, 0.00, 0.00, 0.00
16, 54781.26, 38282.77, 8413.51, 31248.61, 22345.51, 54020.21, 21685.46, 0.00, 0.00, 0.00, 0.00
17, 54804.84, 38271.53, 8425.69, 31148.88, 22298.72, 53905.34, 21674.66, 0.00, 0.00, 0.00, 0.00
18, 54829.99, 38351.79, 8621.38, 31266.36, 22479.55, 52669.61, 21875.16, 0.00, 0.00, 0.00, 0.00
19, 54806.70, 38345.49, 8602.29, 31316.04, 22491.84, 52653.38, 21889.53, 0.00, 0.00, 0.00, 0.00
20, 54779.50, 38298.33, 8444.85, 31274.40, 22385.09, 53796.47, 21742.26, 0.00, 0.00, 0.00, 0.00
21, 54797.47, 38277.65, 8397.48, 31154.93, 22288.98, 54114.76, 21660.74, 0.00, 0.00, 0.00, 0.00
22, 54832.79, 38370.88, 8600.97, 31253.46, 22456.44, 52808.36, 21862.60, 0.00, 0.00, 0.00, 0.00
23, 54826.32, 38382.95, 8620.67, 31327.78, 22502.35, 52570.70, 21906.41, 0.00, 0.05, 0.94, 0.31
24, 54802.25, 38330.85, 8486.91, 31302.92, 22415.94, 53537.54, 21784.32, 0.00, 0.00, 0.00, 0.00
25, 54804.53, 38275.68, 8378.73, 31168.01, 22285.38, 54255.44, 21661.61, 0.00, 0.00, 0.00, 0.00
26, 54827.62, 38349.13, 8571.67, 31231.78, 22424.70, 52992.61, 21839.84, 0.00, 0.00, 0.00, 0.00
27, 54823.38, 38380.00, 8629.54, 31327.38, 22506.11, 52526.73, 21917.25, 0.00, 0.00, 0.00, 0.00
28, 54793.49, 38338.38, 8526.65, 31324.45, 22443.47, 53291.03, 21824.73, 0.00, 0.00, 0.00, 0.00
29, 54790.92, 38277.99, 8373.39, 31198.25, 22295.39, 54309.37, 21666.17, 0.00, 0.00, 0.00, 0.00
30, 54822.50, 38337.29, 8528.11, 31211.44, 22391.11, 53210.05, 21811.90, 0.00, 0.00, 0.00, 0.00
31, 54831.42, 38373.21, 8621.31, 31316.16, 22501.17, 52511.36, 21920.42, 0.00, 0.00, 0.00, 0.00
32, 54799.86, 38335.27, 8535.46, 31325.10, 22454.43, 53061.70, 21850.69, 0.00, 0.05, 0.94, 0.31
33, 54784.95, 38271.08, 8364.74, 31206.59, 22306.32, 54259.77, 21673.88, 0.00, 0.00, 0.00, 0.00
34, 54816.63, 38322.04, 8497.08, 31187.28, 22359.92, 53440.65, 21775.20, 0.00, 0.00, 0.00, 0.00
35, 54825.65, 38381.32, 8625.20, 31303.59, 22495.67, 52511.62, 21915.01, 0.00, 0.00, 0.00, 0.00
36, 54794.94, 38349.76, 8560.18, 31319.58, 22465.13, 52854.81, 21867.18, 0.00, 0.00, 0.00, 0.00
37, 54778.16, 38277.20, 8385.23, 31240.34, 22324.50, 54134.34, 21684.79, 0.00, 0.00, 0.00, 0.00
38, 54806.92, 38289.01, 8452.78, 31163.09, 22318.39, 53693.89, 21721.42, 0.00, 0.00, 0.00, 0.00
39, 54833.99, 38374.46, 8624.78, 31270.78, 22480.87, 52552.10, 21888.15, 0.00, 0.00, 0.00, 0.00
40, 54815.44, 38364.49, 8595.59, 31316.51, 22475.62, 52680.45, 21872.21, 0.00, 0.00, 0.00, 0.00
41, 54790.74, 38309.86, 8431.95, 31261.17, 22354.04, 53914.30, 21710.47, 0.00, 0.00, 0.00, 0.00
42, 54801.22, 38291.22, 8424.01, 31146.82, 22289.03, 53906.32, 21677.75, 0.00, 0.06, 0.94, 0.31
43, 54825.21, 38362.48, 8608.80, 31249.82, 22451.77, 52633.15, 21861.44, 0.00, 0.00, 0.00, 0.00
44, 54812.20, 38358.12, 8602.85, 31309.65, 22471.04, 52556.73, 21883.16, 0.00, 0.00, 0.00, 0.00
45, 54780.77, 38306.44, 8445.63, 31269.29, 22367.23, 53661.78, 21744.58, 0.00, 0.00, 0.00, 0.00
46, 54797.89, 38270.90, 8387.16, 31149.14, 22273.00, 54084.54, 21671.09, 0.00, 0.00, 0.00, 0.00
47, 54843.54, 38360.46, 8595.54, 31250.31, 22437.55, 52784.36, 21869.50, 0.00, 0.00, 0.00, 0.00
48, 54835.96, 38376.36, 8629.99, 31339.36, 22495.31, 52497.79, 21926.08, 0.00, 0.00, 0.00, 0.00
49, 54797.18, 38318.89, 8496.75, 31317.32, 22410.78, 53423.37, 21806.38, 0.00, 0.00, 0.00, 0.00
50, 54806.43, 38263.61, 8373.81, 31182.34, 22276.40, 54226.29, 21667.89, 0.00, 0.00, 0.00, 0.00
51, 54847.07, 38352.91, 8570.06, 31241.61, 22411.04, 52997.32, 21843.20, 0.00, 0.00, 0.00, 0.00
52, 54851.54, 38394.66, 8637.67, 31343.40, 22497.16, 52478.68, 21923.82, 0.00, 0.06, 0.95, 0.31
53, 54817.81, 38346.00, 8530.70, 31331.98, 22430.18, 53184.92, 21825.72, 0.00, 0.00, 0.00, 0.00
54, 54810.59, 38274.19, 8372.49, 31192.28, 22276.87, 54248.02, 21649.83, 0.00, 0.00, 0.00, 0.00
55, 54842.60, 38331.90, 8531.19, 31199.12, 22364.30, 53201.53, 21787.00, 0.00, 0.00, 0.00, 0.00
56, 54844.99, 38382.62, 8635.19, 31315.22, 22484.45, 52440.16, 21904.13, 0.00, 0.00, 0.00, 0.00
57, 54813.32, 38340.46, 8555.58, 31319.33, 22442.27, 52937.38, 21844.45, 0.00, 0.00, 0.00, 0.00
58, 54795.57, 38264.98, 8383.45, 31210.25, 22299.31, 54170.19, 21668.29, 0.00, 0.00, 0.00, 0.00
59, 54808.71, 38290.19, 8485.57, 31162.06, 22330.00, 53438.30, 21747.58, 0.00, 0.00, 0.00, 0.00
60, 54817.47, 38348.46, 8623.33, 31279.52, 22470.32, 52457.00, 21893.49, 0.00, 0.00, 0.00, 0.00
61, 54789.13, 38322.67, 8568.38, 31312.56, 22450.90, 52755.17, 21861.10, 0.00, 0.00, 0.00, 0.00
62, 54774.27, 38258.38, 8392.10, 31232.85, 22319.74, 54037.11, 21694.47, 0.00, 0.05, 0.94, 0.31
63, 54797.63, 38276.60, 8447.33, 31146.55, 22304.83, 53698.57, 21721.78, 0.00, 0.00, 0.00, 0.00
64, 54814.93, 38348.24, 8625.05, 31270.83, 22462.65, 52527.25, 21891.88, 0.00, 0.00, 0.00, 0.00
65, 54792.84, 38324.70, 8597.42, 31312.87, 22466.14, 52609.77, 21892.26, 0.00, 0.00, 0.00, 0.00
66, 54777.91, 38258.05, 8429.71, 31248.14, 22347.99, 53813.79, 21727.21, 0.00, 0.00, 0.00, 0.00
67, 54798.83, 38238.65, 8410.13, 31132.63, 22270.81, 53911.36, 21677.06, 0.00, 0.00, 0.00, 0.00
68, 54805.98, 38312.25, 8609.98, 31235.47, 22436.30, 52627.00, 21868.50, 0.00, 0.00, 0.00, 0.00
69, 54789.36, 38311.54, 8601.80, 31296.22, 22462.27, 52500.54, 21891.52, 0.00, 0.00, 0.00, 0.00
70, 54762.04, 38261.36, 8439.73, 31260.95, 22359.63, 53557.44, 21750.93, 0.00, 0.00, 0.00, 0.00
71, 54774.80, 38222.00, 8370.59, 31125.94, 22254.67, 54078.79, 21654.77, 0.00, 0.00, 0.00, 0.00
72, 54810.97, 38300.68, 8579.99, 31215.57, 22415.07, 52787.91, 21850.82, 0.00, 0.06, 0.94, 0.31
73, 54818.39, 38330.67, 8626.68, 31297.20, 22480.06, 52443.23, 21904.96, 0.00, 0.00, 0.00, 0.00
74, 54788.19, 38287.44, 8495.52, 31263.90, 22403.29, 53313.96, 21796.66, 0.00, 0.00, 0.00, 0.00
75, 54795.37, 38232.93, 8368.38, 31134.55, 22265.00, 54187.58, 21659.18, 0.00, 0.00, 0.00, 0.00
76, 54839.46, 38313.04, 8562.35, 31180.66, 22395.62, 52989.12, 21833.32, 0.00, 0.00, 0.00, 0.00
77, 54848.65, 38351.77, 8639.78, 31282.90, 22487.91, 52411.75, 21917.99, 0.00, 0.00, 0.00, 0.00
78, 54828.45, 38319.14, 8543.02, 31286.72, 22432.05, 53075.24, 21840.18, 0.00, 0.00, 0.00, 0.00
79, 54829.77, 38255.23, 8382.17, 31161.37, 22281.74, 54208.19, 21670.55, 0.00, 0.00, 0.00, 0.00
80, 54878.80, 38321.28, 8534.59, 31162.04, 22359.86, 53234.32, 21793.26, 0.00, 0.00, 0.00, 0.00
81, 54902.83, 38387.49, 8639.75, 31288.26, 22495.76, 52420.96, 21927.75, 0.00, 0.05, 0.94, 0.31
82, 54872.50, 38350.99, 8577.46, 31293.63, 22452.62, 52873.30, 21861.70, 0.00, 0.00, 0.00, 0.00
83, 54866.29, 38289.41, 8420.13, 31190.58, 22298.72, 54127.36, 21668.05, 0.00, 0.00, 0.00, 0.00
84, 54901.38, 38332.59, 8506.13, 31151.56, 22329.68, 53498.77, 21745.18, 0.00, 0.00, 0.00, 0.00
85, 54926.10, 38406.09, 8659.69, 31276.75, 22491.76, 52478.72, 21919.04, 0.00, 0.00, 0.00, 0.00
86, 54901.54, 38386.86, 8602.74, 31298.90, 22476.11, 52718.44, 21895.12, 0.00, 0.00, 0.00, 0.00
87, 54878.98, 38332.68, 8436.08, 31225.74, 22355.05, 53990.70, 21728.15, 0.00, 0.00, 0.00, 0.00
88, 54910.23, 38339.30, 8472.63, 31137.05, 22321.03, 53760.66, 21730.28, 0.00, 0.00, 0.00, 0.00
89, 54942.06, 38424.23, 8655.18, 31262.33, 22486.84, 52558.88, 21906.97, 0.00, 0.00, 0.00, 0.00
90, 54915.84, 38406.71, 8629.92, 31304.04, 22490.01, 52593.81, 21905.47, 0.00, 0.00, 0.00, 0.00
91, 54898.63, 38358.03, 8479.51, 31253.79, 22390.41, 53766.79, 21766.57, 0.00, 0.06, 0.93, 0.32
92, 54921.32, 38336.13, 8443.77, 31131.96, 22308.18, 53972.40, 21705.89, 0.00, 0.00, 0.00, 0.00
93, 54954.94, 38429.55, 8643.55, 31235.11, 22471.08, 52669.05, 21903.70, 0.00, 0.00, 0.00, 0.00
94, 54933.95, 38434.94, 8649.14, 31302.41, 22505.12, 52491.53, 21929.41, 0.00, 0.00, 0.00, 0.00
95, 54903.32, 38377.14, 8508.30, 31277.64, 22411.96, 53508.46, 21794.94, 0.00, 0.00, 0.00, 0.00
97, 54948.16, 38415.27, 8627.75, 31220.54, 22451.83, 52847.48, 21872.88, 0.00, 0.00, 0.00, 0.00
98, 54936.77, 38435.12, 8650.53, 31302.97, 22520.01, 52445.15, 21935.85, 0.00, 0.00, 0.00, 0.00
99, 54901.29, 38389.37, 8558.88, 31291.46, 22443.14, 53266.62, 21828.53, 0.00, 0.00, 0.00, 0.00
100, 54903.71, 38336.10, 8403.14, 31163.20, 22298.23, 54221.26, 21673.12, 0.00, 0.00, 0.00, 0.00
101, 54946.51, 38411.56, 8583.25, 31205.25, 22416.03, 53077.14, 21835.84, 0.00, 0.06, 0.94, 0.32
102, 54954.82, 38454.12, 8678.98, 31316.31, 22523.14, 52440.66, 21937.97, 0.00, 0.00, 0.00, 0.00
103, 54917.88, 38414.96, 8586.87, 31319.89, 22470.30, 53052.07, 21859.92, 0.00, 0.00, 0.00, 0.00
104, 54908.80, 38347.41, 8424.22, 31206.25, 22326.62, 54230.67, 21686.20, 0.00, 0.00, 0.00, 0.00
105, 54942.75, 38400.81, 8573.35, 31195.48, 22403.00, 53329.61, 21804.97, 0.00, 0.00, 0.00, 0.00
106, 54962.89, 38469.34, 8699.61, 31314.81, 22540.97, 52449.48, 21940.76, 0.00, 0.00, 0.00, 0.00
107, 54938.30, 38442.54, 8625.45, 31328.34, 22505.50, 52843.86, 21886.45, 0.00, 0.00, 0.00, 0.00
108, 54915.13, 38368.36, 8440.11, 31226.53, 22360.06, 54108.36, 21705.51, 0.00, 0.00, 0.00, 0.00
109, 54932.02, 38385.63, 8515.05, 31154.42, 22358.87, 53566.38, 21746.84, 0.00, 0.00, 0.00, 0.00
110, 54951.88, 38465.09, 8684.12, 31280.91, 22519.70, 52492.49, 21916.26, 0.00, 0.00, 0.00, 0.00
111, 54927.87, 38444.29, 8644.18, 31322.53, 22509.86, 52681.85, 21897.69, 0.00, 0.06, 0.93, 0.32
112, 54904.18, 38374.05, 8467.60, 31250.44, 22373.45, 53936.99, 21720.71, 0.00, 0.00, 0.00, 0.00
113, 54928.43, 38370.52, 8491.63, 31155.45, 22336.05, 53816.47, 21717.02, 0.00, 0.00, 0.00, 0.00
114, 54953.59, 38458.99, 8682.71, 31280.73, 22503.09, 52592.65, 21898.65, 0.00, 0.00, 0.00, 0.00
115, 54939.04, 38454.57, 8665.93, 31323.00, 22510.40, 52580.51, 21904.80, 0.00, 0.00, 0.00, 0.00
116, 54908.91, 38385.68, 8499.83, 31270.11, 22401.65, 53725.63, 21768.32, 0.00, 0.00, 0.00, 0.00
117, 54919.98, 38356.66, 8457.18, 31152.61, 22316.18, 54037.87, 21710.94, 0.00, 0.00, 0.00, 0.00
118, 54951.02, 38450.74, 8661.95, 31247.40, 22478.93, 52729.84, 21899.10, 0.00, 0.00, 0.00, 0.00
119, 54932.41, 38449.49, 8675.92, 31315.96, 22516.32, 52498.41, 21929.14, 0.00, 0.00, 0.00, 0.00
120, 54901.83, 38389.57, 8546.90, 31293.34, 22436.03, 53462.53, 21818.61, 0.00, 0.00, 0.00, 0.00
121, 54903.39, 38339.75, 8439.19, 31158.58, 22310.88, 54173.09, 21697.04, 0.00, 0.06, 0.93, 0.32
122, 54942.66, 38419.94, 8624.51, 31221.32, 22441.84, 52919.34, 21875.16, 0.00, 0.00, 0.00, 0.00
123, 54940.45, 38450.16, 8676.88, 31316.94, 22517.77, 52454.22, 21952.12, 0.00, 0.00, 0.00, 0.00
144, 54948.61, 38452.44, 8684.43, 31316.22, 22521.86, 52447.14, 21944.81, 0.00, 0.00, 0.00, 0.00
145, 54923.51, 38406.96, 8551.26, 31296.53, 22439.70, 53374.64, 21826.21, 0.00, 0.00, 0.00, 0.00
146, 54928.43, 38352.11, 8443.91, 31164.12, 22304.58, 54166.41, 21691.88, 0.00, 0.00, 0.00, 0.00
147, 54955.54, 38424.73, 8630.08, 31212.71, 22432.21, 52931.05, 21861.03, 0.00, 0.00, 0.00, 0.00
148, 54957.04, 38457.18, 8690.72, 31308.85, 22520.10, 52413.52, 21944.85, 0.00, 0.00, 0.00, 0.00
149, 54922.95, 38412.99, 8580.61, 31302.59, 22451.75, 53135.32, 21852.21, 0.00, 0.00, 0.00, 0.00
150, 54920.60, 38346.05, 8428.91, 31177.06, 22301.05, 54199.20, 21678.87, 0.00, 0.06, 0.94, 0.31
151, 54955.85, 38408.88, 8589.66, 31190.21, 22392.00, 53152.51, 21819.84, 0.00, 0.00, 0.00, 0.00
152, 54968.39, 38461.79, 8698.61, 31306.05, 22517.79, 52396.60, 21949.81, 0.00, 0.00, 0.00, 0.00
153, 54937.75, 38426.16, 8619.37, 31314.26, 22477.40, 52899.45, 21893.85, 0.00, 0.00, 0.00, 0.00
154, 54918.97, 38355.10, 8431.50, 31202.43, 22321.81, 54135.43, 21703.28, 0.00, 0.00, 0.00, 0.00
155, 54945.79, 38393.14, 8545.83, 31166.78, 22363.54, 53399.61, 21789.40, 0.00, 0.00, 0.00, 0.00
156, 54970.71, 38464.69, 8701.44, 31290.97, 22515.60, 52411.62, 21943.47, 0.00, 0.00, 0.00, 0.00
157, 54955.16, 38439.37, 8633.56, 31306.63, 22475.88, 52706.89, 21894.94, 0.00, 0.00, 0.00, 0.00
158, 54927.36, 38368.18, 8450.77, 31232.47, 22341.26, 53990.37, 21728.29, 0.00, 0.00, 0.00, 0.00
159, 54924.76, 38350.09, 8513.13, 31162.35, 22329.48, 53647.65, 21753.95, 0.00, 0.00, 0.00, 0.00
160, 54926.57, 38413.02, 8705.18, 31276.66, 22498.39, 52482.81, 21930.64, 0.00, 0.06, 0.94, 0.31
161, 54891.55, 38399.29, 8650.64, 31307.77, 22497.72, 52569.16, 21926.21, 0.00, 0.00, 0.00, 0.00
162, 54843.38, 38319.07, 8460.40, 31252.63, 22373.63, 53787.01, 21766.98, 0.00, 0.00, 0.00, 0.00
163, 54850.46, 38282.64, 8437.40, 31146.33, 22306.77, 53873.22, 21731.51, 0.00, 0.00, 0.00, 0.00
164, 54859.98, 38356.84, 8671.31, 31254.09, 22470.05, 52596.49, 21918.30, 0.00, 0.00, 0.00, 0.00
165, 54823.42, 38328.37, 8647.69, 31312.69, 22492.76, 52480.75, 21934.01, 0.00, 0.00, 0.00, 0.00
166, 54778.60, 38266.05, 8492.08, 31285.45, 22397.68, 53550.33, 21798.07, 0.00, 0.00, 0.00, 0.00
167, 54769.13, 38214.98, 8408.14, 31151.92, 22275.77, 54063.68, 21693.08, 0.00, 0.00, 0.00, 0.00
168, 54804.42, 38296.34, 8612.28, 31235.96, 22429.30, 52756.87, 21878.80, 0.00, 0.00, 0.00, 0.00
169, 54793.15, 38316.45, 8648.31, 31321.14, 22493.52, 52417.25, 21940.65, 0.00, 0.05, 0.95, 0.31
170, 54757.52, 38270.07, 8517.20, 31299.68, 22413.30, 53298.43, 21827.86, 0.00, 0.00, 0.00, 0.00
171, 54768.30, 38209.05, 8388.86, 31160.23, 22273.36, 54159.84, 21677.79, 0.00, 0.00, 0.00, 0.00
172, 54807.21, 38290.57, 8582.31, 31207.48, 22402.86, 52961.16, 21845.01, 0.00, 0.00, 0.00, 0.00
173, 54819.86, 38343.99, 8660.85, 31312.71, 22499.33, 52382.81, 21935.35, 0.00, 0.00, 0.00, 0.00
174, 54794.59, 38317.73, 8557.48, 31312.85, 22438.29, 53055.77, 21844.78, 0.00, 0.00, 0.00, 0.00
175, 54789.58, 38252.93, 8394.00, 31193.15, 22287.10, 54185.45, 21668.16, 0.00, 0.00, 0.00, 0.00
176, 54833.16, 38308.30, 8551.08, 31194.43, 22370.70, 53201.53, 21801.89, 0.00, 0.00, 0.00, 0.00
177, 54851.96, 38377.21, 8673.33, 31316.04, 22504.05, 52389.27, 21934.12, 0.00, 0.00, 0.00, 0.00
178, 54824.69, 38353.65, 8605.78, 31331.09, 22462.23, 52846.03, 21875.18, 0.00, 0.00, 0.00, 0.00
179, 54811.80, 38287.71, 8434.45, 31225.63, 22314.06, 54112.57, 21697.80, 0.00, 0.05, 0.95, 0.32
180, 54837.75, 38317.06, 8516.01, 31173.71, 22334.26, 53458.31, 21768.36, 0.00, 0.00, 0.00, 0.00
181, 54856.48, 38390.10, 8660.09, 31304.73, 22479.42, 52420.23, 21920.22, 0.00, 0.00, 0.00, 0.00
182, 54841.43, 38375.91, 8616.55, 31340.59, 22463.86, 52665.25, 21895.28, 0.00, 0.00, 0.00, 0.00
183, 54816.60, 38307.76, 8437.40, 31254.91, 22332.16, 53931.52, 21721.98, 0.00, 0.00, 0.00, 0.00
184, 54835.51, 38308.16, 8472.18, 31167.92, 22300.31, 53685.38, 21733.67, 0.00, 0.00, 0.00, 0.00
185, 54867.99, 38399.27, 8661.43, 31297.96, 22472.62, 52485.31, 21926.37, 0.00, 0.00, 0.00, 0.00
186, 54856.34, 38394.39, 8641.97, 31347.87, 22478.79, 52532.43, 21921.21, 0.00, 0.00, 0.00, 0.00
187, 54833.45, 38334.25, 8472.03, 31293.76, 22360.44, 53721.21, 21758.66, 0.00, 0.00, 0.00, 0.00
188, 54847.31, 38302.84, 8443.39, 31172.52, 22280.67, 53905.75, 21703.37, 0.00, 0.00, 0.00, 0.00
189, 54877.51, 38391.71, 8646.53, 31275.14, 22446.65, 52605.63, 21892.55, 0.00, 0.05, 0.95, 0.32
190, 54864.57, 38400.88, 8651.94, 31347.74, 22476.94, 52443.96, 21926.41, 0.00, 0.00, 0.00, 0.00
191, 54839.58, 38356.73, 8518.65, 31326.86, 22393.27, 53485.06, 21804.93, 0.00, 0.00, 0.00, 0.00
192, 54852.36, 38322.76, 8435.46, 31202.83, 22276.87, 54097.57, 21694.78, 0.00, 0.00, 0.00, 0.00
193, 54888.24, 38398.80, 8629.79, 31276.41, 22417.70, 52801.52, 21880.19, 0.00, 0.00, 0.00, 0.00
194, 54878.18, 38411.54, 8665.08, 31341.68, 22480.40, 52400.02, 21950.33, 0.00, 0.00, 0.00, 0.00
195, 54846.73, 38374.46, 8549.90, 31333.52, 22415.58, 53228.75, 21857.41, 0.00, 0.00, 0.00, 0.00
196, 54855.45, 38324.68, 8418.14, 31209.09, 22272.89, 54166.95, 21706.40, 0.00, 0.00, 0.00, 0.00
197, 54880.21, 38382.97, 8595.47, 31240.50, 22383.91, 53001.82, 21860.97, 0.00, 0.00, 0.00, 0.00
198, 54878.09, 38411.76, 8676.23, 31343.83, 22480.04, 52365.08, 21954.20, 0.00, 0.00, 0.00, 0.00
199, 54843.18, 38366.68, 8579.67, 31341.15, 22418.42, 52979.80, 21864.81, 0.00, 0.06, 0.95, 0.31
200, 54837.77, 38301.88, 8409.69, 31222.95, 22268.06, 54148.95, 21689.64, 0.00, 0.00, 0.00, 0.00
201, 54870.34, 38356.87, 8559.62, 31210.54, 22338.60, 53234.77, 21808.73, 0.00, 0.00, 0.00, 0.00
202, 54889.47, 38427.03, 8689.87, 31338.06, 22479.60, 52373.24, 21944.21, 0.00, 0.00, 0.00, 0.00
203, 54860.30, 38392.09, 8602.18, 31364.59, 22442.13, 52782.73, 21896.30, 0.00, 0.00, 0.00, 0.00
204, 54848.90, 38323.11, 8417.76, 31260.17, 22299.24, 54050.59, 21721.87, 0.00, 0.00, 0.00, 0.00
205, 54865.06, 38336.57, 8498.76, 31185.26, 22303.42, 53486.74, 21772.03, 0.00, 0.00, 0.00, 0.00
206, 54889.94, 38410.33, 8667.38, 31316.78, 22464.82, 52407.62, 21939.04, 0.00, 0.00, 0.00, 0.00
207, 54868.39, 38398.08, 8625.56, 31352.99, 22454.00, 52607.60, 21916.20, 0.00, 0.00, 0.00, 0.00
208, 54848.12, 38342.61, 8455.35, 31281.24, 22325.39, 53867.75, 21749.28, 0.00, 0.00, 0.00, 0.00
209, 54876.21, 38334.47, 8479.78, 31180.64, 22278.01, 53731.09, 21739.53, 0.00, 0.07, 0.94, 0.31
210, 54900.78, 38417.35, 8657.93, 31298.99, 22450.05, 52503.51, 21927.69, 0.00, 0.00, 0.00, 0.00
211, 54857.26, 38394.24, 8631.64, 31348.50, 22461.42, 52503.26, 21935.46, 0.00, 0.00, 0.00, 0.00
212, 54820.87, 38329.91, 8474.04, 31307.26, 22356.37, 53659.05, 21793.64, 0.00, 0.00, 0.00, 0.00
213, 54838.26, 38306.26, 8430.59, 31183.28, 22261.53, 53959.55, 21723.64, 0.00, 0.00, 0.00, 0.00
214, 54879.92, 38410.00, 8639.93, 31288.96, 22434.51, 52659.23, 21923.89, 0.00, 0.00, 0.00, 0.00
215, 54870.00, 38422.76, 8654.66, 31359.79, 22473.72, 52442.91, 21955.60, 0.00, 0.00, 0.00, 0.00
216, 54841.41, 38370.81, 8523.05, 31335.20, 22388.89, 53428.07, 21826.77, 0.00, 0.00, 0.00, 0.00
217, 54850.87, 38323.61, 8410.20, 31198.21, 22264.42, 54122.11, 21702.98, 0.00, 0.00, 0.00, 0.00
218, 54881.55, 38402.57, 8599.25, 31263.67, 22400.27, 52844.20, 21873.55, 0.00, 0.06, 0.94, 0.31
219, 54877.69, 38426.83, 8654.46, 31358.58, 22476.33, 52384.26, 21934.57, 0.00, 0.00, 0.00, 0.00
220, 54847.56, 38379.69, 8541.00, 31327.71, 22411.60, 53151.08, 21830.57, 0.00, 0.00, 0.00, 0.00
221, 54852.86, 38315.71, 8395.36, 31194.63, 22265.27, 54155.75, 21671.67, 0.00, 0.00, 0.00, 0.00
222, 54884.98, 38378.86, 8565.32, 31219.82, 22361.49, 53052.91, 21814.32, 0.00, 0.00, 0.00, 0.00
223, 54879.86, 38418.69, 8656.61, 31326.55, 22470.23, 52361.84, 21914.52, 0.00, 0.00, 0.00, 0.00
224, 54842.08, 38384.87, 8570.98, 31334.75, 22425.50, 52925.31, 21852.45, 0.00, 0.00, 0.00, 0.00
225, 54836.89, 38324.46, 8401.69, 31224.04, 22284.00, 54135.36, 21694.83, 0.00, 0.00, 0.00, 0.00
226, 54875.45, 38369.88, 8528.40, 31196.42, 22337.04, 53303.97, 21793.98, 0.00, 0.00, 0.00, 0.00
227, 54893.34, 38435.43, 8673.84, 31317.16, 22481.52, 52376.19, 21937.59, 0.00, 0.00, 0.00, 0.00
228, 54861.80, 38394.48, 8607.63, 31341.46, 22447.77, 52722.36, 21895.63, 0.00, 0.05, 0.94, 0.31
229, 54841.46, 38321.08, 8419.30, 31253.95, 22305.59, 53999.80, 21725.69, 0.00, 0.00, 0.00, 0.00
230, 54868.39, 38330.96, 8485.95, 31176.77, 22295.93, 53549.82, 21759.49, 0.00, 0.00, 0.00, 0.00
231, 54897.87, 38423.07, 8658.69, 31310.68, 22463.26, 52429.01, 21939.89, 0.00, 0.00, 0.00, 0.00
232, 54870.47, 38414.02, 8619.57, 31348.28, 22457.00, 52574.63, 21918.95, 0.00, 0.00, 0.00, 0.00
233, 54845.99, 38349.63, 8458.10, 31276.33, 22335.29, 53806.53, 21746.79, 0.00, 0.00, 0.00, 0.00
234, 54861.86, 38321.91, 8457.39, 31160.41, 22271.12, 53783.91, 21714.41, 0.00, 0.00, 0.00, 0.00
235, 54886.07, 38404.30, 8630.08, 31270.00, 22428.66, 52532.88, 21899.75, 0.00, 0.00, 0.00, 0.00
236, 54874.78, 38406.96, 8620.89, 31324.65, 22445.02, 52463.10, 21910.95, 0.00, 0.00, 0.00, 0.00
237, 54840.85, 38355.21, 8475.94, 31289.74, 22348.10, 53571.50, 21772.43, 0.00, 0.00, 0.00, 0.00
238, 54843.31, 38311.00, 8413.20, 31163.11, 22247.65, 53972.49, 21690.78, 0.00, 0.05, 0.94, 0.32
239, 54877.78, 38389.10, 8615.14, 31250.40, 22404.47, 52671.39, 21880.30, 0.00, 0.00, 0.00, 0.00
240, 54865.15, 38401.82, 8643.62, 31321.41, 22455.88, 52389.69, 21927.57, 0.00, 0.00, 0.00, 0.00
241, 54828.25, 38360.96, 8512.17, 31300.51, 22374.21, 53317.96, 21811.01, 0.00, 0.00, 0.00, 0.00
242, 54836.16, 38315.63, 8397.84, 31168.46, 22241.39, 54100.56, 21680.23, 0.00, 0.00, 0.00, 0.00
243, 54880.41, 38400.99, 8595.83, 31227.49, 22373.67, 52863.89, 21855.63, 0.00, 0.00, 0.00, 0.00
244, 54895.28, 38429.93, 8665.79, 31327.33, 22463.21, 52355.16, 21942.39, 0.00, 0.00, 0.00, 0.00
245, 54865.95, 38393.75, 8551.15, 31337.84, 22401.50, 53079.89, 21851.73, 0.00, 0.00, 0.00, 0.00
246, 54848.59, 38327.29, 8389.95, 31211.37, 22251.21, 54144.28, 21687.92, 0.00, 0.00, 0.00, 0.00
247, 54877.18, 38381.86, 8547.69, 31204.02, 22339.07, 53098.89, 21823.79, 0.00, 0.00, 0.00, 0.00
248, 54892.20, 38439.39, 8657.43, 31329.70, 22464.04, 52356.95, 21952.45, 0.00, 0.05, 0.94, 0.31
249, 54862.22, 38401.84, 8581.86, 31335.65, 22423.74, 52866.48, 21894.58, 0.00, 0.00, 0.00, 0.00
250, 54848.92, 38336.28, 8413.22, 31224.89, 22279.55, 54092.98, 21722.54, 0.00, 0.00, 0.00, 0.00
251, 54876.46, 38371.84, 8520.44, 31184.95, 22308.56, 53352.79, 21804.10, 0.00, 0.00, 0.00, 0.00
252, 54903.86, 38441.71, 8666.62, 31314.30, 22459.97, 52390.99, 21959.11, 0.00, 0.00, 0.00, 0.00
253, 54890.03, 38422.67, 8617.31, 31346.89, 22445.29, 52691.40, 21934.17, 0.00, 0.00, 0.00, 0.00
254, 54862.22, 38357.96, 8438.03, 31262.06, 22306.39, 53972.18, 21762.37, 0.00, 0.00, 0.00, 0.00
255, 54898.97, 38383.26, 8500.46, 31188.75, 22291.60, 53622.75, 21785.48, 0.00, 0.00, 0.00, 0.00
0, 54937.97, 38473.88, 8690.72, 31327.73, 22464.46, 52461.49, 21966.24, 0.00, 0.00, 0.00, 0.00
1, 54913.27, 38457.27, 8643.42, 31369.62, 22453.42, 52549.48, 21946.84, 0.00, 0.05, 0.94, 0.31
2, 54884.48, 38397.14, 8468.14, 31301.00, 22321.68, 53745.46, 21768.56, 0.00, 0.00, 0.00, 0.00
3, 54896.29, 38377.05, 8451.98, 31180.93, 22249.66, 53816.29, 21718.03, 0.00, 0.00, 0.00, 0.00
4, 54915.71, 38453.74, 8647.42, 31279.54, 22413.63, 52535.80, 21900.62, 0.00, 0.00, 0.00, 0.00
5, 54909.07, 38452.73, 8653.77, 31340.30, 22445.08, 52411.98, 21926.70, 0.00, 0.00, 0.00, 0.00
6, 54879.79, 38390.59, 8504.68, 31300.44, 22348.75, 53473.17, 21789.60, 0.00, 0.00, 0.00, 0.00
7, 54870.80, 38337.51, 8420.86, 31158.17, 22231.51, 53972.46, 21686.94, 0.00, 0.00, 0.00, 0.00
8, 54893.51, 38420.39, 8608.86, 31233.01, 22384.56, 52674.03, 21873.64, 0.00, 0.00, 0.00, 0.00
9, 54892.15, 38436.28, 8649.03, 31311.80, 22447.81, 52336.77, 21931.82, 0.00, 0.00, 0.00, 0.00
10, 54866.20, 38389.66, 8529.13, 31300.62, 22370.88, 53218.07, 21822.10, 0.00, 0.00, 0.00, 0.00
11, 54862.78, 38323.45, 8391.29, 31157.68, 22222.69, 54077.56, 21675.92, 0.00, 0.06, 0.94, 0.32
12, 54897.94, 38401.26, 8582.62, 31220.00, 22349.60, 52881.45, 21841.63, 0.00, 0.00, 0.00, 0.00
13, 54900.42, 38448.38, 8655.71, 31326.75, 22443.61, 52313.77, 21932.34, 0.00, 0.00, 0.00, 0.00
14, 54871.39, 38413.26, 8560.56, 31301.07, 22388.49, 52977.59, 21865.50, 0.00, 0.00, 0.00, 0.00
15, 54858.78, 38341.20, 8404.70, 31181.98, 22242.27, 54090.37, 21706.61, 0.00, 0.00, 0.00, 0.00
16, 54885.82, 38389.43, 8546.14, 31181.15, 22318.26, 53108.44, 21827.37, 0.00, 0.00, 0.00, 0.00
17, 54896.69, 38435.05, 8656.58, 31295.84, 22439.70, 52307.17, 21948.61, 0.00, 0.00, 0.00, 0.00
18, 54869.33, 38400.41, 8572.85, 31307.37, 22396.78, 52766.50, 21892.88, 0.00, 0.00, 0.00, 0.00
19, 54855.05, 38330.74, 8396.57, 31205.89, 22248.23, 54015.87, 21717.02, 0.00, 0.00, 0.00, 0.00
20, 54887.03, 38365.38, 8501.71, 31160.30, 22271.41, 53362.31, 21790.80, 0.00, 0.00, 0.00, 0.00
21, 54912.38, 38442.09, 8650.64, 31284.60, 22423.18, 52348.81, 21947.76, 0.00, 0.06, 0.94, 0.32
22, 54880.88, 38422.78, 8600.37, 31311.89, 22404.43, 52603.60, 21916.24, 0.00, 0.00, 0.00, 0.00
23, 54861.44, 38370.93, 8416.73, 31239.49, 22275.75, 53870.47, 21750.95, 0.00, 0.00, 0.00, 0.00
24, 54895.17, 38367.08, 8449.05, 31157.19, 22245.71, 53621.34, 21761.28, 0.00, 0.00, 0.00, 0.00
25, 54907.68, 38429.89, 8632.27, 31279.70, 22411.42, 52440.72, 21941.07, 0.00, 0.00, 0.00, 0.00
26, 54875.34, 38418.16, 8609.62, 31329.39, 22421.17, 52491.01, 21944.27, 0.00, 0.00, 0.00, 0.00
27, 54852.79, 38360.44, 8445.00, 31273.35, 22307.17, 53670.63, 21782.78, 0.00, 0.00, 0.00, 0.00
28, 54871.56, 38341.11, 8416.33, 31161.79, 22226.51, 53845.93, 21722.90, 0.00, 0.00, 0.00, 0.00
29, 54896.78, 38424.46, 8616.20, 31256.92, 22390.95, 52559.77, 21918.68, 0.00, 0.00, 0.00, 0.00
30, 54884.26, 38423.27, 8630.70, 31312.63, 22431.47, 52394.90, 21951.49, 0.00, 0.00, 0.00, 0.00
31, 54856.63, 38372.49, 8485.08, 31279.32, 22338.65, 53418.84, 21817.51, 0.00, 0.06, 0.94, 0.32
32, 54862.31, 38324.14, 8391.16, 31143.42, 22213.32, 54015.56, 21701.46, 0.00, 0.00, 0.00, 0.00
33, 54903.77, 38404.59, 8601.13, 31225.74, 22364.98, 52735.32, 21888.57, 0.00, 0.00, 0.00, 0.00
34, 54899.91, 38433.22, 8649.63, 31310.90, 22433.62, 52346.69, 21952.01, 0.00, 0.00, 0.00, 0.00
35, 54869.17, 38396.18, 8521.56, 31300.69, 22365.63, 53176.86, 21853.03, 0.00, 0.00, 0.00, 0.00
36, 54871.12, 38331.05, 8380.47, 31167.27, 22225.26, 54105.77, 21700.21, 0.00, 0.00, 0.00, 0.00
37, 54910.88, 38400.43, 8564.09, 31205.72, 22340.66, 52948.44, 21855.80, 0.00, 0.00, 0.00, 0.00
38, 54914.30, 38446.54, 8664.07, 31314.10, 22448.46, 52316.07, 21952.88, 0.00, 0.00, 0.00, 0.00
39, 54872.52, 38398.55, 8551.80, 31308.89, 22384.42, 52926.94, 21864.90, 0.00, 0.00, 0.00, 0.00
40, 54865.17, 38339.01, 8381.70, 31193.54, 22241.39, 54077.68, 21699.54, 0.00, 0.00, 0.00, 0.00
41, 54900.31, 38394.57, 8527.91, 31183.50, 22311.18, 53176.05, 21816.26, 0.00, 0.06, 0.95, 0.33
42, 54918.23, 38455.59, 8663.45, 31306.99, 22448.10, 52322.48, 21948.56, 0.00, 0.00, 0.00, 0.00
43, 54885.85, 38420.48, 8588.86, 31323.96, 22411.58, 52730.85, 21896.17, 0.00, 0.00, 0.00, 0.00
44, 54873.78, 38357.20, 8399.00, 31230.55, 22267.68, 53992.87, 21716.73, 0.00, 0.00, 0.00, 0.00
45, 54903.32, 38374.90, 8488.32, 31178.34, 22282.25, 53436.74, 21777.15, 0.00, 0.00, 0.00, 0.00
46, 54919.60, 38441.71, 8642.37, 31298.37, 22434.24, 52383.57, 21936.98, 0.00, 0.00, 0.00, 0.00
47, 54894.99, 38425.64, 8596.93, 31324.81, 22420.97, 52578.68, 21908.13, 0.00, 0.00, 0.00, 0.00
48, 54879.30, 38372.33, 8427.08, 31252.57, 22298.61, 53832.18, 21743.33, 0.00, 0.00, 0.00, 0.00
49, 54894.99, 38368.46, 8450.12, 31154.62, 22252.93, 53696.29, 21734.57, 0.00, 0.00, 0.00, 0.00
50, 54917.12, 38448.84, 8640.13, 31269.71, 22424.23, 52470.92, 21918.37, 0.00, 0.07, 0.95, 0.32
51, 54902.23, 38448.73, 8632.15, 31315.98, 22438.11, 52451.70, 21919.82, 0.00, 0.00, 0.00, 0.00
52, 54877.64, 38386.97, 8465.03, 31267.34, 22332.14, 53591.43, 21768.90, 0.00, 0.00, 0.00, 0.00
53, 54875.23, 38351.93, 8415.54, 31156.07, 22246.51, 53884.98, 21715.14, 0.00, 0.00, 0.00, 0.00
54, 54902.92, 38438.29, 8621.58, 31264.19, 22411.49, 52599.71, 21906.68, 0.00, 0.00, 0.00, 0.00
55, 54895.10, 38451.28, 8637.34, 31343.31, 22454.09, 52377.55, 21941.32, 0.00, 0.00, 0.00, 0.00
56, 54866.22, 38409.26, 8502.07, 31317.56, 22372.22, 53348.45, 21817.98, 0.00, 0.00, 0.00, 0.00
57, 54866.85, 38356.80, 8401.19, 31159.83, 22244.10, 54025.66, 21692.66, 0.00, 0.00, 0.00, 0.00
58, 54902.03, 38425.98, 8600.88, 31227.78, 22393.50, 52767.30, 21871.27, 0.00, 0.00, 0.00, 0.00
59, 54905.79, 38459.46, 8628.76, 31324.16, 22478.48, 52321.43, 21954.04, 0.00, 0.00, 0.00, 0.00
60, 54872.46, 38411.43, 8548.49, 31309.07, 22410.93, 53094.91, 21864.21, 0.00, 0.07, 0.94, 0.32
61, 54863.20, 38340.15, 8397.62, 31178.87, 22267.37, 54085.72, 21708.39, 0.00, 0.00, 0.00, 0.00
62, 54886.67, 38408.52, 8564.54, 31206.12, 22371.97, 52990.35, 21856.85, 0.00, 0.00, 0.00, 0.00
63, 54893.74, 38463.13, 8659.94, 31318.17, 22480.22, 52316.98, 21961.42, 0.00, 0.00, 0.00, 0.00
64, 54870.49, 38429.22, 8577.46, 31327.51, 22432.86, 52875.48, 21887.21, 0.00, 0.00, 0.00, 0.00
65, 54860.12, 38365.45, 8403.52, 31206.81, 22283.19, 54061.49, 21697.40, 0.00, 0.00, 0.00, 0.00
66, 54886.25, 38405.57, 8529.60, 31183.50, 22336.10, 53230.19, 21798.96, 0.00, 0.00, 0.00, 0.00
67, 54894.95, 38469.59, 8661.01, 31304.69, 22472.85, 52326.91, 21944.88, 0.00, 0.00, 0.00, 0.00
68, 54868.64, 38442.94, 8602.99, 31323.94, 22442.85, 52678.01, 21899.75, 0.00, 0.00, 0.00, 0.00
69, 54855.49, 38370.14, 8431.46, 31233.12, 22305.03, 53939.36, 21726.23, 0.00, 0.00, 0.00, 0.00
70, 54872.21, 38383.38, 8481.66, 31158.64, 22290.70, 53474.51, 21760.36, 0.00, 0.06, 0.94, 0.32
71, 54891.73, 38469.27, 8650.88, 31281.11, 22450.02, 52367.86, 21927.15, 0.00, 0.00, 0.00, 0.00
72, 54871.81, 38448.33, 8620.84, 31320.80, 22447.50, 52515.02, 21910.12, 0.00, 0.00, 0.00, 0.00
73, 54855.18, 38372.04, 8447.98, 31250.04, 22323.07, 53743.56, 21740.89, 0.00, 0.00, 0.00, 0.00
74, 54867.74, 38352.04, 8451.48, 31146.80, 22267.23, 53704.85, 21719.01, 0.00, 0.00, 0.00, 0.00
75, 54888.93, 38437.04, 8641.34, 31257.80, 22434.40, 52461.60, 21909.65, 0.00, 0.00, 0.00, 0.00
76, 54877.55, 38450.05, 8632.36, 31320.02, 22449.55, 52405.03, 21922.21, 0.00, 0.00, 0.00, 0.00
77, 54851.11, 38394.95, 8481.84, 31272.37, 22342.11, 53505.56, 21774.15, 0.00, 0.00, 0.00, 0.00
78, 54857.86, 38350.70, 8424.35, 31133.25, 22239.63, 53893.18, 21693.66, 0.00, 0.00, 0.00, 0.00
79, 54895.95, 38443.48, 8625.65, 31232.70, 22401.83, 52600.16, 21893.27, 0.00, 0.00, 0.00, 0.00
80, 54883.23, 38454.54, 8650.35, 31315.80, 22446.43, 52322.35, 21936.31, 0.00, 0.05, 0.95, 0.32
81, 54849.55, 38397.21, 8512.57, 31283.57, 22360.42, 53256.76, 21813.47, 0.00, 0.00, 0.00, 0.00
82, 54853.93, 38347.19, 8397.48, 31142.01, 22229.03, 54024.52, 21684.03, 0.00, 0.00, 0.00, 0.00
83, 54888.02, 38434.23, 8598.31, 31208.40, 22369.29, 52795.22, 21865.66, 0.00, 0.00, 0.00, 0.00
84, 54881.64, 38453.58, 8664.09, 31297.67, 22448.95, 52294.12, 21933.39, 0.00, 0.00, 0.00, 0.00
85, 54850.08, 38408.21, 8557.79, 31298.21, 22394.86, 53017.91, 21856.00, 0.00, 0.00, 0.00, 0.00
86, 54844.47, 38342.92, 8389.79, 31173.75, 22247.99, 54074.39, 21700.71, 0.00, 0.00, 0.00, 0.00
87, 54876.97, 38405.23, 8548.40, 31187.81, 22333.15, 53025.55, 21836.56, 0.00, 0.00, 0.00, 0.00
88, 54881.78, 38450.09, 8658.57, 31304.58, 22455.48, 52282.45, 21951.85, 0.00, 0.00, 0.00, 0.00
89, 54846.62, 38410.67, 8574.84, 31312.85, 22413.52, 52793.84, 21890.45, 0.00, 0.00, 0.00, 0.00
90, 54841.79, 38349.87, 8405.57, 31199.55, 22268.26, 54017.08, 21725.13, 0.00, 0.05, 0.95, 0.31
91, 54868.61, 38391.69, 8521.29, 31167.07, 22307.89, 53274.18, 21815.26, 0.00, 0.00, 0.00, 0.00
92, 54878.45, 38448.51, 8655.85, 31283.70, 22442.51, 52314.84, 21946.91, 0.00, 0.00, 0.00, 0.00
93, 54862.04, 38421.55, 8604.26, 31314.30, 22423.85, 52612.90, 21913.61, 0.00, 0.00, 0.00, 0.00
94, 54843.42, 38357.96, 8428.15, 31230.88, 22291.35, 53875.95, 21748.04, 0.00, 0.00, 0.00, 0.00
95, 54867.29, 38367.82, 8478.78, 31152.52, 22270.23, 53518.68, 21765.37, 0.00, 0.00, 0.00, 0.00
96, 54885.91, 38454.99, 8656.74, 31277.51, 22436.12, 52372.62, 21932.63, 0.00, 0.00, 0.00, 0.00
97, 54865.71, 38445.40, 8628.58, 31324.25, 22434.36, 52471.01, 21914.46, 0.00, 0.00, 0.00, 0.00
98, 54846.78, 38387.20, 8480.94, 31267.27, 22325.86, 53682.83, 21762.17, 0.00, 0.00, 0.00, 0.00
99, 54858.87, 38366.86, 8452.00, 31148.41, 22250.85, 53756.93, 21720.37, 0.00, 0.04, 0.94, 0.31
100, 54878.45, 38438.83, 8629.29, 31250.71, 22407.80, 52479.64, 21899.52, 0.00, 0.00, 0.00, 0.00
101, 54865.39, 38433.84, 8637.74, 31307.89, 22439.63, 52364.12, 21922.39, 0.00, 0.00, 0.00, 0.00
102, 54840.34, 38377.23, 8487.99, 31274.02, 22345.40, 53430.68, 21785.46, 0.00, 0.00, 0.00, 0.00
103, 54851.13, 38335.43, 8402.04, 31157.77, 22231.07, 53920.07, 21685.68, 0.00, 0.00, 0.00, 0.00
104, 54882.54, 38429.11, 8608.46, 31236.54, 22386.05, 52630.62, 21879.65, 0.00, 0.00, 0.00, 0.00
105, 54876.13, 38446.96, 8644.34, 31304.20, 22443.74, 52294.90, 21933.95, 0.00, 0.00, 0.00, 0.00
106, 54841.16, 38405.62, 8511.14, 31287.28, 22361.82, 53176.12, 21823.75, 0.00, 0.00, 0.00, 0.00
107, 54843.71, 38357.78, 8393.91, 31180.77, 22230.57, 54034.09, 21695.99, 0.00, 0.00, 0.00, 0.00
108, 54877.46, 38418.58, 8575.31, 31227.53, 22354.56, 52848.80, 21867.89, 0.00, 0.00, 0.00, 0.00
109, 54874.65, 38442.63, 8640.69, 31299.48, 22442.69, 52281.60, 21949.37, 0.00, 0.05, 0.93, 0.31
110, 54842.98, 38409.04, 8542.81, 31298.41, 22387.55, 52944.22, 21870.31, 0.00, 0.00, 0.00, 0.00
111, 54837.01, 38346.00, 8383.45, 31177.33, 22234.15, 54057.11, 21700.03, 0.00, 0.00, 0.00, 0.00
112, 54866.18, 38398.48, 8536.18, 31188.51, 22313.50, 53080.56, 21824.53, 0.00, 0.00, 0.00, 0.00
113, 54878.16, 38446.00, 8629.02, 31300.46, 22440.79, 52277.44, 21955.29, 0.00, 0.00, 0.00, 0.00
114, 54845.66, 38408.97, 8584.83, 31302.97, 22401.41, 52721.71, 21897.58, 0.00, 0.00, 0.00, 0.00
115, 54829.12, 38345.94, 8417.24, 31203.57, 22257.71, 53964.26, 21719.48, 0.00, 0.00, 0.00, 0.00
116, 54859.09, 38379.38, 8500.17, 31160.70, 22279.84, 53342.50, 21787.23, 0.00, 0.00, 0.00, 0.00
117, 54883.52, 38455.75, 8662.71, 31291.97, 22433.80, 52318.04, 21945.03, 0.00, 0.00, 0.00, 0.00
118, 54853.04, 38431.21, 8619.68, 31318.77, 22419.67, 52547.92, 21917.74, 0.00, 0.00, 0.00, 0.00
119, 54829.50, 38362.21, 8442.37, 31231.24, 22293.12, 53801.41, 21748.54, 0.00, 0.05, 0.94, 0.32
120, 54862.98, 38370.37, 8482.22, 31163.49, 22267.77, 53573.02, 21765.37, 0.00, 0.00, 0.00, 0.00
121, 54892.86, 38444.02, 8655.44, 31278.34, 22425.95, 52437.57, 21936.81, 0.00, 0.00, 0.00, 0.00
122, 54860.32, 38424.97, 8622.43, 31303.79, 22422.82, 52426.11, 21929.16, 0.00, 0.00, 0.00, 0.00
123, 54827.33, 38363.30, 8458.64, 31257.39, 22311.38, 53578.61, 21774.09, 0.00, 0.00, 0.00, 0.00
124, 54847.56, 38347.66, 8432.93, 31142.88, 22234.67, 53772.64, 21722.36, 0.00, 0.00, 0.00, 0.00
125, 54879.86, 38440.02, 8638.66, 31253.55, 22405.72, 52493.65, 21924.00, 0.00, 0.00, 0.00, 0.00
126, 54867.00, 38439.05, 8647.73, 31314.35, 22437.46, 52331.87, 21943.60, 0.00, 0.00, 0.00, 0.00
127, 54835.84, 38382.48, 8503.86, 31277.87, 22339.58, 53360.23, 21798.49, 0.00, 0.00, 0.00, 0.00
128, 54842.60, 38340.91, 8407.81, 31153.64, 22221.52, 53947.45, 21697.71, 0.00, 0.00, 0.00, 0.00
129, 54880.26, 38424.73, 8605.89, 31231.33, 22373.71, 52676.20, 21893.00, 0.00, 0.06, 0.94, 0.31
130, 54873.71, 38446.52, 8650.64, 31307.75, 22441.15, 52291.57, 21954.26, 0.00, 0.00, 0.00, 0.00
131, 54844.00, 38391.58, 8528.40, 31290.74, 22366.63, 53117.04, 21841.61, 0.00, 0.00, 0.00, 0.00
132, 54837.95, 38324.37, 8390.91, 31155.85, 22218.42, 54029.98, 21688.41, 0.00, 0.00, 0.00, 0.00
133, 54874.94, 38399.98, 8579.63, 31206.05, 22338.53, 52878.39, 21852.05, 0.00, 0.00, 0.00, 0.00
134, 54884.55, 38441.49, 8669.48, 31308.98, 22442.80, 52260.79, 21944.07, 0.00, 0.00, 0.00, 0.00
135, 54850.48, 38408.59, 8571.04, 31309.34, 22391.66, 52872.63, 21870.76, 0.00, 0.00, 0.00, 0.00
136, 54837.34, 38336.37, 8396.12, 31187.52, 22235.76, 54016.18, 21696.19, 0.00, 0.00, 0.00, 0.00
137, 54864.90, 38385.34, 8531.88, 31185.33, 22297.00, 53122.00, 21805.51, 0.00, 0.00, 0.00, 0.00
138, 54872.88, 38448.06, 8652.14, 31290.59, 22422.64, 52278.88, 21932.36, 0.00, 0.05, 0.94, 0.31
139, 54852.74, 38421.29, 8592.61, 31303.53, 22391.40, 52680.00, 21881.35, 0.00, 0.00, 0.00, 0.00
140, 54842.21, 38356.06, 8410.02, 31219.37, 22249.51, 53917.86, 21707.32, 0.00, 0.00, 0.00, 0.00
141, 54871.39, 38380.49, 8490.85, 31183.10, 22259.07, 53368.41, 21762.31, 0.00, 0.00, 0.00, 0.00
142, 54885.73, 38439.01, 8648.31, 31282.52, 22412.61, 52317.25, 21923.13, 0.00, 0.00, 0.00, 0.00
143, 54856.63, 38413.91, 8596.82, 31293.54, 22394.66, 52497.38, 21895.50, 0.00, 0.00, 0.00, 0.00
144, 54834.28, 38357.85, 8423.79, 31215.91, 22268.57, 53704.87, 21730.23, 0.00, 0.00, 0.00, 0.00
145, 54856.16, 38346.79, 8442.79, 31129.92, 22226.84, 53570.49, 21726.12, 0.00, 0.00, 0.00, 0.00
146, 54883.28, 38422.60, 8623.55, 31246.58, 22389.14, 52403.77, 21915.46, 0.00, 0.00, 0.00, 0.00
147, 54866.07, 38418.58, 8613.89, 31293.31, 22402.66, 52380.77, 21919.28, 0.00, 0.00, 0.00, 0.00
148, 54836.38, 38366.72, 8465.23, 31247.54, 22302.32, 53467.61, 21773.46, 0.00, 0.04, 0.94, 0.31
149, 54848.45, 38337.31, 8419.86, 31134.21, 22213.01, 53757.08, 21707.68, 0.00, 0.00, 0.00, 0.00
150, 54878.76, 38410.18, 8607.97, 31222.90, 22361.09, 52531.22, 21886.89, 0.00, 0.00, 0.00, 0.00
151, 54869.24, 38418.04, 8631.55, 31288.91, 22405.83, 52292.24, 21931.96, 0.00, 0.00, 0.00, 0.00
152, 54833.88, 38383.35, 8488.28, 31276.30, 22328.68, 53228.73, 21821.76, 0.00, 0.00, 0.00, 0.00
153, 54834.59, 38337.40, 8385.73, 31149.14, 22204.20, 53887.02, 21700.55, 0.00, 0.00, 0.00, 0.00
154, 54876.30, 38412.16, 8578.13, 31212.00, 22337.13, 52684.85, 21868.19, 0.00, 0.00, 0.00, 0.00
155, 54871.92, 38435.50, 8645.07, 31290.79, 22412.47, 52234.59, 21941.61, 0.00, 0.00, 0.00, 0.00
156, 54838.13, 38385.05, 8530.10, 31281.00, 22347.74, 52977.30, 21853.86, 0.00, 0.00, 0.00, 0.00
157, 54846.22, 38334.22, 8393.21, 31167.92, 22216.72, 53943.45, 21710.99, 0.00, 0.00, 0.00, 0.00
158, 54875.90, 38396.36, 8552.13, 31188.97, 22307.67, 52894.71, 21839.51, 0.00, 0.05, 0.94, 0.32
159, 54867.21, 38426.09, 8635.33, 31283.48, 22403.69, 52226.64, 21935.69, 0.00, 0.00, 0.00, 0.00
160, 54841.32, 38392.03, 8556.90, 31293.63, 22361.53, 52764.87, 21875.83, 0.00, 0.00, 0.00, 0.00
161, 54835.89, 38336.86, 8394.26, 31192.71, 22225.41, 53916.36, 21712.62, 0.00, 0.00, 0.00, 0.00
162, 54858.64, 38370.43, 8506.69, 31172.17, 22267.99, 53146.93, 21795.03, 0.00, 0.00, 0.00, 0.00
163, 54867.92, 38424.43, 8633.32, 31296.15, 22401.12, 52255.98, 21929.32, 0.00, 0.00, 0.00, 0.00
164, 54845.10, 38401.84, 8583.52, 31299.28, 22383.21, 52581.36, 21899.79, 0.00, 0.00, 0.00, 0.00
165, 54826.12, 38335.66, 8410.49, 31199.41, 22245.15, 53812.85, 21720.24, 0.00, 0.00, 0.00, 0.00
166, 54857.77, 38357.11, 8483.34, 31147.22, 22251.45, 53388.77, 21766.35, 0.00, 0.00, 0.00, 0.00
167, 54872.64, 38415.88, 8634.17, 31262.24, 22391.33, 52328.56, 21919.84, 0.00, 0.00, 0.00, 0.00
168, 54846.13, 38403.07, 8602.83, 31299.79, 22386.23, 52459.23, 21904.26, 0.00, 0.05, 0.94, 0.32
169, 54817.72, 38333.98, 8440.93, 31231.22, 22268.62, 53646.02, 21745.07, 0.00, 0.00, 0.00, 0.00
170, 54832.98, 38319.85, 8434.68, 31129.03, 22212.43, 53622.86, 21717.13, 0.00, 0.00, 0.00, 0.00
171, 54859.83, 38408.79, 8614.56, 31237.70, 22369.54, 52431.71, 21893.78, 0.00, 0.00, 0.00, 0.00
172, 54843.91, 38406.13, 8608.08, 31290.56, 22388.38, 52357.17, 21903.61, 0.00, 0.00, 0.00, 0.00
173, 54820.78, 38352.64, 8466.28, 31254.96, 22291.86, 53425.00, 21764.74, 0.00, 0.00, 0.00, 0.00
174, 54837.95, 38320.88, 8414.45, 31134.55, 22200.00, 53815.82, 21688.28, 0.00, 0.00, 0.00, 0.00
175, 54875.05, 38404.05, 8604.88, 31227.20, 22354.52, 52584.58, 21873.66, 0.00, 0.00, 0.00, 0.00
176, 54857.93, 38417.26, 8628.31, 31291.64, 22397.68, 52299.86, 21914.39, 0.00, 0.00, 0.00, 0.00
177, 54826.82, 38374.01, 8502.33, 31265.15, 22320.79, 53185.01, 21798.16, 0.00, 0.00, 0.00, 0.00
178, 54834.84, 38321.93, 8389.75, 31141.90, 22195.88, 53914.57, 21675.36, 0.00, 0.05, 0.94, 0.32
179, 54871.72, 38396.81, 8575.67, 31191.84, 22322.75, 52747.37, 21837.36, 0.00, 0.00, 0.00, 0.00
180, 54868.01, 38419.16, 8633.09, 31277.33, 22395.06, 52249.84, 21908.42, 0.00, 0.00, 0.00, 0.00
181, 54837.34, 38377.23, 8538.28, 31278.34, 22339.81, 52942.25, 21840.43, 0.00, 0.00, 0.00, 0.00
182, 54830.97, 38321.26, 8390.82, 31160.25, 22201.16, 53954.63, 21688.21, 0.00, 0.00, 0.00, 0.00
183, 54860.25, 38375.17, 8534.54, 31172.03, 22286.21, 52968.80, 21820.20, 0.00, 0.00, 0.00, 0.00
184, 54870.09, 38420.64, 8634.68, 31278.34, 22399.51, 52248.32, 21935.53, 0.00, 0.00, 0.00, 0.00
185, 54844.12, 38393.88, 8556.31, 31293.25, 22362.45, 52735.16, 21883.74, 0.00, 0.00, 0.00, 0.00
186, 54833.66, 38332.05, 8390.84, 31196.84, 22218.21, 53910.80, 21707.39, 0.00, 0.00, 0.00, 0.00
187, 54874.22, 38374.17, 8517.89, 31152.72, 22260.88, 53207.19, 21786.87, 0.00, 0.05, 0.94, 0.32
188, 54882.61, 38426.76, 8629.11, 31264.48, 22391.84, 52277.49, 21938.46, 0.00, 0.00, 0.00, 0.00
189, 54850.20, 38400.32, 8558.66, 31310.32, 22356.53, 52563.66, 21898.03, 0.00, 0.00, 0.00, 0.00
190, 54839.51, 38346.67, 8401.66, 31200.89, 22234.17, 53776.06, 21736.71, 0.00, 0.00, 0.00, 0.00
191, 54868.17, 38337.22, 8433.94, 31126.46, 22221.59, 53438.41, 21767.85, 0.00, 0.00, 0.00, 0.00
192, 54877.80, 38399.76, 8609.22, 31244.47, 22374.65, 52337.79, 21933.65, 0.00, 0.00, 0.00, 0.00
193, 54848.86, 38385.05, 8613.49, 31283.59, 22378.92, 52425.95, 21928.80, 0.00, 0.00, 0.00, 0.00
194, 54817.47, 38329.35, 8431.66, 31226.21, 22261.40, 53595.79, 21771.89, 0.00, 0.00, 0.00, 0.00
195, 54841.84, 38323.16, 8430.52, 31130.32, 22201.38, 53663.36, 21736.74, 0.00, 0.00, 0.00, 0.00
196, 54873.93, 38405.28, 8618.97, 31238.26, 22358.74, 52446.91, 21916.91, 0.00, 0.00, 0.00, 0.00
197, 54853.05, 38402.33, 8605.78, 31287.70, 22375.39, 52322.70, 21928.40, 0.00, 0.06, 0.94, 0.31
198, 54824.54, 38352.22, 8457.25, 31249.12, 22280.08, 53342.79, 21794.20, 0.00, 0.00, 0.00, 0.00
199, 54833.14, 38321.13, 8391.09, 31126.32, 22176.95, 53814.71, 21704.55, 0.00, 0.00, 0.00, 0.00
200, 54862.76, 38388.20, 8591.25, 31206.74, 22323.51, 52586.84, 21883.18, 0.00, 0.00, 0.00, 0.00
201, 54856.72, 38399.22, 8629.81, 31287.88, 22385.36, 52251.76, 21940.72, 0.00, 0.00, 0.00, 0.00
202, 54825.61, 38356.06, 8496.81, 31268.66, 22305.99, 53091.40, 21826.88, 0.00, 0.00, 0.00, 0.00
203, 54825.54, 38310.06, 8387.07, 31140.79, 22182.18, 53897.45, 21692.17, 0.00, 0.00, 0.00, 0.00
204, 54856.41, 38384.07, 8563.58, 31186.03, 22302.03, 52776.78, 21855.47, 0.00, 0.00, 0.00, 0.00
205, 54857.10, 38414.87, 8625.74, 31282.20, 22382.28, 52215.86, 21930.95, 0.00, 0.00, 0.00, 0.00
206, 54829.72, 38380.94, 8530.72, 31294.77, 22325.32, 52851.12, 21845.72, 0.00, 0.00, 0.00, 0.00
207, 54829.54, 38326.33, 8374.19, 31173.80, 22176.82, 53926.18, 21672.56, 0.00, 0.06, 0.94, 0.31
208, 54874.11, 38392.67, 8524.53, 31185.38, 22255.25, 52999.74, 21795.14, 0.00, 0.00, 0.00, 0.00
209, 54889.56, 38436.28, 8637.34, 31293.89, 22380.00, 52228.05, 21918.77, 0.00, 0.00, 0.00, 0.00
210, 54853.04, 38392.50, 8563.36, 31299.62, 22335.90, 52658.76, 21854.19, 0.00, 0.00, 0.00, 0.00
211, 54845.84, 38333.06, 8402.76, 31206.48, 22200.31, 53851.50, 21683.02, 0.00, 0.00, 0.00, 0.00
212, 54869.71, 38358.83, 8489.39, 31153.62, 22220.96, 53227.97, 21746.55, 0.00, 0.00, 0.00, 0.00
213, 54881.42, 38426.83, 8634.46, 31265.26, 22362.72, 52243.04, 21896.06, 0.00, 0.00, 0.00, 0.00
214, 54852.01, 38397.48, 8595.01, 31291.10, 22345.71, 52480.89, 21861.21, 0.00, 0.00, 0.00, 0.00
215, 54830.28, 38329.53, 8412.39, 31213.94, 22218.28, 53699.13, 21685.75, 0.00, 0.00, 0.00, 0.00
216, 54852.61, 38341.38, 8431.37, 31129.77, 22186.01, 53463.79, 21702.69, 0.00, 0.00, 0.00, 0.00
217, 54874.09, 38424.08, 8613.83, 31242.66, 22345.96, 52331.98, 21892.79, 0.00, 0.05, 0.94, 0.32
218, 54853.44, 38403.61, 8597.24, 31292.04, 22356.46, 52372.01, 21897.71, 0.00, 0.00, 0.00, 0.00
219, 54833.43, 38342.72, 8435.97, 31247.83, 22254.89, 53515.15, 21754.86, 0.00, 0.00, 0.00, 0.00
220, 54846.24, 38315.61, 8403.07, 31133.61, 22172.24, 53690.00, 21700.73, 0.00, 0.00, 0.00, 0.00
221, 54871.68, 38393.79, 8595.09, 31229.30, 22325.62, 52470.00, 21886.18, 0.00, 0.00, 0.00, 0.00
222, 54861.28, 38400.30, 8612.75, 31290.47, 22362.12, 52301.70, 21922.68, 0.00, 0.00, 0.00, 0.00
223, 54839.33, 38350.86, 8463.17, 31263.47, 22273.22, 53288.01, 21798.43, 0.00, 0.00, 0.00, 0.00
224, 54848.14, 38304.88, 8373.41, 31134.71, 22158.38, 53851.43, 21696.32, 0.00, 0.00, 0.00, 0.00
225, 54879.99, 38385.05, 8565.77, 31199.55, 22298.95, 52633.06, 21877.02, 0.00, 0.00, 0.00, 0.00
226, 54873.38, 38407.02, 8607.46, 31289.85, 22361.20, 52248.54, 21932.04, 0.00, 0.05, 0.94, 0.31
227, 54849.86, 38370.14, 8494.71, 31305.83, 22292.36, 53043.55, 21830.93, 0.00, 0.00, 0.00, 0.00
228, 54860.14, 38318.96, 8373.99, 31159.34, 22158.02, 53919.71, 21686.47, 0.00, 0.00, 0.00, 0.00
229, 54888.80, 38384.02, 8551.24, 31167.85, 22274.94, 52828.55, 21846.73, 0.00, 0.00, 0.00, 0.00
230, 54882.83, 38427.59, 8627.66, 31282.18, 22382.52, 52236.79, 21954.40, 0.00, 0.00, 0.00, 0.00
231, 54861.89, 38406.24, 8534.63, 31296.73, 22333.84, 52840.95, 21885.78, 0.00, 0.00, 0.00, 0.00
232, 54873.80, 38358.50, 8379.71, 31183.79, 22187.14, 53951.88, 21713.54, 0.00, 0.00, 0.00, 0.00
233, 54910.10, 38411.36, 8520.33, 31178.92, 22254.07, 53084.70, 21827.33, 0.00, 0.00, 0.00, 0.00
234, 54928.05, 38473.18, 8647.49, 31296.08, 22382.92, 52256.19, 21962.87, 0.00, 0.00, 0.00, 0.00
235, 54905.02, 38442.70, 8583.79, 31313.88, 22351.83, 52636.41, 21917.09, 0.00, 0.00, 0.00, 0.00
236, 54886.85, 38369.67, 8397.37, 31219.78, 22206.86, 53844.19, 21737.56, 0.00, 0.05, 0.94, 0.32
237, 54908.46, 38387.22, 8475.85, 31167.34, 22211.89, 53305.18, 21786.36, 0.00, 0.00, 0.00, 0.00
238, 54933.34, 38462.55, 8624.02, 31289.40, 22369.74, 52285.67, 21959.43, 0.00, 0.00, 0.00, 0.00
239, 54921.79, 38458.59, 8595.83, 31327.33, 22367.79, 52476.21, 21949.37, 0.00, 0.00, 0.00, 0.00
240, 54904.09, 38408.63, 8444.35, 31263.29, 22241.13, 53683.70, 21779.16, 0.00, 0.00, 0.00, 0.00
241, 54911.93, 38391.64, 8433.56, 31170.22, 22188.80, 53544.70, 21764.65, 0.00, 0.00, 0.00, 0.00
242, 54929.28, 38446.81, 8613.94, 31279.37, 22343.09, 52383.08, 21938.95, 0.00, 0.00, 0.00, 0.00
243, 54903.10, 38434.63, 8607.46, 31315.53, 22357.94, 52353.33, 21942.88, 0.00, 0.00, 0.00, 0.00
244, 54893.78, 38388.70, 8465.48, 31270.31, 22264.42, 53452.81, 21797.46, 0.00, 0.00, 0.00, 0.00
245, 54905.96, 38369.20, 8421.53, 31142.84, 22174.14, 53722.39, 21726.54, 0.00, 0.00, 0.00, 0.00
246, 54931.33, 38448.40, 8600.82, 31239.54, 22319.18, 52481.74, 21904.06, 0.00, 0.06, 0.94, 0.32
247, 54926.91, 38458.50, 8620.91, 31294.18, 22360.26, 52255.79, 21933.86, 0.00, 0.00, 0.00, 0.00
248, 54913.25, 38415.25, 8499.65, 31269.75, 22286.25, 53212.53, 21813.98, 0.00, 0.00, 0.00, 0.00
249, 54928.27, 38376.67, 8405.40, 31139.09, 22174.63, 53866.79, 21698.96, 0.00, 0.00, 0.00, 0.00
250, 54955.54, 38462.01, 8578.00, 31206.32, 22306.57, 52659.52, 21861.90, 0.00, 0.00, 0.00, 0.00
251, 54945.68, 38487.04, 8622.95, 31304.91, 22375.41, 52217.90, 21919.57, 0.00, 0.00, 0.00, 0.00
252, 54916.02, 38455.41, 8534.01, 31272.21, 22313.54, 52972.70, 21821.25, 0.00, 0.00, 0.00, 0.00
253, 54914.75, 38386.01, 8406.96, 31139.58, 22176.35, 53924.90, 21670.42, 0.00, 0.00, 0.00, 0.00
254, 54945.41, 38432.64, 8549.85, 31169.60, 22274.09, 52871.08, 21808.89, 0.00, 0.00, 0.00, 0.00
255, 54949.37, 38472.09, 8614.92, 31278.05, 22374.54, 52205.00, 21902.63, 0.00, 0.00, 0.00, 0.00
0, 54922.79, 38437.96, 8574.67, 31295.08, 22334.53, 52752.71, 21837.70, 0.00, 0.06, 0.94, 0.31
1, 54925.34, 38381.16, 8410.40, 31210.75, 22193.85, 53900.07, 21669.61, 0.00, 0.00, 0.00, 0.00
2, 54960.59, 38434.63, 8515.03, 31175.54, 22242.35, 53100.25, 21768.99, 0.00, 0.00, 0.00, 0.00
3, 54965.22, 38504.23, 8645.57, 31270.78, 22379.01, 52217.74, 21904.24, 0.00, 0.00, 0.00, 0.00
4, 54933.97, 38477.92, 8585.13, 31288.66, 22353.62, 52546.63, 21863.63, 0.00, 0.00, 0.00, 0.00
5, 54918.39, 38425.84, 8414.92, 31212.33, 22216.20, 53770.70, 21684.72, 0.00, 0.00, 0.00, 0.00
6, 54938.48, 38438.54, 8481.28, 31153.14, 22217.12, 53326.54, 21724.73, 0.00, 0.00, 0.00, 0.00
7, 54951.18, 38487.58, 8650.01, 31271.63, 22380.89, 52260.46, 21901.09, 0.00, 0.00, 0.00, 0.00
8, 54931.11, 38474.93, 8625.69, 31308.85, 22377.76, 52402.77, 21887.07, 0.00, 0.00, 0.00, 0.00
9, 54910.66, 38429.82, 8458.17, 31252.12, 22269.33, 53597.65, 21736.06, 0.00, 0.00, 0.00, 0.00
10, 54920.47, 38407.11, 8435.28, 31145.32, 22201.83, 53552.86, 21703.83, 0.00, 0.06, 0.94, 0.32
11, 54952.72, 38482.75, 8613.07, 31247.83, 22352.77, 52364.12, 21869.57, 0.00, 0.00, 0.00, 0.00
12, 54939.00, 38484.34, 8619.15, 31306.10, 22381.40, 52298.45, 21889.96, 0.00, 0.00, 0.00, 0.00
13, 54905.96, 38426.69, 8472.63, 31267.03, 22282.52, 53372.99, 21746.21, 0.00, 0.00, 0.00, 0.00
14, 54916.65, 38391.40, 8416.82, 31145.34, 22183.64, 53737.66, 21666.98, 0.00, 0.00, 0.00, 0.00
15, 54956.93, 38479.27, 8615.55, 31226.30, 22342.11, 52500.13, 21857.61, 0.00, 0.00, 0.00, 0.00
16, 54951.38, 38498.18, 8639.58, 31301.36, 22390.55, 52230.17, 21904.93, 0.00, 0.00, 0.00, 0.00
17, 54918.30, 38449.45, 8508.06, 31280.93, 22309.50, 53135.10, 21790.04, 0.00, 0.00, 0.00, 0.00
18, 54918.55, 38396.94, 8402.07, 31151.94, 22182.27, 53861.82, 21657.30, 0.00, 0.00, 0.00, 0.00
19, 54949.77, 38468.67, 8592.37, 31209.49, 22314.33, 52676.20, 21824.78, 0.00, 0.05, 0.94, 0.31
20, 54942.39, 38488.63, 8647.87, 31294.47, 22386.32, 52181.02, 21896.10, 0.00, 0.00, 0.00, 0.00
21, 54911.04, 38451.88, 8537.72, 31286.94, 22320.25, 52874.97, 21802.14, 0.00, 0.00, 0.00, 0.00
22, 54907.26, 38397.48, 8400.70, 31166.62, 22183.90, 53883.13, 21653.34, 0.00, 0.00, 0.00, 0.00
23, 54944.90, 38457.65, 8552.36, 31186.96, 22273.13, 52885.21, 21784.39, 0.00, 0.00, 0.00, 0.00
24, 54948.88, 38498.44, 8649.41, 31296.38, 22382.83, 52171.74, 21902.99, 0.00, 0.00, 0.00, 0.00
25, 54915.39, 38462.86, 8573.03, 31308.62, 22343.99, 52670.48, 21847.44, 0.00, 0.00, 0.00, 0.00
26, 54907.64, 38405.73, 8417.04, 31192.93, 22206.03, 53843.32, 21677.15, 0.00, 0.00, 0.00, 0.00
27, 54933.28, 38437.60, 8516.48, 31144.72, 22240.90, 53114.98, 21762.02, 0.00, 0.00, 0.00, 0.00
28, 54947.92, 38493.21, 8652.05, 31268.75, 22377.38, 52192.95, 21901.31, 0.00, 0.00, 0.00, 0.00
29, 54919.17, 38469.95, 8592.26, 31296.06, 22352.59, 52487.82, 21870.58, 0.00, 0.05, 0.94, 0.31
30, 54904.84, 38410.78, 8417.11, 31215.98, 22218.44, 53713.99, 21710.76, 0.00, 0.00, 0.00, 0.00
31, 54931.31, 38411.61, 8474.19, 31144.58, 22204.54, 53359.58, 21734.08, 0.00, 0.00, 0.00, 0.00
32, 54940.09, 38480.05, 8638.43, 31251.89, 22355.30, 52252.63, 21895.99, 0.00, 0.00, 0.00, 0.00
33, 54919.38, 38466.10, 8609.51, 31293.96, 22356.59, 52339.18, 21892.53, 0.00, 0.00, 0.00, 0.00
34, 54899.30, 38404.88, 8451.89, 31246.02, 22245.86, 53506.86, 21737.94, 0.00, 0.00, 0.00, 0.00
35, 54911.13, 38395.42, 8441.00, 31135.96, 22175.68, 53560.19, 21697.37, 0.00, 0.00, 0.00, 0.00
36, 54936.14, 38484.23, 8624.11, 31229.65, 22327.67, 52349.19, 21872.05, 0.00, 0.00, 0.00, 0.00
37, 54922.91, 38484.02, 8620.96, 31290.07, 22357.58, 52238.73, 21899.03, 0.00, 0.00, 0.00, 0.00
38, 54896.96, 38424.66, 8485.19, 31259.67, 22273.85, 53278.60, 21778.04, 0.00, 0.00, 0.00, 0.00
39, 54912.07, 38383.38, 8419.66, 31136.85, 22175.03, 53737.66, 21687.81, 0.00, 0.05, 0.94, 0.32
40, 54942.29, 38460.60, 8606.27, 31211.75, 22318.26, 52498.86, 21860.52, 0.00, 0.00, 0.00, 0.00
41, 54935.11, 38481.90, 8634.57, 31289.51, 22371.14, 52172.03, 21912.55, 0.00, 0.00, 0.00, 0.00
42, 54898.61, 38435.14, 8506.31, 31268.59, 22291.55, 53031.64, 21802.67, 0.00, 0.00, 0.00, 0.00
43, 54905.89, 38387.73, 8404.19, 31152.12, 22169.20, 53837.62, 21674.24, 0.00, 0.00, 0.00, 0.00
44, 54941.21, 38465.54, 8588.99, 31205.18, 22291.19, 52689.90, 21838.62, 0.00, 0.00, 0.00, 0.00
45, 54944.45, 38505.77, 8637.90, 31294.16, 22376.11, 52146.13, 21927.13, 0.00, 0.00, 0.00, 0.00
46, 54909.50, 38466.37, 8533.96, 31289.07, 22315.04, 52795.98, 21840.92, 0.00, 0.00, 0.00, 0.00
47, 54904.71, 38392.52, 8390.11, 31179.21, 22176.26, 53854.76, 21681.41, 0.00, 0.00, 0.00, 0.00
48, 54934.46, 38435.99, 8530.63, 31175.77, 22245.10, 52914.98, 21797.26, 0.00, 0.00, 0.00, 0.00
49, 54947.36, 38484.47, 8633.47, 31283.66, 22356.30, 52147.33, 21903.84, 0.00, 0.06, 0.93, 0.32
50, 54922.32, 38462.25, 8570.22, 31303.97, 22322.55, 52592.29, 21846.73, 0.00, 0.00, 0.00, 0.00
51, 54910.72, 38404.30, 8400.41, 31218.48, 22186.07, 53796.07, 21680.54, 0.00, 0.00, 0.00, 0.00
52, 54936.29, 38427.95, 8490.20, 31162.42, 22207.42, 53160.09, 21751.06, 0.00, 0.00, 0.00, 0.00
53, 54959.79, 38496.61, 8636.13, 31273.82, 22350.27, 52192.53, 21898.76, 0.00, 0.00, 0.00, 0.00
54, 54929.45, 38476.20, 8586.74, 31306.70, 22332.25, 52439.70, 21864.52, 0.00, 0.00, 0.00, 0.00
55, 54910.39, 38423.34, 8422.52, 31236.03, 22212.96, 53663.81, 21703.05, 0.00, 0.00, 0.00, 0.00
56, 54945.08, 38430.71, 8464.85, 31158.87, 22190.52, 53402.03, 21713.94, 0.00, 0.00, 0.00, 0.00
57, 54955.79, 38489.77, 8636.80, 31266.42, 22347.97, 52258.62, 21882.54, 0.00, 0.00, 0.00, 0.00
58, 54930.71, 38466.81, 8618.99, 31305.16, 22355.30, 52295.39, 21882.78, 0.00, 0.00, 0.00, 0.00
59, 54909.63, 38406.69, 8459.71, 31251.16, 22250.63, 53434.23, 21741.38, 0.00, 0.06, 0.93, 0.33
60, 54923.58, 38390.06, 8445.79, 31143.15, 22179.93, 53585.13, 21692.61, 0.00, 0.00, 0.00, 0.00
61, 54959.79, 38480.96, 8620.02, 31244.21, 22332.32, 52359.32, 21870.47, 0.00, 0.00, 0.00, 0.00
62, 54938.86, 38482.50, 8618.68, 31310.97, 22357.62, 52198.45, 21891.50, 0.00, 0.00, 0.00, 0.00
63, 54916.96, 38434.27, 8494.18, 31282.27, 22275.17, 53197.06, 21770.55, 0.00, 0.00, 0.00, 0.00
64, 54933.23, 38395.38, 8413.46, 31157.73, 22167.65, 53747.52, 21674.93, 0.00, 0.00, 0.00, 0.00
65, 54957.86, 38459.33, 8590.60, 31226.03, 22302.75, 52521.19, 21845.23, 0.00, 0.00, 0.00, 0.00
66, 54950.00, 38465.65, 8629.90, 31300.62, 22364.10, 52148.36, 21901.27, 0.00, 0.00, 0.00, 0.00
67, 54918.21, 38422.89, 8520.42, 31289.27, 22300.58, 52953.61, 21797.73, 0.00, 0.00, 0.00, 0.00
68, 54916.40, 38374.34, 8378.89, 31172.55, 22159.50, 53830.73, 21646.70, 0.00, 0.06, 0.94, 0.32
69, 54945.44, 38443.64, 8557.10, 31209.49, 22269.89, 52722.13, 21809.67, 0.00, 0.00, 0.00, 0.00
70, 54947.76, 38471.78, 8640.83, 31293.65, 22376.53, 52122.70, 21920.65, 0.00, 0.00, 0.00, 0.00
71, 54916.76, 38433.78, 8555.33, 31296.87, 22328.70, 52726.96, 21842.57, 0.00, 0.00, 0.00, 0.00
72, 54915.02, 38383.11, 8394.58, 31187.61, 22184.87, 53833.35, 21674.42, 0.00, 0.00, 0.00, 0.00
73, 54942.02, 38423.05, 8518.56, 31171.00, 22239.94, 52959.28, 21776.54, 0.00, 0.00, 0.00, 0.00
74, 54954.58, 38471.78, 8638.48, 31282.94, 22364.46, 52151.74, 21906.23, 0.00, 0.00, 0.00, 0.00
75, 54920.80, 38438.90, 8572.92, 31298.01, 22330.53, 52556.44, 21852.83, 0.00, 0.00, 0.00, 0.00
96, 54914.43, 38440.55, 8538.77, 31291.12, 22297.05, 52667.95, 21833.14, 0.00, 0.00, 0.00, 0.00
97, 54913.12, 38386.48, 8388.01, 31185.40, 22162.56, 53808.31, 21679.47, 0.00, 0.00, 0.00, 0.00
98, 54947.16, 38431.88, 8521.09, 31170.54, 22214.53, 53016.55, 21780.46, 0.00, 0.06, 0.94, 0.32
99, 54958.64, 38481.75, 8633.05, 31282.63, 22341.06, 52152.72, 21914.12, 0.00, 0.00, 0.00, 0.00
100, 54920.65, 38441.71, 8562.10, 31297.04, 22306.10, 52496.56, 21868.12, 0.00, 0.00, 0.00, 0.00
101, 54902.83, 38375.69, 8399.58, 31215.28, 22175.79, 53724.79, 21697.91, 0.00, 0.00, 0.00, 0.00
102, 54925.52, 38393.46, 8467.09, 31158.91, 22171.12, 53270.00, 21736.91, 0.00, 0.00, 0.00, 0.00
103, 54950.55, 38473.07, 8624.51, 31262.00, 22319.85, 52214.41, 21892.19, 0.00, 0.00, 0.00, 0.00
104, 54927.69, 38460.67, 8592.32, 31295.53, 22315.80, 52359.88, 21878.71, 0.00, 0.00, 0.00, 0.00
105, 54909.14, 38392.23, 8423.10, 31234.17, 22197.54, 53557.21, 21724.31, 0.00, 0.00, 0.00, 0.00
106, 54937.39, 38389.39, 8439.30, 31138.53, 22149.86, 53511.89, 21712.01, 0.00, 0.00, 0.00, 0.00
107, 54964.48, 38470.91, 8614.34, 31252.39, 22312.00, 52321.66, 21895.86, 0.00, 0.06, 0.94, 0.32
108, 54942.33, 38472.98, 8595.85, 31309.67, 22329.53, 52265.51, 21910.03, 0.00, 0.00, 0.00, 0.00
109, 54916.96, 38422.98, 8448.69, 31265.33, 22232.47, 53339.75, 21771.43, 0.00, 0.00, 0.00, 0.00
110, 54929.86, 38390.46, 8400.90, 31155.94, 22131.96, 53688.48, 21687.14, 0.00, 0.00, 0.00, 0.00
111, 54960.28, 38467.11, 8583.99, 31247.16, 22269.89, 52451.52, 21850.73, 0.00, 0.00, 0.00, 0.00
112, 54928.61, 38443.79, 8604.21, 31293.18, 22327.22, 52172.73, 21905.04, 0.00, 0.00, 0.00, 0.00
113, 54876.88, 38365.43, 8473.50, 31257.28, 22255.92, 53077.48, 21806.03, 0.00, 0.00, 0.00, 0.00
114, 54893.69, 38326.31, 8361.03, 31135.67, 22129.99, 53799.55, 21684.28, 0.00, 0.00, 0.00, 0.00
115, 54918.77, 38400.56, 8537.87, 31189.31, 22257.38, 52616.38, 21836.33, 0.00, 0.00, 0.00, 0.00
116, 54906.19, 38420.37, 8620.71, 31270.80, 22330.40, 52128.76, 21896.51, 0.00, 0.00, 0.00, 0.00
117, 54869.78, 38376.83, 8502.87, 31275.77, 22273.27, 52840.62, 21816.17, 0.00, 0.06, 0.93, 0.32
118, 54863.34, 38302.11, 8359.35, 31186.70, 22131.65, 53849.78, 21658.01, 0.00, 0.00, 0.00, 0.00
119, 54891.32, 38355.61, 8514.47, 31173.51, 22216.63, 52835.92, 21787.27, 0.00, 0.00, 0.00, 0.00
120, 54893.63, 38397.55, 8614.65, 31249.66, 22328.56, 52122.12, 21895.77, 0.00, 0.00, 0.00, 0.00
121, 54867.61, 38368.24, 8538.57, 31269.22, 22290.86, 52614.08, 21833.54, 0.00, 0.00, 0.00, 0.00
122, 54856.90, 38300.36, 8368.47, 31161.33, 22142.96, 53784.35, 21654.99, 0.00, 0.00, 0.00, 0.00
123, 54889.82, 38335.90, 8487.36, 31133.43, 22183.14, 53057.83, 21736.04, 0.00, 0.00, 0.00, 0.00
124, 54905.88, 38395.16, 8621.45, 31246.64, 22321.01, 52140.76, 21877.98, 0.00, 0.00, 0.00, 0.00
125, 54877.02, 38370.77, 8558.55, 31270.38, 22294.66, 52438.11, 21839.22, 0.00, 0.00, 0.00, 0.00
126, 54862.55, 38315.56, 8383.20, 31190.38, 22156.41, 53661.06, 21667.51, 0.00, 0.00, 0.00, 0.00
127, 54893.29, 38344.06, 8439.59, 31138.68, 22148.16, 53300.28, 21702.49, 0.00, 0.06, 0.94, 0.33
128, 54911.95, 38409.08, 8606.29, 31245.32, 22311.78, 52209.63, 21878.27, 0.00, 0.00, 0.00, 0.00
129, 54889.73, 38387.40, 8572.50, 31275.52, 22311.55, 52299.14, 21868.21, 0.00, 0.00, 0.00, 0.00
130, 54855.79, 38326.63, 8412.59, 31221.47, 22196.96, 53470.02, 21713.78, 0.00, 0.00, 0.00, 0.00
131, 54868.57, 38306.33, 8403.96, 31128.47, 22132.79, 53529.05, 21684.05, 0.00, 0.00, 0.00, 0.00
132, 54900.98, 38389.57, 8602.58, 31223.15, 22293.99, 52322.32, 21865.84, 0.00, 0.00, 0.00, 0.00
133, 54885.85, 38388.36, 8594.13, 31272.57, 22318.73, 52210.95, 21882.60, 0.00, 0.00, 0.00, 0.00
134, 54856.99, 38329.30, 8438.07, 31240.47, 22221.21, 53248.22, 21744.18, 0.00, 0.00, 0.00, 0.00
135, 54872.26, 38302.91, 8379.76, 31114.72, 22119.13, 53700.31, 21657.74, 0.00, 0.00, 0.00, 0.00
136, 54901.89, 38383.66, 8571.20, 31194.27, 22265.15, 52466.76, 21835.60, 0.00, 0.00, 0.00, 0.00
137, 54895.73, 38396.72, 8609.49, 31261.28, 22325.14, 52138.46, 21884.17, 0.00, 0.06, 0.94, 0.33
138, 54869.64, 38347.52, 8487.11, 31251.18, 22253.13, 53000.93, 21777.71, 0.00, 0.00, 0.00, 0.00
139, 54880.68, 38292.16, 8365.99, 31128.02, 22117.07, 53804.36, 21639.39, 0.00, 0.00, 0.00, 0.00
140, 54909.18, 38368.96, 8549.12, 31170.91, 22233.50, 52647.32, 21792.44, 0.00, 0.00, 0.00, 0.00
141, 54897.18, 38395.91, 8611.97, 31256.95, 22311.49, 52106.00, 21864.68, 0.00, 0.00, 0.00, 0.00
142, 54864.10, 38350.25, 8507.61, 31252.65, 22254.76, 52759.70, 21788.21, 0.00, 0.00, 0.00, 0.00
143, 54865.15, 38293.61, 8357.65, 31138.21, 22118.32, 53817.54, 21641.05, 0.00, 0.00, 0.00, 0.00
144, 54902.63, 38343.90, 8503.27, 31141.10, 22193.18, 52871.24, 21760.05, 0.00, 0.00, 0.00, 0.00
145, 54910.16, 38393.28, 8613.60, 31248.32, 22308.67, 52108.78, 21876.68, 0.00, 0.00, 0.00, 0.00
146, 54878.98, 38358.41, 8531.35, 31257.97, 22267.37, 52560.33, 21817.09, 0.00, 0.00, 0.00, 0.00
147, 54865.15, 38295.87, 8360.40, 31154.96, 22133.77, 53752.28, 21655.78, 0.00, 0.06, 0.94, 0.32
148, 54888.60, 38319.67, 8457.54, 31108.96, 22155.45, 53111.63, 21724.73, 0.00, 0.00, 0.00, 0.00
149, 54907.80, 38379.00, 8597.96, 31220.16, 22290.86, 52147.16, 21865.26, 0.00, 0.00, 0.00, 0.00
150, 54882.38, 38362.03, 8548.67, 31250.55, 22270.03, 52389.00, 21834.17, 0.00, 0.00, 0.00, 0.00
151, 54860.23, 38299.80, 8380.03, 31169.24, 22143.49, 53610.61, 21673.50, 0.00, 0.00, 0.00, 0.00
152, 54884.28, 38297.97, 8419.10, 31089.46, 22114.37, 53350.21, 21683.16, 0.00, 0.00, 0.00, 0.00
153, 54902.68, 38364.29, 8590.33, 31195.52, 22269.96, 52223.60, 21849.41, 0.00, 0.00, 0.00, 0.00
154, 54881.02, 38352.73, 8564.92, 31241.68, 22279.46, 52263.18, 21850.60, 0.00, 0.00, 0.00, 0.00
155, 54857.68, 38297.79, 8403.50, 31200.44, 22170.47, 53396.62, 21701.67, 0.00, 0.00, 0.00, 0.00
156, 54869.66, 38278.90, 8376.54, 31079.00, 22092.91, 53546.35, 21648.09, 0.00, 0.06, 0.94, 0.32
157, 54906.30, 38364.69, 8571.07, 31179.43, 22253.22, 52320.89, 21835.55, 0.00, 0.00, 0.00, 0.00
158, 54899.46, 38370.61, 8580.45, 31244.34, 22287.15, 52166.20, 21867.69, 0.00, 0.00, 0.00, 0.00
159, 54874.18, 38325.30, 8436.58, 31215.48, 22198.32, 53165.57, 21740.40, 0.00, 0.00, 0.00, 0.00
160, 54885.87, 38287.51, 8355.64, 31102.29, 22090.65, 53710.93, 21639.42, 0.00, 0.00, 0.00, 0.00
161, 54918.86, 38369.14, 8543.06, 31171.67, 22226.39, 52497.68, 21815.03, 0.00, 0.00, 0.00, 0.00
162, 54904.69, 38385.61, 8581.44, 31236.25, 22286.05, 52122.32, 21878.07, 0.00, 0.00, 0.00, 0.00
163, 54876.53, 38344.10, 8464.25, 31236.05, 22220.65, 52928.46, 21780.25, 0.00, 0.00, 0.00, 0.00
164, 54885.40, 38295.18, 8349.92, 31121.49, 22085.51, 53803.62, 21629.36, 0.00, 0.00, 0.00, 0.00
165, 54926.06, 38362.16, 8522.92, 31161.08, 22190.92, 52711.34, 21772.68, 0.00, 0.00, 0.00, 0.00
166, 54938.06, 38414.20, 8594.04, 31268.90, 22290.19, 52123.06, 21877.80, 0.00, 0.06, 0.94, 0.32
167, 54901.47, 38374.99, 8500.68, 31262.85, 22239.83, 52716.07, 21801.58, 0.00, 0.00, 0.00, 0.00
168, 54881.46, 38297.66, 8345.38, 31137.97, 22091.55, 53811.62, 21625.65, 0.00, 0.00, 0.00, 0.00
169, 54915.80, 38348.64, 8481.91, 31126.39, 22152.54, 52933.87, 21732.29, 0.00, 0.00, 0.00, 0.00
170, 54931.02, 38401.57, 8591.21, 31235.89, 22275.26, 52108.66, 21858.93, 0.00, 0.00, 0.00, 0.00
171, 54886.36, 38363.66, 8518.99, 31242.62, 22238.89, 52496.04, 21806.18, 0.00, 0.00, 0.00, 0.00
172, 54866.00, 38299.55, 8345.60, 31136.05, 22101.67, 53698.68, 21632.15, 0.00, 0.00, 0.00, 0.00
173, 54890.09, 38303.76, 8423.90, 31077.37, 22108.78, 53144.07, 21682.29, 0.00, 0.00, 0.00, 0.00
174, 54895.91, 38357.25, 8564.09, 31196.84, 22255.32, 52134.05, 21840.40, 0.00, 0.00, 0.00, 0.00
175, 54870.04, 38342.70, 8526.70, 31233.12, 22251.52, 52329.41, 21824.82, 0.00, 0.00, 0.00, 0.00
176, 54848.86, 38289.52, 8363.13, 31161.59, 22133.57, 53540.83, 21668.47, 0.00, 0.06, 0.94, 0.33
177, 54869.24, 38279.77, 8378.98, 31067.27, 22084.26, 53390.36, 21656.36, 0.00, 0.00, 0.00, 0.00
178, 54897.69, 38351.55, 8555.62, 31182.69, 22244.19, 52239.89, 21840.18, 0.00, 0.00, 0.00, 0.00
179, 54886.34, 38358.83, 8545.50, 31236.14, 22266.34, 52231.51, 21856.88, 0.00, 0.00, 0.00, 0.00
180, 54858.76, 38311.40, 8394.44, 31189.64, 22165.98, 53341.16, 21712.46, 0.00, 0.00, 0.00, 0.00
181, 54870.65, 38284.04, 8349.58, 31078.45, 22076.66, 53604.82, 21649.14, 0.00, 0.00, 0.00, 0.00
182, 54897.36, 38356.78, 8535.68, 31178.09, 22230.80, 52373.58, 21831.91, 0.00, 0.00, 0.00, 0.00
183, 54882.27, 38363.50, 8553.23, 31249.12, 22272.57, 52157.08, 21871.81, 0.00, 0.00, 0.00, 0.00
184, 54853.77, 38320.14, 8423.28, 31218.86, 22190.88, 53102.09, 21752.00, 0.00, 0.00, 0.00, 0.00
185, 54857.08, 38271.30, 8328.55, 31086.02, 22069.08, 53738.38, 21640.53, 0.00, 0.00, 0.00, 0.00
186, 54892.21, 38344.21, 8514.29, 31151.40, 22201.74, 52544.66, 21810.63, 0.00, 0.06, 0.94, 0.33
187, 54896.44, 38374.46, 8566.26, 31243.63, 22271.90, 52113.29, 21877.04, 0.00, 0.00, 0.00, 0.00
188, 54861.66, 38330.80, 8458.21, 31241.05, 22204.85, 52866.43, 21780.16, 0.00, 0.00, 0.00, 0.00
189, 54861.53, 38270.05, 8332.15, 31116.94, 22069.02, 53803.31, 21626.38, 0.00, 0.00, 0.00, 0.00
190, 54898.90, 38346.99, 8492.05, 31127.69, 22172.51, 52750.59, 21778.96, 0.00, 0.00, 0.00, 0.00
191, 54909.85, 38390.77, 8570.98, 31232.76, 22271.10, 52106.79, 21874.15, 0.00, 0.00, 0.00, 0.00
192, 54882.20, 38350.54, 8498.00, 31254.02, 22230.89, 52655.23, 21810.65, 0.00, 0.00, 0.00, 0.00
193, 54877.04, 38288.34, 8330.90, 31142.88, 22084.17, 53795.57, 21646.01, 0.00, 0.00, 0.00, 0.00
194, 54906.93, 38329.55, 8445.99, 31112.08, 22124.63, 52990.87, 21729.76, 0.00, 0.00, 0.00, 0.00
195, 54921.16, 38390.24, 8583.20, 31224.22, 22259.07, 52120.29, 21863.98, 0.00, 0.06, 0.94, 0.32
196, 54890.94, 38361.98, 8515.43, 31246.49, 22236.99, 52464.82, 21840.13, 0.00, 0.00, 0.00, 0.00
197, 54869.46, 38289.77, 8336.49, 31157.08, 22095.77, 53680.02, 21664.92, 0.00, 0.00, 0.00, 0.00
198, 54889.80, 38308.68, 8402.98, 31092.93, 22088.28, 53230.70, 21699.99, 0.00, 0.00, 0.00, 0.00
199, 54916.31, 38385.39, 8562.64, 31211.62, 22240.90, 52179.83, 21860.92, 0.00, 0.00, 0.00, 0.00
200, 54898.16, 38364.04, 8528.55, 31246.53, 22235.40, 52315.93, 21840.02, 0.00, 0.00, 0.00, 0.00
201, 54877.64, 38299.85, 8365.74, 31180.26, 22114.19, 53503.12, 21671.18, 0.00, 0.00, 0.00, 0.00
202, 54902.50, 38297.81, 8375.42, 31086.94, 22065.13, 53451.16, 21654.82, 0.00, 0.00, 0.00, 0.00
203, 54936.96, 38384.05, 8555.11, 31201.34, 22227.60, 52266.49, 21842.24, 0.00, 0.00, 0.00, 0.00
204, 54921.59, 38383.96, 8557.34, 31253.26, 22249.15, 52199.82, 21855.47, 0.00, 0.00, 0.00, 0.00
205, 54901.27, 38330.25, 8420.19, 31213.32, 22157.95, 53272.12, 21717.89, 0.00, 0.06, 0.93, 0.33
206, 54913.23, 38301.97, 8360.83, 31091.30, 22058.36, 53631.18, 21635.17, 0.00, 0.00, 0.00, 0.00
207, 54942.04, 38383.44, 8544.58, 31178.76, 22207.93, 52396.80, 21813.25, 0.00, 0.00, 0.00, 0.00
208, 54924.31, 38385.41, 8560.29, 31239.42, 22250.63, 52124.96, 21853.75, 0.00, 0.00, 0.00, 0.00
209, 54886.63, 38335.14, 8438.25, 31216.22, 22176.46, 53019.48, 21740.58, 0.00, 0.00, 0.00, 0.00
210, 54890.61, 38288.96, 8336.57, 31087.90, 22054.89, 53737.48, 21614.94, 0.00, 0.00, 0.00, 0.00
211, 54933.84, 38371.39, 8525.54, 31148.21, 22188.04, 52565.02, 21785.46, 0.00, 0.00, 0.00, 0.00
212, 54937.19, 38407.76, 8587.74, 31233.23, 22271.23, 52073.13, 21857.86, 0.00, 0.00, 0.00, 0.00
213, 54903.73, 38360.69, 8477.19, 31229.41, 22211.58, 52780.22, 21768.18, 0.00, 0.00, 0.00, 0.00
214, 54896.62, 38305.66, 8333.78, 31123.71, 22077.35, 53780.42, 21622.25, 0.00, 0.00, 0.00, 0.00
215, 54931.31, 38361.43, 8493.80, 31140.81, 22169.82, 52784.71, 21757.48, 0.00, 0.06, 0.94, 0.33
216, 54931.42, 38410.76, 8588.86, 31241.14, 22279.37, 52079.68, 21860.01, 0.00, 0.00, 0.00, 0.00
217, 54893.74, 38370.48, 8496.32, 31230.06, 22235.40, 52570.41, 21790.13, 0.00, 0.00, 0.00, 0.00
218, 54884.71, 38303.09, 8338.38, 31132.69, 22098.54, 53736.86, 21618.58, 0.00, 0.00, 0.00, 0.00
219, 54913.83, 38329.42, 8459.44, 31108.96, 22148.03, 53021.75, 21714.41, 0.00, 0.00, 0.00, 0.00
220, 54924.25, 38389.50, 8588.90, 31221.12, 22287.35, 52111.50, 21856.94, 0.00, 0.00, 0.00, 0.00
221, 54893.11, 38368.96, 8531.97, 31242.84, 22261.51, 52403.13, 21812.93, 0.00, 0.00, 0.00, 0.00
222, 54875.59, 38310.06, 8364.89, 31162.33, 22133.14, 53615.69, 21646.28, 0.00, 0.00, 0.00, 0.00
223, 54904.06, 38327.86, 8427.79, 31096.80, 22126.66, 53263.22, 21678.80, 0.00, 0.00, 0.00, 0.00
224, 54925.57, 38412.23, 8584.03, 31217.00, 22276.71, 52175.47, 21846.91, 0.00, 0.00, 0.00, 0.00
225, 54897.92, 38384.85, 8539.39, 31250.46, 22267.90, 52268.28, 21837.18, 0.00, 0.06, 0.93, 0.33
226, 54866.64, 38306.39, 8379.62, 31184.37, 22157.19, 53427.53, 21678.98, 0.00, 0.00, 0.00, 0.00
227, 54876.57, 38289.05, 8375.18, 31077.26, 22095.91, 53476.12, 21645.88, 0.00, 0.00, 0.00, 0.00
228, 54900.42, 38369.16, 8555.06, 31179.90, 22248.81, 52281.00, 21822.30, 0.00, 0.00, 0.00, 0.00
229, 54889.00, 38368.31, 8552.96, 31237.08, 22273.42, 52166.29, 21843.69, 0.00, 0.00, 0.00, 0.00
230, 54863.20, 38319.05, 8407.12, 31199.66, 22176.89, 53195.29, 21709.85, 0.00, 0.00, 0.00, 0.00
231, 54876.97, 38289.01, 8343.48, 31079.05, 22073.71, 53647.40, 21622.63, 0.00, 0.00, 0.00, 0.00
232, 54911.39, 38377.14, 8540.58, 31159.63, 22231.76, 52423.69, 21814.54, 0.00, 0.00, 0.00, 0.00
233, 54894.99, 38388.88, 8568.29, 31232.72, 22282.25, 52101.76, 21858.35, 0.00, 0.00, 0.00, 0.00
234, 54851.63, 38324.88, 8441.90, 31205.85, 22201.03, 52956.76, 21746.48, 0.00, 0.00, 0.00, 0.00
235, 54849.93, 38267.75, 8328.59, 31074.02, 22070.54, 53752.46, 21616.68, 0.00, 0.06, 0.93, 0.33
236, 54895.57, 38351.08, 8515.59, 31130.95, 22191.73, 52615.36, 21776.59, 0.00, 0.00, 0.00, 0.00
237, 54898.79, 38379.42, 8578.64, 31222.46, 22277.04, 52077.08, 21857.48, 0.00, 0.00, 0.00, 0.00
238, 54865.98, 38337.40, 8473.57, 31217.94, 22220.00, 52727.16, 21777.88, 0.00, 0.00, 0.00, 0.00
239, 54855.22, 38277.63, 8328.95, 31111.37, 22076.30, 53774.23, 21619.70, 0.00, 0.00, 0.00, 0.00
240, 54894.81, 38343.75, 8474.91, 31117.90, 22154.78, 52835.97, 21744.18, 0.00, 0.00, 0.00, 0.00
241, 54915.78, 38392.11, 8587.12, 31209.14, 22275.81, 52068.83, 21861.32, 0.00, 0.00, 0.00, 0.00
242, 54886.54, 38350.68, 8505.89, 31221.21, 22242.80, 52508.76, 21811.66, 0.00, 0.00, 0.00, 0.00
243, 54870.13, 38286.88, 8333.58, 31123.22, 22101.98, 53707.13, 21649.25, 0.00, 0.00, 0.00, 0.00
244, 54894.41, 38327.96, 8428.91, 31084.93, 22124.31, 53077.55, 21719.17, 0.00, 0.07, 0.94, 0.33
245, 54904.42, 38388.38, 8563.53, 31194.07, 22258.13, 52117.00, 21853.43, 0.00, 0.00, 0.00, 0.00
246, 54874.94, 38369.85, 8520.57, 31229.88, 22250.47, 52355.70, 21833.83, 0.00, 0.00, 0.00, 0.00
247, 54858.82, 38313.30, 8356.65, 31161.53, 22131.69, 53566.82, 21672.43, 0.00, 0.00, 0.00, 0.00
248, 54888.17, 38310.75, 8397.91, 31085.93, 22110.88, 53308.08, 21686.87, 0.00, 0.00, 0.00, 0.00
249, 54911.84, 38374.41, 8569.79, 31196.98, 22266.54, 52188.24, 21855.51, 0.00, 0.00, 0.00, 0.00
250, 54888.20, 38361.36, 8544.09, 31236.05, 22269.78, 52232.11, 21845.79, 0.00, 0.00, 0.00, 0.00
251, 54863.96, 38308.00, 8387.18, 31183.77, 22161.53, 53372.68, 21698.16, 0.00, 0.00, 0.00, 0.00
252, 54879.77, 38290.77, 8367.49, 31066.09, 22085.67, 53518.01, 21649.70, 0.00, 0.00, 0.00, 0.00
253, 54915.20, 38385.27, 8560.38, 31168.97, 22245.44, 52299.35, 21825.47, 0.00, 0.00, 0.00, 0.00
254, 54897.20, 38373.90, 8572.47, 31229.54, 22277.16, 52138.77, 21845.88, 0.00, 0.06, 0.94, 0.33
255, 54872.17, 38318.02, 8429.65, 31200.29, 22193.74, 53134.30, 21734.52, 0.00, 0.00, 0.00, 0.00
0, 54872.35, 38276.78, 8340.29, 31072.03, 22079.52, 53677.40, 21642.37, 0.00, 0.00, 0.00, 0.00
1, 54896.69, 38353.27, 8527.77, 31158.20, 22217.10, 52454.71, 21810.12, 0.00, 0.00, 0.00, 0.00
2, 54893.78, 38376.31, 8571.63, 31242.53, 22278.50, 52080.93, 21865.73, 0.00, 0.00, 0.00, 0.00
3, 54866.76, 38331.39, 8454.99, 31215.35, 22215.26, 52893.90, 21776.19, 0.00, 0.00, 0.00, 0.00
4, 54871.61, 38275.19, 8332.98, 31082.74, 22084.06, 53760.79, 21635.15, 0.00, 0.00, 0.00, 0.00
5, 54905.20, 38342.47, 8496.55, 31110.23, 22182.54, 52659.66, 21780.63, 0.00, 0.00, 0.00, 0.00
6, 54905.09, 38387.06, 8579.40, 31213.12, 22276.44, 52065.75, 21872.57, 0.00, 0.00, 0.00, 0.00
7, 54863.94, 38336.21, 8475.04, 31207.82, 22221.52, 52664.55, 21798.96, 0.00, 0.00, 0.00, 0.00
8, 54860.19, 38264.93, 8323.97, 31101.33, 22084.33, 53766.92, 21640.94, 0.00, 0.06, 0.94, 0.32
9, 54899.39, 38313.77, 8470.62, 31108.62, 22154.78, 52890.66, 21754.73, 0.00, 0.00, 0.00, 0.00
10, 54904.33, 38365.74, 8582.49, 31210.14, 22275.37, 52077.20, 21873.82, 0.00, 0.00, 0.00, 0.00
11, 54870.36, 38336.95, 8512.33, 31218.23, 22244.72, 52470.90, 21821.78, 0.00, 0.00, 0.00, 0.00
12, 54848.34, 38274.84, 8347.91, 31124.13, 22112.36, 53682.16, 21652.71, 0.00, 0.00, 0.00, 0.00
13, 54874.16, 38296.54, 8431.73, 31068.25, 22121.61, 53130.07, 21713.94, 0.00, 0.00, 0.00, 0.00
14, 54913.72, 38370.70, 8586.62, 31189.06, 22270.67, 52117.38, 21868.50, 0.00, 0.00, 0.00, 0.00
15, 54901.54, 38368.04, 8545.23, 31225.27, 22261.55, 52311.37, 21845.72, 0.00, 0.00, 0.00, 0.00
16, 54876.23, 38311.43, 8380.38, 31156.23, 22137.23, 53517.47, 21680.34, 0.00, 0.00, 0.00, 0.00
17, 54882.34, 38299.67, 8405.02, 31060.86, 22091.77, 53356.27, 21667.69, 0.00, 0.00, 0.00, 0.00
18, 54903.77, 38379.98, 8577.57, 31167.58, 22249.35, 52202.96, 21836.96, 0.00, 0.06, 0.94, 0.33
19, 54891.39, 38369.14, 8559.73, 31214.97, 22261.62, 52189.38, 21844.11, 0.00, 0.00, 0.00, 0.00
20, 54864.39, 38294.64, 8407.47, 31168.86, 22162.25, 53296.08, 21707.72, 0.00, 0.00, 0.00, 0.00
21, 54875.61, 38262.30, 8356.94, 31058.35, 22068.93, 53546.98, 21643.44, 0.00, 0.00, 0.00, 0.00
22, 54906.34, 38342.58, 8547.93, 31149.70, 22222.15, 52317.74, 21819.82, 0.00, 0.00, 0.00, 0.00
23, 54888.82, 38348.42, 8559.64, 31204.73, 22258.69, 52102.79, 21850.19, 0.00, 0.00, 0.00, 0.00
