%OpenBCI Raw EEG Data
%
%Sample Rate = 250.0 Hz
%First Column = SampleIndex
%Other Columns = EEG data in microvolts followed by Accel Data (in G) interleaved with Aux Data
0, 41610.03, 29297.88, 10197.07, 15468.75, 3127.32, 20456.74, -25895.90, 0.00, 0.06, 0.40, 0.29
1, 41611.88, 29292.05, 10212.33, 15494.00, 3148.13, 20597.67, -25931.82, 0.00, 0.00, 0.00, 0.00
2, 41668.79, 29335.10, 10223.38, 15522.35, 3208.55, 20804.06, -25913.85, 0.00, 0.00, 0.00, 0.00
3, 41671.65, 29343.39, 10213.47, 15494.30, 3188.90, 20674.04, -25897.11, 0.00, 0.00, 0.00, 0.00
4, 41631.02, 29314.22, 10207.77, 15469.93, 3146.32, 20477.57, -25856.50, 0.00, 0.00, 0.00, 0.00
5, 41627.42, 29307.05, 10220.09, 15502.57, 3171.67, 20565.97, -25866.98, 0.00, 0.00, 0.00, 0.00
6, 41669.86, 29334.58, 10237.70, 15525.59, 3234.27, 20799.35, -25913.61, 0.00, 0.00, 0.00, 0.00
7, 41673.48, 29342.16, 10229.97, 15500.49, 3211.92, 20726.64, -25916.98, 0.00, 0.11, 0.80, 0.57
8, 41640.25, 29324.17, 10223.53, 15483.23, 3165.61, 20513.69, -25883.70, 0.00, 0.00, 0.00, 0.00
9, 41631.80, 29319.43, 10236.94, 15512.76, 3189.17, 20548.16, -25820.44, 0.00, 0.00, 0.00, 0.00
10, 41677.40, 29352.69, 10257.59, 15549.53, 3243.42, 20810.28, -25851.11, 0.00, 0.00, 0.00, 0.00
11, 41704.46, 29376.56, 10262.83, 15535.42, 3237.52, 20793.78, -25874.42, 0.00, 0.00, 0.00, 0.00
12, 41675.95, 29357.07, 10247.45, 15511.69, 3199.56, 20574.87, -25856.99, 0.00, 0.00, 0.00, 0.00
13, 41652.21, 29333.15, 10250.02, 15525.61, 3198.51, 20560.63, -25831.93, 0.00, 0.00, 0.00, 0.00
14, 41667.74, 29336.15, 10254.78, 15542.75, 3236.40, 20795.91, -25877.87, 0.00, 0.00, 0.00, 0.00
15, 41714.25, 29377.66, 10262.54, 15547.96, 3254.17, 20849.19, -25896.66, 0.00, 0.00, 0.00, 0.00
16, 41706.43, 29386.49, 10268.06, 15542.53, 3223.64, 20646.22, -25853.79, 0.00, 0.11, 0.80, 0.58
17, 41673.13, 29362.17, 10269.78, 15541.01, 3203.23, 20562.06, -25788.75, 0.00, 0.00, 0.00, 0.00
18, 41701.07, 29377.54, 10281.49, 15581.38, 3263.67, 20799.77, -25817.00, 0.00, 0.00, 0.00, 0.00
19, 41723.80, 29387.45, 10276.01, 15564.28, 3280.59, 20890.25, -25844.99, 0.00, 0.00, 0.00, 0.00
20, 41711.28, 29386.02, 10265.04, 15538.95, 3234.50, 20682.74, -25835.08, 0.00, 0.00, 0.00, 0.00
21, 41688.98, 29374.53, 10269.91, 15548.34, 3211.12, 20555.65, -25815.10, 0.00, 0.00, 0.00, 0.00
22, 41690.72, 29367.98, 10277.62, 15568.86, 3243.82, 20728.69, -25814.83, 0.00, 0.00, 0.00, 0.00
23, 41734.19, 29399.67, 10291.32, 15575.46, 3294.49, 20887.01, -25817.11, 0.00, 0.00, 0.00, 0.00
24, 41730.35, 29403.79, 10279.14, 15544.83, 3255.93, 20722.10, -25823.44, 0.00, 0.00, 0.00, 0.00
25, 41685.24, 29370.39, 10267.43, 15541.48, 3210.85, 20548.74, -25790.02, 0.00, 0.00, 0.00, 0.00
26, 41673.24, 29354.97, 10269.49, 15557.84, 3236.02, 20671.09, -25810.27, 0.00, 0.12, 0.80, 0.58
27, 41699.59, 29370.21, 10258.20, 15556.61, 3265.66, 20871.07, -25874.45, 0.00, 0.00, 0.00, 0.00
28, 41704.38, 29374.57, 10234.37, 15528.29, 3223.23, 20757.97, -25918.77, 0.00, 0.00, 0.00, 0.00
29, 41666.67, 29350.50, 10231.04, 15509.18, 3193.86, 20558.93, -25829.27, 0.00, 0.00, 0.00, 0.00
30, 41651.20, 29334.96, 10247.85, 15527.11, 3209.67, 20638.57, -25787.41, 0.00, 0.00, 0.00, 0.00
31, 41686.76, 29360.60, 10251.96, 15548.52, 3260.87, 20867.32, -25841.90, 0.00, 0.00, 0.00, 0.00
32, 41686.02, 29363.78, 10225.83, 15517.88, 3233.22, 20789.16, -25887.37, 0.00, 0.00, 0.00, 0.00
33, 41650.11, 29340.37, 10214.81, 15501.90, 3187.29, 20569.10, -25827.53, 0.00, 0.00, 0.00, 0.00
34, 41632.65, 29321.08, 10221.97, 15511.24, 3186.58, 20574.13, -25835.08, 0.00, 0.00, 0.00, 0.00
35, 41654.06, 29325.62, 10221.72, 15512.02, 3225.60, 20806.70, -25900.35, 0.00, 0.00, 0.00, 0.00
36, 41673.66, 29342.56, 10211.82, 15487.05, 3217.89, 20788.22, -25917.63, 0.00, 0.12, 0.79, 0.59
37, 41652.18, 29333.96, 10206.61, 15472.28, 3187.94, 20578.27, -25833.18, 0.00, 0.00, 0.00, 0.00
38, 41626.90, 29311.74, 10215.40, 15484.35, 3175.36, 20535.98, -25840.70, 0.00, 0.00, 0.00, 0.00
39, 41654.06, 29328.10, 10216.40, 15515.11, 3206.04, 20769.55, -25899.68, 0.00, 0.00, 0.00, 0.00
40, 41677.08, 29343.57, 10200.11, 15498.07, 3207.23, 20811.84, -25930.91, 0.00, 0.00, 0.00, 0.00
41, 41652.52, 29330.67, 10200.91, 15466.83, 3182.64, 20592.35, -25873.71, 0.00, 0.00, 0.00, 0.00
42, 41618.25, 29303.25, 10201.07, 15457.30, 3139.57, 20484.23, -25888.17, 0.00, 0.00, 0.00, 0.00
43, 41643.89, 29318.42, 10207.75, 15496.11, 3197.64, 20705.96, -25871.18, 0.00, 0.00, 0.00, 0.00
44, 41676.03, 29343.50, 10203.28, 15494.70, 3225.60, 20830.53, -25912.51, 0.00, 0.00, 0.00, 0.00
45, 41642.59, 29320.37, 10176.17, 15449.70, 3160.72, 20617.70, -25913.14, 0.00, 0.00, 0.00, 0.00
46, 41600.24, 29286.51, 10170.18, 15433.54, 3131.43, 20468.14, -25874.07, 0.00, 0.11, 0.80, 0.60
47, 41619.15, 29299.63, 10184.97, 15469.55, 3166.30, 20646.15, -25909.00, 0.00, 0.00, 0.00, 0.00
48, 41657.30, 29322.47, 10182.47, 15469.51, 3196.14, 20805.47, -25981.06, 0.00, 0.00, 0.00, 0.00
49, 41638.30, 29308.43, 10161.71, 15426.64, 3140.49, 20636.07, -25969.06, 0.00, 0.00, 0.00, 0.00
50, 41590.02, 29272.13, 10153.26, 15407.44, 3125.13, 20444.20, -25850.57, 0.00, 0.00, 0.00, 0.00
51, 41600.08, 29282.86, 10174.13, 15447.96, 3156.47, 20576.93, -25854.44, 0.00, 0.00, 0.00, 0.00
52, 41643.80, 29316.12, 10176.06, 15464.97, 3187.63, 20791.10, -25915.19, 0.00, 0.00, 0.00, 0.00
53, 41642.26, 29316.66, 10158.33, 15431.78, 3154.37, 20676.88, -25945.26, 0.00, 0.00, 0.00, 0.00
54, 41595.28, 29275.76, 10144.21, 15391.23, 3104.50, 20456.03, -25942.42, 0.00, 0.00, 0.00, 0.00
55, 41576.10, 29252.87, 10144.29, 15389.49, 3103.43, 20508.28, -25954.44, 0.00, 0.11, 0.79, 0.59
56, 41613.20, 29277.50, 10150.58, 15411.26, 3152.33, 20739.24, -25961.15, 0.00, 0.00, 0.00, 0.00
57, 41624.45, 29294.66, 10133.21, 15401.67, 3134.18, 20689.02, -25972.77, 0.00, 0.00, 0.00, 0.00
58, 41600.60, 29279.46, 10136.34, 15386.63, 3120.95, 20479.99, -25947.83, 0.00, 0.00, 0.00, 0.00
59, 41562.75, 29241.56, 10120.45, 15373.82, 3080.70, 20460.85, -25925.72, 0.00, 0.00, 0.00, 0.00
60, 41616.20, 29283.33, 10156.50, 15424.74, 3158.21, 20727.11, -25950.42, 0.00, 0.00, 0.00, 0.00
61, 41634.17, 29300.30, 10140.87, 15404.22, 3143.68, 20717.27, -25997.74, 0.00, 0.00, 0.00, 0.00
62, 41586.78, 29263.78, 10116.29, 15365.57, 3096.12, 20470.64, -25958.62, 0.00, 0.00, 0.00, 0.00
63, 41548.72, 29232.86, 10117.09, 15363.83, 3082.24, 20415.79, -25953.37, 0.00, 0.00, 0.00, 0.00
64, 41576.23, 29248.06, 10131.51, 15390.49, 3127.68, 20651.42, -25994.36, 0.00, 0.00, 0.00, 0.00
65, 41608.87, 29275.49, 10124.74, 15380.32, 3132.17, 20716.65, -26016.51, 0.00, 0.11, 0.79, 0.60
66, 41597.80, 29275.55, 10124.20, 15359.65, 3123.14, 20507.86, -25945.30, 0.00, 0.00, 0.00, 0.00
67, 41557.30, 29245.24, 10123.93, 15355.00, 3092.56, 20398.83, -25933.70, 0.00, 0.00, 0.00, 0.00
68, 41569.80, 29248.42, 10126.21, 15384.84, 3119.43, 20598.76, -25960.46, 0.00, 0.00, 0.00, 0.00
69, 41609.65, 29276.49, 10121.45, 15390.47, 3140.44, 20725.03, -25979.79, 0.00, 0.00, 0.00, 0.00
70, 41604.51, 29281.14, 10115.57, 15365.06, 3106.58, 20543.44, -25975.21, 0.00, 0.00, 0.00, 0.00
71, 41571.63, 29259.57, 10115.82, 15361.73, 3070.50, 20398.47, -25962.24, 0.00, 0.00, 0.00, 0.00
72, 41584.82, 29268.36, 10131.26, 15406.45, 3097.26, 20581.22, -25996.58, 0.00, 0.00, 0.00, 0.00
73, 41629.36, 29300.57, 10133.19, 15419.48, 3131.12, 20753.91, -26003.84, 0.00, 0.00, 0.00, 0.00
74, 41626.46, 29303.61, 10120.29, 15387.97, 3103.96, 20591.79, -25982.09, 0.00, 0.00, 0.00, 0.00
75, 41589.31, 29277.39, 10116.31, 15370.33, 3073.99, 20400.50, -25961.55, 0.00, 0.11, 0.79, 0.60
76, 41571.61, 29250.61, 10114.14, 15375.16, 3080.25, 20491.83, -25994.21, 0.00, 0.00, 0.00, 0.00
77, 41612.00, 29276.00, 10122.39, 15392.89, 3121.82, 20704.11, -26046.31, 0.00, 0.00, 0.00, 0.00
78, 41610.14, 29276.49, 10102.14, 15356.41, 3087.80, 20604.15, -26051.61, 0.00, 0.00, 0.00, 0.00
79, 41570.78, 29249.09, 10104.69, 15330.86, 3072.83, 20396.26, -26005.49, 0.00, 0.00, 0.00, 0.00
80, 41556.32, 29235.48, 10118.21, 15353.61, 3070.59, 20447.67, -25995.70, 0.00, 0.00, 0.00, 0.00
81, 41601.76, 29270.61, 10132.76, 15395.63, 3127.34, 20705.83, -25996.84, 0.00, 0.00, 0.00, 0.00
82, 41614.19, 29283.94, 10121.34, 15376.08, 3124.95, 20664.37, -25988.98, 0.00, 0.00, 0.00, 0.00
83, 41591.19, 29276.11, 10120.91, 15377.55, 3088.92, 20455.20, -25925.65, 0.00, 0.00, 0.00, 0.00
84, 41566.29, 29253.63, 10132.20, 15387.90, 3085.12, 20456.07, -25943.49, 0.00, 0.00, 0.00, 0.00
85, 41584.95, 29257.11, 10136.27, 15392.08, 3119.59, 20704.73, -26001.81, 0.00, 0.12, 0.79, 0.59
86, 41615.17, 29284.18, 10130.59, 15387.99, 3139.39, 20719.15, -25962.69, 0.00, 0.00, 0.00, 0.00
87, 41591.86, 29273.54, 10125.85, 15371.65, 3101.22, 20503.23, -25936.27, 0.00, 0.00, 0.00, 0.00
88, 41565.41, 29253.49, 10129.01, 15375.36, 3080.81, 20440.58, -25938.01, 0.00, 0.00, 0.00, 0.00
89, 41591.77, 29270.59, 10151.31, 15410.34, 3127.28, 20674.74, -25980.62, 0.00, 0.00, 0.00, 0.00
90, 41634.23, 29307.03, 10170.65, 15416.78, 3151.22, 20765.04, -25981.62, 0.00, 0.00, 0.00, 0.00
91, 41605.78, 29292.25, 10133.61, 15384.66, 3106.53, 20552.50, -25948.79, 0.00, 0.00, 0.00, 0.00
92, 41570.00, 29263.60, 10131.51, 15379.30, 3104.32, 20435.86, -25945.37, 0.00, 0.00, 0.00, 0.00
93, 41583.86, 29267.89, 10145.86, 15405.13, 3122.61, 20629.79, -25972.19, 0.00, 0.00, 0.00, 0.00
94, 41629.43, 29302.94, 10151.74, 15416.29, 3159.98, 20773.29, -25971.92, 0.00, 0.00, 0.00, 0.00
95, 41630.59, 29310.36, 10151.85, 15395.81, 3140.38, 20604.96, -25949.64, 0.00, 0.12, 0.79, 0.59
96, 41610.30, 29303.16, 10152.01, 15407.84, 3106.02, 20455.38, -25941.93, 0.00, 0.00, 0.00, 0.00
97, 41619.15, 29302.20, 10172.12, 15441.66, 3149.63, 20604.66, -25899.75, 0.00, 0.00, 0.00, 0.00
98, 41650.53, 29319.70, 10171.32, 15458.82, 3193.48, 20798.61, -25926.32, 0.00, 0.00, 0.00, 0.00
99, 41667.59, 29346.01, 10168.79, 15435.20, 3172.56, 20679.48, -25959.90, 0.00, 0.00, 0.00, 0.00
100, 41629.72, 29318.42, 10164.10, 15404.89, 3130.25, 20482.60, -25933.63, 0.00, 0.00, 0.00, 0.00
101, 41622.93, 29308.79, 10178.60, 15435.24, 3154.01, 20577.26, -25892.35, 0.00, 0.00, 0.00, 0.00
102, 41668.59, 29341.65, 10191.57, 15468.26, 3197.08, 20815.46, -25909.36, 0.00, 0.00, 0.00, 0.00
103, 41670.87, 29346.86, 10178.60, 15435.49, 3178.60, 20733.10, -25910.05, 0.00, 0.00, 0.00, 0.00
104, 41640.76, 29330.25, 10183.54, 15426.15, 3146.16, 20522.77, -25880.41, 0.00, 0.12, 0.79, 0.59
105, 41622.63, 29312.32, 10184.68, 15450.69, 3136.71, 20561.95, -25874.74, 0.00, 0.00, 0.00, 0.00
106, 41665.15, 29342.54, 10198.68, 15511.95, 3199.07, 20820.22, -25898.90, 0.00, 0.00, 0.00, 0.00
107, 41673.64, 29347.35, 10193.65, 15445.55, 3200.90, 20770.78, -25950.96, 0.00, 0.00, 0.00, 0.00
108, 41647.20, 29331.28, 10185.00, 15426.79, 3140.49, 20544.87, -25916.58, 0.00, 0.00, 0.00, 0.00
109, 41622.14, 29313.13, 10190.96, 15427.60, 3150.19, 20520.78, -25856.77, 0.00, 0.00, 0.00, 0.00
110, 41660.75, 29339.55, 10212.78, 15467.99, 3217.73, 20777.64, -25888.64, 0.00, 0.00, 0.00, 0.00
111, 41685.20, 29356.82, 10201.78, 15457.13, 3211.14, 20797.98, -25949.30, 0.00, 0.00, 0.00, 0.00
112, 41661.82, 29344.38, 10193.16, 15432.83, 3161.01, 20567.61, -25968.50, 0.00, 0.00, 0.00, 0.00
113, 41635.06, 29326.34, 10197.29, 15439.85, 3153.92, 20503.10, -25896.93, 0.00, 0.00, 0.00, 0.00
114, 41656.30, 29334.83, 10204.98, 15485.42, 3199.03, 20731.58, -25917.99, 0.00, 0.12, 0.79, 0.58
115, 41690.56, 29357.52, 10198.30, 15472.46, 3206.63, 20818.73, -25969.02, 0.00, 0.00, 0.00, 0.00
116, 41678.78, 29354.34, 10197.65, 15439.80, 3195.90, 20619.53, -25863.43, 0.00, 0.00, 0.00, 0.00
117, 41647.33, 29331.54, 10209.70, 15448.43, 3180.23, 20492.57, -25859.22, 0.00, 0.00, 0.00, 0.00
118, 41668.10, 29346.21, 10222.19, 15503.35, 3202.11, 20689.53, -25891.30, 0.00, 0.00, 0.00, 0.00
119, 41709.92, 29377.12, 10224.80, 15512.51, 3245.56, 20846.46, -25887.32, 0.00, 0.00, 0.00, 0.00
120, 41694.56, 29371.82, 10207.97, 15476.10, 3198.22, 20669.64, -25934.64, 0.00, 0.00, 0.00, 0.00
121, 41660.50, 29350.59, 10203.12, 15467.83, 3159.73, 20507.68, -25889.24, 0.00, 0.00, 0.00, 0.00
122, 41670.56, 29354.63, 10228.25, 15510.01, 3209.58, 20659.74, -25828.36, 0.00, 0.00, 0.00, 0.00
123, 41709.05, 29378.55, 10229.72, 15518.99, 3246.57, 20865.08, -25870.80, 0.00, 0.00, 0.00, 0.00
124, 41718.57, 29394.93, 10222.48, 15509.94, 3227.44, 20740.92, -25879.14, 0.00, 0.11, 0.79, 0.58
125, 41681.60, 29371.78, 10211.33, 15495.66, 3176.88, 20547.06, -25856.25, 0.00, 0.00, 0.00, 0.00
126, 41668.86, 29355.33, 10222.19, 15502.66, 3200.26, 20634.73, -25865.28, 0.00, 0.00, 0.00, 0.00
127, 41705.18, 29371.62, 10240.99, 15514.90, 3235.03, 20857.84, -25922.37, 0.00, 0.00, 0.00, 0.00
128, 41716.24, 29385.19, 10240.41, 15508.47, 3228.64, 20777.60, -25890.38, 0.00, 0.00, 0.00, 0.00
129, 41683.48, 29366.53, 10225.12, 15488.13, 3195.14, 20556.25, -25863.63, 0.00, 0.00, 0.00, 0.00
130, 41655.31, 29340.11, 10219.44, 15489.04, 3183.94, 20571.92, -25873.28, 0.00, 0.00, 0.00, 0.00
131, 41686.85, 29358.86, 10227.64, 15521.70, 3235.84, 20819.53, -25888.59, 0.00, 0.00, 0.00, 0.00
132, 41710.32, 29379.51, 10219.80, 15508.82, 3231.15, 20799.39, -25910.79, 0.00, 0.00, 0.00, 0.00
133, 41679.59, 29362.05, 10215.64, 15487.39, 3175.24, 20573.75, -25904.69, 0.00, 0.00, 0.00, 0.00
134, 41650.11, 29339.44, 10210.61, 15499.46, 3158.73, 20542.88, -25886.00, 0.00, 0.11, 0.79, 0.58
135, 41676.19, 29353.18, 10217.41, 15527.24, 3234.86, 20782.43, -25876.77, 0.00, 0.00, 0.00, 0.00
136, 41694.32, 29366.75, 10206.77, 15514.61, 3231.79, 20821.52, -25901.54, 0.00, 0.00, 0.00, 0.00
137, 41670.51, 29352.33, 10200.75, 15495.46, 3183.18, 20605.65, -25911.86, 0.00, 0.00, 0.00, 0.00
138, 41628.76, 29320.21, 10191.43, 15494.30, 3150.66, 20499.16, -25909.07, 0.00, 0.00, 0.00, 0.00
139, 41651.74, 29333.04, 10208.02, 15513.88, 3198.11, 20717.52, -25923.15, 0.00, 0.00, 0.00, 0.00
140, 41679.41, 29349.25, 10205.38, 15505.20, 3222.14, 20817.74, -25936.38, 0.00, 0.00, 0.00, 0.00
141, 41659.85, 29339.14, 10186.05, 15483.92, 3173.59, 20615.42, -25923.91, 0.00, 0.00, 0.00, 0.00
142, 41628.47, 29315.27, 10189.04, 15478.78, 3146.41, 20475.61, -25871.34, 0.00, 0.00, 0.00, 0.00
143, 41644.29, 29324.24, 10209.29, 15516.49, 3188.59, 20663.31, -25875.96, 0.00, 0.00, 0.00, 0.00
144, 41681.09, 29346.01, 10206.61, 15517.47, 3214.94, 20821.43, -25926.86, 0.00, 0.11, 0.79, 0.59
145, 41674.74, 29348.49, 10185.82, 15488.51, 3182.49, 20660.70, -25927.91, 0.00, 0.00, 0.00, 0.00
146, 41634.66, 29320.77, 10179.43, 15478.96, 3158.37, 20489.46, -25906.30, 0.00, 0.00, 0.00, 0.00
147, 41628.85, 29309.71, 10191.55, 15495.82, 3172.67, 20612.31, -25883.30, 0.00, 0.00, 0.00, 0.00
148, 41664.86, 29335.84, 10196.98, 15511.08, 3214.02, 20815.93, -25949.53, 0.00, 0.00, 0.00, 0.00
149, 41657.41, 29336.57, 10170.54, 15479.66, 3173.48, 20700.64, -25985.85, 0.00, 0.00, 0.00, 0.00
150, 41625.12, 29316.64, 10167.05, 15468.26, 3137.65, 20508.28, -25912.69, 0.00, 0.00, 0.00, 0.00
151, 41619.80, 29310.74, 10189.20, 15504.73, 3159.82, 20587.01, -25850.55, 0.00, 0.00, 0.00, 0.00
152, 41665.19, 29342.54, 10201.63, 15524.09, 3207.30, 20816.49, -25914.14, 0.00, 0.00, 0.00, 0.00
153, 41675.30, 29353.76, 10174.25, 15486.03, 3189.62, 20746.46, -25932.16, 0.00, 0.11, 0.79, 0.59
154, 41648.14, 29338.16, 10162.76, 15468.79, 3145.40, 20527.71, -25867.65, 0.00, 0.00, 0.00, 0.00
155, 41623.33, 29311.07, 10176.06, 15490.97, 3153.52, 20544.83, -25873.28, 0.00, 0.00, 0.00, 0.00
156, 41635.33, 29304.21, 10185.38, 15505.70, 3208.79, 20796.38, -25909.09, 0.00, 0.00, 0.00, 0.00
157, 41656.83, 29320.48, 10179.68, 15485.38, 3209.60, 20791.95, -25914.21, 0.00, 0.00, 0.00, 0.00
158, 41622.39, 29296.34, 10167.72, 15457.71, 3159.49, 20564.68, -25886.96, 0.00, 0.00, 0.00, 0.00
159, 41593.53, 29269.12, 10170.85, 15459.70, 3141.90, 20517.20, -25883.14, 0.00, 0.00, 0.00, 0.00
160, 41608.66, 29272.65, 10171.94, 15481.85, 3176.32, 20742.62, -25944.41, 0.00, 0.00, 0.00, 0.00
161, 41637.12, 29295.40, 10164.68, 15480.10, 3190.26, 20800.62, -25977.98, 0.00, 0.00, 0.00, 0.00
162, 41618.03, 29294.22, 10160.75, 15461.26, 3160.11, 20600.06, -25892.62, 0.00, 0.00, 0.00, 0.00
163, 41580.34, 29265.63, 10157.06, 15448.99, 3127.77, 20496.13, -25905.51, 0.00, 0.11, 0.79, 0.59
164, 41589.33, 29261.05, 10172.97, 15471.99, 3172.54, 20692.55, -25954.76, 0.00, 0.00, 0.00, 0.00
165, 41612.53, 29275.46, 10169.78, 15461.51, 3187.52, 20802.19, -25971.29, 0.00, 0.00, 0.00, 0.00
166, 41612.38, 29283.11, 10161.50, 15442.71, 3162.59, 20624.87, -25933.59, 0.00, 0.00, 0.00, 0.00
167, 41575.32, 29253.13, 10155.31, 15433.68, 3124.84, 20477.39, -25904.73, 0.00, 0.00, 0.00, 0.00
168, 41579.70, 29249.65, 10165.30, 15461.44, 3154.75, 20636.65, -25921.03, 0.00, 0.00, 0.00, 0.00
169, 41612.11, 29269.59, 10166.00, 15459.56, 3189.55, 20796.69, -25968.72, 0.00, 0.00, 0.00, 0.00
170, 41598.29, 29262.30, 10145.52, 15427.75, 3144.89, 20644.36, -25987.95, 0.00, 0.00, 0.00, 0.00
171, 41558.89, 29233.42, 10137.61, 15415.86, 3108.05, 20460.29, -25913.20, 0.00, 0.00, 0.00, 0.00
172, 41556.72, 29227.45, 10149.30, 15439.76, 3154.64, 20581.87, -25876.52, 0.00, 0.00, 0.00, 0.00
173, 41601.40, 29258.01, 10160.07, 15462.98, 3193.24, 20803.06, -25934.21, 0.00, 0.12, 0.79, 0.59
174, 41614.01, 29274.84, 10162.24, 15444.47, 3170.91, 20692.55, -25928.89, 0.00, 0.00, 0.00, 0.00
175, 41575.61, 29249.96, 10142.64, 15422.73, 3115.43, 20479.96, -25906.97, 0.00, 0.00, 0.00, 0.00
176, 41557.10, 29233.00, 10147.38, 15439.74, 3142.61, 20540.07, -25913.16, 0.00, 0.00, 0.00, 0.00
177, 41585.51, 29249.36, 10155.25, 15453.46, 3173.37, 20774.89, -25983.66, 0.00, 0.00, 0.00, 0.00
178, 41600.60, 29263.26, 10143.33, 15430.19, 3156.92, 20701.85, -25995.44, 0.00, 0.00, 0.00, 0.00
179, 41572.77, 29251.03, 10139.94, 15418.86, 3128.10, 20495.16, -25929.05, 0.00, 0.00, 0.00, 0.00
180, 41548.61, 29228.50, 10143.38, 15436.00, 3127.43, 20508.87, -25901.74, 0.00, 0.00, 0.00, 0.00
181, 41588.01, 29255.24, 10158.35, 15461.51, 3181.41, 20755.79, -25949.82, 0.00, 0.00, 0.00, 0.00
182, 41614.75, 29277.83, 10148.32, 15442.80, 3182.11, 20767.81, -25962.94, 0.00, 0.00, 0.00, 0.00
183, 41586.38, 29262.37, 10133.81, 15418.14, 3130.63, 20545.99, -25980.71, 0.00, 0.11, 0.79, 0.60
184, 41559.80, 29243.23, 10137.88, 15427.38, 3113.06, 20484.10, -26007.10, 0.00, 0.00, 0.00, 0.00
185, 41590.00, 29263.28, 10152.18, 15461.73, 3151.19, 20719.37, -25987.46, 0.00, 0.00, 0.00, 0.00
186, 41633.68, 29295.83, 10161.82, 15467.21, 3199.25, 20807.48, -25880.66, 0.00, 0.00, 0.00, 0.00
187, 41612.91, 29283.51, 10157.10, 15438.28, 3179.51, 20596.15, -25846.97, 0.00, 0.00, 0.00, 0.00
188, 41575.61, 29256.71, 10151.63, 15431.55, 3138.59, 20489.69, -25878.49, 0.00, 0.00, 0.00, 0.00
189, 41599.48, 29271.55, 10165.62, 15470.02, 3177.68, 20697.56, -25916.06, 0.00, 0.00, 0.00, 0.00
190, 41633.72, 29298.13, 10159.92, 15468.52, 3198.67, 20819.13, -25972.08, 0.00, 0.00, 0.00, 0.00
191, 41628.74, 29301.73, 10155.65, 15451.34, 3161.25, 20639.55, -25942.24, 0.00, 0.00, 0.00, 0.00
192, 41593.71, 29275.87, 10154.55, 15447.60, 3134.39, 20493.35, -25897.33, 0.00, 0.12, 0.79, 0.60
193, 41594.65, 29270.14, 10166.71, 15474.51, 3159.75, 20639.58, -25937.66, 0.00, 0.00, 0.00, 0.00
194, 41644.99, 29308.37, 10185.56, 15491.35, 3208.91, 20832.70, -25945.46, 0.00, 0.00, 0.00, 0.00
195, 41645.75, 29314.56, 10168.28, 15464.12, 3188.63, 20703.57, -25911.88, 0.00, 0.00, 0.00, 0.00
196, 41603.48, 29285.54, 10156.43, 15445.43, 3143.57, 20510.99, -25905.96, 0.00, 0.00, 0.00, 0.00
197, 41599.52, 29278.37, 10168.17, 15472.01, 3167.53, 20610.81, -25896.37, 0.00, 0.00, 0.00, 0.00
198, 41641.66, 29307.45, 10178.04, 15490.00, 3214.58, 20835.18, -25926.77, 0.00, 0.00, 0.00, 0.00
199, 41656.07, 29325.00, 10166.83, 15465.64, 3192.97, 20745.01, -25928.49, 0.00, 0.00, 0.00, 0.00
200, 41625.45, 29308.63, 10164.21, 15454.98, 3141.60, 20543.04, -25885.71, 0.00, 0.00, 0.00, 0.00
201, 41606.47, 29287.58, 10177.62, 15471.97, 3162.84, 20590.58, -25894.58, 0.00, 0.00, 0.00, 0.00
202, 41647.36, 29312.43, 10194.27, 15497.83, 3209.29, 20831.38, -25941.14, 0.00, 0.12, 0.79, 0.60
203, 41675.00, 29335.39, 10184.66, 15473.42, 3192.45, 20783.97, -26006.83, 0.00, 0.00, 0.00, 0.00
204, 41644.11, 29317.13, 10172.93, 15444.29, 3146.45, 20553.03, -25945.44, 0.00, 0.00, 0.00, 0.00
205, 41618.57, 29300.25, 10191.75, 15461.66, 3161.50, 20546.84, -25833.43, 0.00, 0.00, 0.00, 0.00
206, 41660.30, 29325.11, 10210.23, 15502.52, 3211.27, 20797.49, -25897.76, 0.00, 0.00, 0.00, 0.00
207, 41697.49, 29355.69, 10197.51, 15503.28, 3219.63, 20823.58, -25922.61, 0.00, 0.00, 0.00, 0.00
208, 41674.07, 29344.80, 10188.35, 15476.75, 3183.29, 20610.86, -25871.56, 0.00, 0.00, 0.00, 0.00
209, 41638.84, 29313.91, 10182.87, 15471.94, 3156.29, 20528.94, -25882.74, 0.00, 0.00, 0.00, 0.00
210, 41672.55, 29335.52, 10201.54, 15509.99, 3207.34, 20767.59, -25889.94, 0.00, 0.00, 0.00, 0.00
211, 41713.58, 29369.68, 10208.85, 15506.61, 3237.34, 20852.61, -25889.96, 0.00, 0.00, 0.00, 0.00
212, 41685.80, 29353.74, 10190.03, 15472.79, 3190.42, 20632.00, -25899.10, 0.00, 0.12, 0.80, 0.59
213, 41645.97, 29321.44, 10183.54, 15463.70, 3164.18, 20498.47, -25912.09, 0.00, 0.00, 0.00, 0.00
214, 41662.53, 29329.13, 10199.86, 15514.84, 3205.26, 20724.98, -25850.87, 0.00, 0.00, 0.00, 0.00
215, 41704.62, 29358.61, 10215.33, 15516.16, 3259.80, 20898.03, -25864.95, 0.00, 0.00, 0.00, 0.00
216, 41702.72, 29361.47, 10207.66, 15480.57, 3222.00, 20712.31, -25873.87, 0.00, 0.00, 0.00, 0.00
217, 41670.82, 29341.29, 10195.99, 15474.22, 3184.74, 20552.88, -25857.82, 0.00, 0.00, 0.00, 0.00
218, 41670.16, 29334.72, 10202.19, 15499.48, 3204.59, 20695.10, -25915.48, 0.00, 0.00, 0.00, 0.00
219, 41708.13, 29357.85, 10208.06, 15509.79, 3244.96, 20881.47, -25925.43, 0.00, 0.00, 0.00, 0.00
220, 41706.70, 29361.34, 10200.40, 15480.68, 3229.45, 20742.78, -25859.54, 0.00, 0.00, 0.00, 0.00
221, 41664.75, 29330.96, 10194.32, 15461.77, 3186.71, 20548.61, -25859.60, 0.00, 0.00, 0.00, 0.00
222, 41661.39, 29321.31, 10206.92, 15488.33, 3200.86, 20639.02, -25886.89, 0.00, 0.12, 0.79, 0.59
223, 41694.36, 29344.69, 10213.23, 15502.25, 3245.81, 20873.87, -25900.91, 0.00, 0.00, 0.00, 0.00
224, 41705.71, 29358.84, 10203.82, 15483.75, 3232.71, 20792.80, -25873.69, 0.00, 0.00, 0.00, 0.00
225, 41675.72, 29340.84, 10202.50, 15473.71, 3193.30, 20578.02, -25853.95, 0.00, 0.00, 0.00, 0.00
226, 41659.80, 29324.39, 10208.67, 15486.18, 3198.24, 20612.17, -25844.96, 0.00, 0.00, 0.00, 0.00
227, 41693.33, 29343.57, 10218.10, 15510.01, 3248.02, 20850.94, -25896.33, 0.00, 0.00, 0.00, 0.00
228, 41709.80, 29357.90, 10209.36, 15490.88, 3246.17, 20820.31, -25909.49, 0.00, 0.00, 0.00, 0.00
229, 41670.87, 29330.99, 10189.98, 15457.17, 3177.73, 20587.77, -25905.20, 0.00, 0.00, 0.00, 0.00
230, 41644.16, 29306.96, 10207.84, 15456.30, 3171.62, 20548.99, -25911.53, 0.00, 0.00, 0.00, 0.00
231, 41681.58, 29332.13, 10230.62, 15488.53, 3231.91, 20797.22, -25894.23, 0.00, 0.00, 0.00, 0.00
232, 41706.43, 29352.89, 10209.38, 15480.55, 3231.77, 20837.32, -25930.30, 0.00, 0.12, 0.79, 0.59
233, 41685.89, 29343.50, 10202.48, 15460.05, 3193.37, 20617.40, -25875.85, 0.00, 0.00, 0.00, 0.00
234, 41660.14, 29323.16, 10207.55, 15463.88, 3177.34, 20540.29, -25865.50, 0.00, 0.00, 0.00, 0.00
235, 41670.78, 29324.28, 10214.52, 15491.75, 3206.78, 20773.73, -25906.90, 0.00, 0.00, 0.00, 0.00
236, 41706.86, 29352.80, 10211.64, 15490.45, 3226.45, 20866.83, -25931.93, 0.00, 0.00, 0.00, 0.00
237, 41695.23, 29354.57, 10203.24, 15472.64, 3189.79, 20677.22, -25903.64, 0.00, 0.00, 0.00, 0.00
238, 41671.23, 29335.77, 10206.16, 15476.95, 3175.51, 20562.67, -25876.08, 0.00, 0.00, 0.00, 0.00
239, 41682.11, 29337.54, 10219.13, 15505.05, 3200.97, 20739.00, -25895.03, 0.00, 0.00, 0.00, 0.00
240, 41721.86, 29369.88, 10219.35, 15511.04, 3222.50, 20883.99, -25924.71, 0.00, 0.00, 0.00, 0.00
241, 41711.91, 29368.38, 10201.47, 15472.12, 3174.93, 20712.89, -25931.31, 0.00, 0.11, 0.80, 0.59
242, 41665.86, 29330.85, 10198.14, 15444.85, 3159.06, 20536.63, -25907.91, 0.00, 0.00, 0.00, 0.00
243, 41656.90, 29316.59, 10201.02, 15463.34, 3170.48, 20654.60, -25924.85, 0.00, 0.00, 0.00, 0.00
244, 41694.07, 29341.78, 10207.30, 15480.26, 3217.62, 20850.13, -25954.53, 0.00, 0.00, 0.00, 0.00
245, 41691.84, 29344.69, 10194.18, 15449.41, 3191.00, 20730.15, -25981.15, 0.00, 0.00, 0.00, 0.00
246, 41650.42, 29315.79, 10187.99, 15430.62, 3153.67, 20533.88, -25871.29, 0.00, 0.00, 0.00, 0.00
247, 41634.55, 29295.38, 10192.26, 15438.89, 3175.00, 20599.86, -25851.85, 0.00, 0.00, 0.00, 0.00
248, 41669.89, 29317.98, 10203.21, 15458.87, 3217.62, 20826.88, -25918.01, 0.00, 0.00, 0.00, 0.00
249, 41687.52, 29337.80, 10194.54, 15446.80, 3206.16, 20768.08, -25937.90, 0.00, 0.00, 0.00, 0.00
250, 41651.45, 29314.38, 10177.98, 15422.99, 3158.84, 20546.39, -25902.47, 0.00, 0.00, 0.00, 0.00
251, 41637.30, 29301.30, 10185.33, 15441.28, 3159.46, 20573.44, -25866.87, 0.00, 0.11, 0.79, 0.58
252, 41675.12, 29324.84, 10198.27, 15471.45, 3216.53, 20819.42, -25913.03, 0.00, 0.00, 0.00, 0.00
253, 41691.79, 29337.83, 10187.70, 15453.97, 3213.60, 20800.00, -25930.41, 0.00, 0.00, 0.00, 0.00
254, 41654.60, 29312.63, 10175.05, 15421.03, 3160.67, 20566.82, -25915.10, 0.00, 0.00, 0.00, 0.00
255, 41623.82, 29282.42, 10173.44, 15423.93, 3139.30, 20522.72, -25901.63, 0.00, 0.00, 0.00, 0.00
0, 41655.34, 29301.08, 10188.75, 15464.41, 3212.77, 20771.45, -25905.40, 0.00, 0.00, 0.00, 0.00
1, 41684.57, 29327.48, 10192.22, 15462.67, 3222.54, 20827.53, -25954.53, 0.00, 0.00, 0.00, 0.00
2, 41653.66, 29310.02, 10174.65, 15426.03, 3169.61, 20611.86, -25922.90, 0.00, 0.00, 0.00, 0.00
3, 41617.58, 29281.25, 10167.92, 15420.40, 3138.03, 20515.26, -25907.82, 0.00, 0.00, 0.00, 0.00
4, 41637.48, 29289.41, 10180.17, 15449.86, 3181.48, 20724.00, -25942.93, 0.00, 0.00, 0.00, 0.00
5, 41673.86, 29316.57, 10195.75, 15450.49, 3220.35, 20830.10, -25925.12, 0.00, 0.12, 0.79, 0.58
6, 41659.18, 29307.67, 10191.90, 15417.63, 3187.94, 20642.89, -25887.37, 0.00, 0.00, 0.00, 0.00
7, 41625.96, 29274.30, 10179.30, 15399.99, 3149.72, 20501.62, -25897.13, 0.00, 0.00, 0.00, 0.00
8, 41645.48, 29283.82, 10189.94, 15434.73, 3186.15, 20681.22, -25869.82, 0.00, 0.00, 0.00, 0.00
9, 41675.41, 29315.97, 10187.63, 15451.96, 3228.80, 20852.86, -25891.72, 0.00, 0.00, 0.00, 0.00
10, 41669.46, 29320.44, 10181.62, 15440.20, 3203.85, 20708.67, -25886.47, 0.00, 0.00, 0.00, 0.00
11, 41630.43, 29299.96, 10180.66, 15428.67, 3170.35, 20538.06, -25869.26, 0.00, 0.00, 0.00, 0.00
12, 41627.38, 29298.78, 10190.47, 15451.04, 3186.55, 20661.57, -25888.75, 0.00, 0.00, 0.00, 0.00
13, 41667.74, 29336.22, 10197.20, 15478.29, 3233.49, 20881.09, -25906.68, 0.00, 0.00, 0.00, 0.00
14, 41672.37, 29348.64, 10184.82, 15457.75, 3217.33, 20774.45, -25891.63, 0.00, 0.00, 0.00, 0.00
15, 41638.13, 29324.79, 10177.04, 15436.02, 3170.86, 20566.13, -25881.06, 0.00, 0.12, 0.79, 0.59
16, 41626.23, 29307.65, 10181.22, 15444.21, 3167.87, 20619.55, -25907.32, 0.00, 0.00, 0.00, 0.00
17, 41667.52, 29335.14, 10194.81, 15469.35, 3214.78, 20857.06, -25944.79, 0.00, 0.00, 0.00, 0.00
18, 41688.10, 29356.24, 10188.06, 15462.67, 3215.88, 20807.82, -25910.23, 0.00, 0.00, 0.00, 0.00
19, 41656.32, 29335.86, 10176.19, 15438.10, 3164.07, 20590.13, -25883.79, 0.00, 0.00, 0.00, 0.00
20, 41632.89, 29312.48, 10175.14, 15445.41, 3157.70, 20589.73, -25897.54, 0.00, 0.00, 0.00, 0.00
21, 41658.82, 29324.24, 10182.54, 15466.83, 3203.85, 20827.76, -25949.50, 0.00, 0.00, 0.00, 0.00
22, 41685.22, 29348.02, 10180.39, 15454.73, 3211.97, 20836.88, -25893.42, 0.00, 0.00, 0.00, 0.00
23, 41663.94, 29339.99, 10174.40, 15436.65, 3177.99, 20621.25, -25868.37, 0.00, 0.00, 0.00, 0.00
24, 41636.61, 29318.71, 10168.21, 15441.99, 3150.77, 20565.62, -25894.72, 0.00, 0.11, 0.80, 0.59
25, 41660.12, 29330.20, 10175.27, 15465.13, 3194.42, 20789.67, -25950.96, 0.00, 0.00, 0.00, 0.00
26, 41683.43, 29345.69, 10175.61, 15452.61, 3216.62, 20841.23, -25931.40, 0.00, 0.00, 0.00, 0.00
27, 41671.83, 29347.77, 10176.19, 15437.61, 3184.18, 20647.83, -25882.96, 0.00, 0.00, 0.00, 0.00
28, 41645.12, 29325.89, 10178.89, 15444.27, 3156.60, 20552.96, -25865.24, 0.00, 0.00, 0.00, 0.00
29, 41660.59, 29328.46, 10194.56, 15469.55, 3190.02, 20752.81, -25915.86, 0.00, 0.00, 0.00, 0.00
30, 41698.41, 29358.75, 10185.82, 15469.82, 3217.87, 20875.30, -25932.98, 0.00, 0.00, 0.00, 0.00
31, 41687.81, 29359.51, 10181.69, 15449.73, 3204.39, 20693.07, -25865.75, 0.00, 0.00, 0.00, 0.00
32, 41652.16, 29335.12, 10187.12, 15448.43, 3175.62, 20554.42, -25862.98, 0.00, 0.00, 0.00, 0.00
33, 41661.17, 29335.39, 10198.23, 15479.81, 3195.47, 20719.24, -25925.14, 0.00, 0.00, 0.00, 0.00
34, 41700.48, 29361.43, 10199.93, 15488.24, 3233.31, 20896.56, -25930.08, 0.00, 0.11, 0.79, 0.59
35, 41694.50, 29360.76, 10192.98, 15457.08, 3227.44, 20746.11, -25855.45, 0.00, 0.00, 0.00, 0.00
36, 41662.06, 29338.34, 10188.98, 15446.04, 3178.75, 20566.31, -25847.09, 0.00, 0.00, 0.00, 0.00
37, 41663.85, 29335.41, 10202.39, 15472.79, 3202.71, 20672.39, -25864.81, 0.00, 0.00, 0.00, 0.00
38, 41703.05, 29361.68, 10212.76, 15492.87, 3253.99, 20883.84, -25904.08, 0.00, 0.00, 0.00, 0.00
39, 41699.66, 29360.92, 10193.65, 15461.33, 3222.90, 20773.02, -25930.62, 0.00, 0.00, 0.00, 0.00
40, 41665.59, 29340.78, 10195.37, 15449.01, 3179.65, 20568.50, -25906.59, 0.00, 0.00, 0.00, 0.00
41, 41645.75, 29321.51, 10206.66, 15462.22, 3188.07, 20614.03, -25886.22, 0.00, 0.00, 0.00, 0.00
42, 41678.31, 29337.47, 10204.31, 15482.07, 3231.53, 20843.02, -25942.75, 0.00, 0.00, 0.00, 0.00
43, 41695.52, 29351.15, 10190.07, 15463.45, 3220.42, 20801.85, -25939.47, 0.00, 0.00, 0.00, 0.00
44, 41670.85, 29340.71, 10187.01, 15446.49, 3183.89, 20591.25, -25865.82, 0.00, 0.11, 0.78, 0.59
45, 41640.25, 29312.95, 10184.33, 15443.89, 3163.13, 20570.06, -25889.85, 0.00, 0.00, 0.00, 0.00
46, 41668.93, 29329.80, 10195.23, 15467.09, 3231.35, 20799.19, -25917.23, 0.00, 0.00, 0.00, 0.00
47, 41698.32, 29350.28, 10192.37, 15450.55, 3226.79, 20801.96, -25906.59, 0.00, 0.00, 0.00, 0.00
48, 41670.04, 29333.20, 10182.07, 15426.79, 3176.52, 20590.96, -25883.23, 0.00, 0.00, 0.00, 0.00
49, 41636.89, 29304.77, 10196.40, 15432.40, 3167.09, 20532.47, -25861.86, 0.00, 0.00, 0.00, 0.00
50, 41657.97, 29314.09, 10205.25, 15459.74, 3214.65, 20753.01, -25903.28, 0.00, 0.00, 0.00, 0.00
51, 41694.54, 29342.95, 10189.87, 15457.15, 3232.20, 20827.11, -25926.32, 0.00, 0.00, 0.00, 0.00
52, 41659.79, 29321.62, 10167.36, 15419.91, 3178.02, 20611.64, -25933.19, 0.00, 0.00, 0.00, 0.00
53, 41624.11, 29293.88, 10165.33, 15416.33, 3151.31, 20493.67, -25912.51, 0.00, 0.00, 0.00, 0.00
54, 41648.79, 29307.38, 10185.40, 15459.94, 3200.41, 20705.27, -25870.94, 0.00, 0.12, 0.78, 0.59
55, 41684.64, 29334.67, 10186.79, 15470.42, 3235.26, 20847.61, -25890.03, 0.00, 0.00, 0.00, 0.00
56, 41668.32, 29328.84, 10167.45, 15437.54, 3193.17, 20668.52, -25908.15, 0.00, 0.00, 0.00, 0.00
57, 41626.01, 29298.84, 10166.98, 15420.42, 3152.38, 20509.54, -25914.03, 0.00, 0.00, 0.00, 0.00
58, 41641.54, 29306.44, 10191.81, 15453.10, 3196.88, 20673.96, -25900.78, 0.00, 0.00, 0.00, 0.00
59, 41694.79, 29344.13, 10201.76, 15471.18, 3255.93, 20866.56, -25873.93, 0.00, 0.00, 0.00, 0.00
60, 41694.25, 29348.64, 10191.08, 15441.41, 3222.41, 20722.93, -25877.91, 0.00, 0.00, 0.00, 0.00
61, 41644.56, 29310.82, 10175.16, 15415.37, 3163.08, 20519.37, -25918.03, 0.00, 0.00, 0.00, 0.00
62, 41629.92, 29295.09, 10175.79, 15436.83, 3176.21, 20613.83, -25977.42, 0.00, 0.00, 0.00, 0.00
63, 41669.73, 29323.65, 10189.71, 15460.95, 3230.70, 20842.00, -25904.75, 0.00, 0.00, 0.00, 0.00
64, 41678.09, 29334.74, 10183.54, 15434.95, 3225.96, 20754.06, -25871.72, 0.00, 0.11, 0.79, 0.58
65, 41646.86, 29314.69, 10176.23, 15420.58, 3178.51, 20549.01, -25850.48, 0.00, 0.00, 0.00, 0.00
66, 41629.25, 29297.91, 10179.77, 15439.98, 3174.13, 20588.15, -25884.44, 0.00, 0.00, 0.00, 0.00
67, 41662.62, 29320.12, 10190.38, 15464.28, 3224.31, 20833.03, -25929.72, 0.00, 0.00, 0.00, 0.00
68, 41675.96, 29329.94, 10171.34, 15434.35, 3204.64, 20793.00, -25961.80, 0.00, 0.00, 0.00, 0.00
69, 41646.82, 29315.54, 10162.53, 15414.95, 3154.43, 20565.75, -25918.23, 0.00, 0.00, 0.00, 0.00
70, 41631.48, 29303.74, 10182.14, 15436.05, 3180.30, 20554.89, -25843.62, 0.00, 0.00, 0.00, 0.00
71, 41657.86, 29317.64, 10193.13, 15464.57, 3227.68, 20796.76, -25890.40, 0.00, 0.00, 0.00, 0.00
72, 41681.87, 29338.68, 10179.45, 15449.03, 3223.70, 20823.31, -25919.10, 0.00, 0.00, 0.00, 0.00
73, 41658.33, 29326.45, 10166.94, 15419.08, 3171.31, 20594.92, -25927.55, 0.00, 0.12, 0.79, 0.59
74, 41628.91, 29300.92, 10177.96, 15421.00, 3157.83, 20522.14, -25907.39, 0.00, 0.00, 0.00, 0.00
75, 41656.14, 29313.75, 10189.96, 15462.36, 3212.66, 20770.56, -25916.04, 0.00, 0.00, 0.00, 0.00
76, 41690.05, 29340.96, 10184.53, 15460.17, 3226.68, 20864.82, -25957.53, 0.00, 0.00, 0.00, 0.00
77, 41670.24, 29335.72, 10175.14, 15429.19, 3201.84, 20657.73, -25908.89, 0.00, 0.00, 0.00, 0.00
78, 41643.02, 29316.32, 10180.39, 15437.17, 3187.36, 20537.68, -25837.54, 0.00, 0.00, 0.00, 0.00
79, 41660.59, 29325.06, 10197.04, 15477.55, 3220.84, 20733.92, -25870.56, 0.00, 0.00, 0.00, 0.00
80, 41704.80, 29357.81, 10206.07, 15479.34, 3258.75, 20877.78, -25902.07, 0.00, 0.00, 0.00, 0.00
81, 41689.94, 29352.15, 10195.77, 15438.13, 3214.63, 20692.10, -25912.24, 0.00, 0.00, 0.00, 0.00
82, 41647.94, 29320.53, 10173.98, 15421.07, 3156.54, 20523.15, -25894.94, 0.00, 0.00, 0.00, 0.00
83, 41646.91, 29311.58, 10171.23, 15445.57, 3182.75, 20662.58, -25936.43, 0.00, 0.11, 0.79, 0.59
84, 41690.83, 29342.65, 10188.37, 15465.19, 3244.96, 20857.57, -25941.90, 0.00, 0.00, 0.00, 0.00
85, 41700.62, 29356.31, 10189.49, 15444.56, 3236.89, 20743.67, -25859.09, 0.00, 0.00, 0.00, 0.00
86, 41663.49, 29331.37, 10181.53, 15423.33, 3186.44, 20536.31, -25837.70, 0.00, 0.00, 0.00, 0.00
87, 41648.54, 29316.28, 10186.27, 15440.00, 3189.77, 20612.58, -25871.18, 0.00, 0.00, 0.00, 0.00
88, 41685.73, 29335.43, 10187.59, 15454.17, 3224.80, 20837.48, -25928.11, 0.00, 0.00, 0.00, 0.00
89, 41701.98, 29351.88, 10177.22, 15434.97, 3208.82, 20757.95, -25940.74, 0.00, 0.00, 0.00, 0.00
90, 41663.52, 29327.50, 10165.89, 15416.42, 3159.89, 20540.13, -25913.31, 0.00, 0.00, 0.00, 0.00
91, 41649.34, 29314.56, 10177.00, 15433.07, 3162.91, 20563.92, -25919.89, 0.00, 0.00, 0.00, 0.00
92, 41687.39, 29339.08, 10194.99, 15466.76, 3215.61, 20822.62, -25940.45, 0.00, 0.00, 0.00, 0.00
93, 41704.75, 29353.96, 10186.11, 15448.43, 3222.58, 20804.73, -25911.64, 0.00, 0.10, 0.79, 0.60
94, 41674.82, 29335.86, 10181.08, 15425.97, 3191.05, 20586.27, -25850.71, 0.00, 0.00, 0.00, 0.00
95, 41636.79, 29300.28, 10173.91, 15423.40, 3174.31, 20541.39, -25862.67, 0.00, 0.00, 0.00, 0.00
96, 41670.91, 29318.98, 10196.46, 15451.89, 3223.30, 20784.73, -25905.87, 0.00, 0.00, 0.00, 0.00
97, 41703.79, 29344.22, 10193.92, 15443.45, 3232.29, 20823.35, -25953.32, 0.00, 0.00, 0.00, 0.00
98, 41675.34, 29326.92, 10175.23, 15411.48, 3185.41, 20599.05, -25920.51, 0.00, 0.00, 0.00, 0.00
99, 41639.38, 29298.33, 10176.55, 15411.10, 3162.35, 20522.16, -25913.29, 0.00, 0.00, 0.00, 0.00
100, 41657.59, 29307.56, 10197.29, 15444.92, 3196.55, 20741.23, -25955.45, 0.00, 0.00, 0.00, 0.00
101, 41703.41, 29343.84, 10221.88, 15453.28, 3252.87, 20854.78, -25911.93, 0.00, 0.00, 0.00, 0.00
102, 41687.86, 29335.21, 10220.98, 15424.92, 3217.76, 20653.82, -25858.67, 0.00, 0.00, 0.00, 0.00
103, 41640.61, 29297.53, 10208.33, 15410.16, 3173.03, 20526.19, -25868.39, 0.00, 0.10, 0.79, 0.59
104, 41669.89, 29318.51, 10238.69, 15458.20, 3220.06, 20719.89, -25896.15, 0.00, 0.00, 0.00, 0.00
105, 41710.19, 29346.25, 10247.49, 15468.17, 3255.31, 20880.69, -25874.20, 0.00, 0.00, 0.00, 0.00
106, 41702.68, 29348.31, 10240.88, 15443.00, 3228.51, 20717.59, -25885.08, 0.00, 0.00, 0.00, 0.00
107, 41658.98, 29320.32, 10237.17, 15429.83, 3192.19, 20540.65, -25897.13, 0.00, 0.00, 0.00, 0.00
108, 41662.89, 29321.78, 10261.66, 15462.22, 3222.29, 20673.78, -25856.52, 0.00, 0.00, 0.00, 0.00
109, 41706.79, 29350.30, 10271.16, 15477.78, 3255.00, 20876.89, -25901.11, 0.00, 0.00, 0.00, 0.00
110, 41711.17, 29356.58, 10260.93, 15446.80, 3226.50, 20749.79, -25903.97, 0.00, 0.00, 0.00, 0.00
111, 41685.13, 29342.41, 10265.71, 15442.15, 3202.40, 20564.74, -25836.87, 0.00, 0.00, 0.00, 0.00
112, 41678.25, 29333.06, 10277.11, 15465.73, 3216.35, 20640.54, -25841.95, 0.00, 0.11, 0.79, 0.59
113, 41715.37, 29358.01, 10286.18, 15489.16, 3260.09, 20869.13, -25918.01, 0.00, 0.00, 0.00, 0.00
114, 41723.93, 29370.41, 10276.28, 15466.85, 3248.22, 20799.82, -25925.41, 0.00, 0.00, 0.00, 0.00
115, 41690.45, 29351.26, 10264.43, 15444.59, 3206.00, 20577.91, -25860.05, 0.00, 0.00, 0.00, 0.00
116, 41670.20, 29335.05, 10266.09, 15461.66, 3198.29, 20612.73, -25833.50, 0.00, 0.00, 0.00, 0.00
117, 41709.36, 29360.94, 10282.54, 15498.14, 3271.69, 20861.87, -25892.62, 0.00, 0.00, 0.00, 0.00
118, 41727.00, 29372.34, 10275.05, 15469.53, 3256.78, 20838.11, -25932.98, 0.00, 0.00, 0.00, 0.00
119, 41693.87, 29352.98, 10263.27, 15448.56, 3206.04, 20622.81, -25854.13, 0.00, 0.00, 0.00, 0.00
120, 41659.16, 29323.48, 10265.26, 15450.38, 3192.75, 20572.57, -25850.75, 0.00, 0.00, 0.00, 0.00
121, 41692.35, 29345.54, 10280.62, 15483.70, 3240.15, 20803.28, -25887.90, 0.00, 0.00, 0.00, 0.00
122, 41726.17, 29375.62, 10286.58, 15481.15, 3269.55, 20865.71, -25860.43, 0.00, 0.12, 0.79, 0.59
123, 41696.69, 29356.74, 10268.06, 15447.56, 3222.92, 20653.68, -25858.91, 0.00, 0.00, 0.00, 0.00
124, 41667.61, 29334.29, 10272.82, 15449.77, 3197.28, 20561.28, -25839.91, 0.00, 0.00, 0.00, 0.00
125, 41691.95, 29350.21, 10293.40, 15494.63, 3245.79, 20782.34, -25861.32, 0.00, 0.00, 0.00, 0.00
126, 41722.91, 29371.15, 10282.38, 15492.35, 3267.62, 20886.47, -25880.46, 0.00, 0.00, 0.00, 0.00
127, 41706.86, 29363.71, 10266.40, 15454.76, 3226.21, 20692.22, -25874.87, 0.00, 0.00, 0.00, 0.00
128, 41671.56, 29338.09, 10270.04, 15449.59, 3203.88, 20552.79, -25849.34, 0.00, 0.00, 0.00, 0.00
129, 41669.73, 29330.14, 10274.07, 15473.73, 3220.73, 20712.06, -25884.59, 0.00, 0.00, 0.00, 0.00
130, 41706.66, 29354.48, 10276.42, 15483.50, 3266.06, 20876.39, -25912.76, 0.00, 0.00, 0.00, 0.00
131, 41701.38, 29354.23, 10268.82, 15451.58, 3240.09, 20723.84, -25879.72, 0.00, 0.00, 0.00, 0.00
132, 41660.50, 29323.10, 10261.46, 15427.71, 3191.23, 20537.95, -25863.02, 0.00, 0.11, 0.79, 0.59
133, 41653.08, 29315.14, 10269.42, 15448.79, 3200.90, 20647.78, -25924.31, 0.00, 0.00, 0.00, 0.00
134, 41695.05, 29349.70, 10279.75, 15472.82, 3251.98, 20862.18, -25922.37, 0.00, 0.00, 0.00, 0.00
135, 41699.91, 29359.48, 10273.42, 15451.74, 3242.32, 20757.08, -25855.92, 0.00, 0.00, 0.00, 0.00
136, 41649.46, 29320.10, 10255.45, 15423.80, 3181.88, 20543.69, -25846.57, 0.00, 0.00, 0.00, 0.00
137, 41631.82, 29300.52, 10258.40, 15439.94, 3183.85, 20590.11, -25862.06, 0.00, 0.00, 0.00, 0.00
138, 41679.00, 29329.49, 10277.13, 15466.67, 3243.69, 20828.25, -25909.36, 0.00, 0.00, 0.00, 0.00
139, 41684.50, 29335.63, 10256.50, 15436.20, 3218.16, 20769.02, -25960.75, 0.00, 0.00, 0.00, 0.00
140, 41651.60, 29314.40, 10246.82, 15416.49, 3173.72, 20551.15, -25898.54, 0.00, 0.00, 0.00, 0.00
141, 41628.56, 29292.09, 10257.06, 15429.79, 3190.73, 20550.89, -25833.07, 0.00, 0.00, 0.00, 0.00
142, 41661.10, 29312.08, 10264.55, 15460.66, 3235.55, 20796.38, -25891.03, 0.00, 0.11, 0.79, 0.60
143, 41685.42, 29334.96, 10255.61, 15448.83, 3241.96, 20808.27, -25920.85, 0.00, 0.00, 0.00, 0.00
144, 41654.04, 29319.41, 10246.62, 15427.31, 3186.76, 20593.62, -25884.04, 0.00, 0.00, 0.00, 0.00
145, 41628.11, 29295.45, 10254.80, 15430.53, 3184.48, 20539.20, -25851.02, 0.00, 0.00, 0.00, 0.00
146, 41652.23, 29307.58, 10259.52, 15460.63, 3217.15, 20765.40, -25881.17, 0.00, 0.00, 0.00, 0.00
147, 41685.11, 29337.67, 10254.62, 15462.85, 3228.33, 20839.60, -25915.01, 0.00, 0.00, 0.00, 0.00
148, 41665.17, 29328.08, 10242.71, 15434.97, 3181.46, 20636.54, -25899.48, 0.00, 0.00, 0.00, 0.00
149, 41623.82, 29294.35, 10234.71, 15430.35, 3145.81, 20519.66, -25895.77, 0.00, 0.00, 0.00, 0.00
150, 41638.59, 29297.30, 10245.46, 15454.78, 3185.70, 20713.70, -25931.31, 0.00, 0.00, 0.00, 0.00
151, 41661.77, 29310.74, 10238.46, 15438.84, 3204.10, 20825.79, -25970.00, 0.00, 0.00, 0.00, 0.00
152, 41647.69, 29306.31, 10229.01, 15412.76, 3168.05, 20646.22, -25965.55, 0.00, 0.11, 0.80, 0.60
153, 41612.29, 29280.74, 10225.88, 15409.14, 3127.41, 20499.01, -25935.71, 0.00, 0.00, 0.00, 0.00
154, 41611.44, 29272.49, 10236.74, 15430.62, 3167.04, 20652.86, -25900.35, 0.00, 0.00, 0.00, 0.00
155, 41648.81, 29295.18, 10245.99, 15433.45, 3216.06, 20830.10, -25932.40, 0.00, 0.00, 0.00, 0.00
156, 41643.13, 29295.11, 10230.15, 15401.33, 3185.53, 20680.32, -25920.09, 0.00, 0.00, 0.00, 0.00
157, 41608.98, 29271.87, 10228.38, 15389.58, 3151.26, 20495.10, -25889.29, 0.00, 0.00, 0.00, 0.00
158, 41598.16, 29256.55, 10231.04, 15407.68, 3164.40, 20594.54, -25902.09, 0.00, 0.00, 0.00, 0.00
159, 41637.59, 29282.35, 10246.04, 15431.29, 3215.39, 20813.01, -25934.08, 0.00, 0.00, 0.00, 0.00
160, 41646.68, 29295.67, 10243.67, 15413.16, 3202.42, 20725.34, -25927.02, 0.00, 0.00, 0.00, 0.00
161, 41611.10, 29274.12, 10225.63, 15394.07, 3158.21, 20522.21, -25894.05, 0.00, 0.10, 0.79, 0.60
162, 41597.02, 29257.65, 10233.05, 15412.76, 3161.83, 20564.48, -25899.90, 0.00, 0.00, 0.00, 0.00
163, 41635.40, 29283.98, 10243.65, 15439.29, 3213.53, 20808.38, -25936.00, 0.00, 0.00, 0.00, 0.00
164, 41653.46, 29302.44, 10229.25, 15419.73, 3206.49, 20765.26, -25954.20, 0.00, 0.00, 0.00, 0.00
165, 41608.33, 29274.53, 10219.33, 15386.49, 3152.96, 20529.38, -25938.68, 0.00, 0.00, 0.00, 0.00
166, 41591.19, 29260.51, 10225.90, 15401.71, 3148.00, 20521.49, -25901.92, 0.00, 0.00, 0.00, 0.00
167, 41615.64, 29272.76, 10233.48, 15431.00, 3209.49, 20768.64, -25930.57, 0.00, 0.00, 0.00, 0.00
168, 41633.21, 29287.51, 10228.81, 15415.08, 3218.45, 20780.64, -25946.51, 0.00, 0.00, 0.00, 0.00
169, 41600.66, 29268.29, 10216.51, 15385.84, 3162.77, 20558.64, -25923.02, 0.00, 0.00, 0.00, 0.00
170, 41572.43, 29245.71, 10219.80, 15396.53, 3148.04, 20502.61, -25909.76, 0.00, 0.00, 0.00, 0.00
171, 41594.45, 29254.41, 10234.21, 15427.67, 3192.86, 20730.91, -25936.16, 0.00, 0.08, 0.81, 0.60
172, 41641.41, 29294.49, 10249.82, 15434.62, 3219.17, 20816.22, -25959.96, 0.00, 0.00, 0.00, 0.00
173, 41620.54, 29281.54, 10247.36, 15395.66, 3165.30, 20598.70, -25987.34, 0.00, 0.00, 0.00, 0.00
174, 41570.42, 29234.61, 10224.74, 15384.24, 3131.14, 20473.93, -25972.48, 0.00, 0.00, 0.00, 0.00
175, 41592.10, 29244.89, 10238.17, 15423.46, 3181.46, 20666.51, -25921.32, 0.00, 0.00, 0.00, 0.00
176, 41648.85, 29285.97, 10257.73, 15435.22, 3234.43, 20809.83, -25919.78, 0.00, 0.00, 0.00, 0.00
177, 41640.09, 29278.75, 10248.95, 15400.22, 3208.53, 20632.07, -25894.92, 0.00, 0.00, 0.00, 0.00
178, 41599.30, 29243.17, 10255.54, 15390.18, 3167.71, 20472.57, -25880.57, 0.00, 0.00, 0.00, 0.00
179, 41600.64, 29233.58, 10284.19, 15416.40, 3181.97, 20617.23, -25954.76, 0.00, 0.00, 0.00, 0.00
180, 41643.06, 29257.74, 10298.39, 15422.23, 3224.86, 20806.66, -25897.69, 0.00, 0.00, 0.00, 0.00
181, 41646.66, 29258.12, 10295.53, 15383.88, 3212.42, 20666.91, -25863.40, 0.00, 0.06, 0.83, 0.61
182, 41608.08, 29223.70, 10299.21, 15360.86, 3184.77, 20463.38, -25860.95, 0.00, 0.00, 0.00, 0.00
183, 41607.52, 29214.82, 10317.14, 15383.57, 3184.21, 20547.69, -25881.69, 0.00, 0.00, 0.00, 0.00
184, 41650.64, 29238.45, 10318.19, 15403.39, 3225.96, 20764.97, -25931.67, 0.00, 0.00, 0.00, 0.00
185, 41662.62, 29247.90, 10305.90, 15375.00, 3206.65, 20681.04, -25942.48, 0.00, 0.00, 0.00, 0.00
186, 41630.05, 29222.78, 10299.91, 15341.32, 3156.09, 20457.30, -25918.66, 0.00, 0.00, 0.00, 0.00
187, 41624.13, 29209.73, 10308.20, 15349.75, 3154.86, 20474.06, -25927.22, 0.00, 0.00, 0.00, 0.00
188, 41672.17, 29246.45, 10319.40, 15378.09, 3206.89, 20724.40, -25982.92, 0.00, 0.00, 0.00, 0.00
189, 41693.98, 29278.64, 10306.63, 15369.06, 3201.19, 20713.05, -25997.76, 0.00, 0.00, 0.00, 0.00
190, 41669.64, 29272.71, 10296.96, 15344.09, 3159.26, 20477.13, -25979.34, 0.00, 0.00, 0.00, 0.00
191, 41656.45, 29264.49, 10301.61, 15356.41, 3146.86, 20447.89, -25997.89, 0.00, 0.05, 0.81, 0.62
192, 41700.29, 29296.16, 10322.79, 15401.67, 3204.14, 20709.40, -25966.22, 0.00, 0.00, 0.00, 0.00
193, 41739.38, 29326.07, 10322.06, 15393.38, 3224.10, 20747.51, -25932.96, 0.00, 0.00, 0.00, 0.00
194, 41727.44, 29332.08, 10317.16, 15380.32, 3187.27, 20555.63, -25849.43, 0.00, 0.00, 0.00, 0.00
195, 41696.48, 29313.17, 10317.21, 15371.50, 3162.17, 20450.82, -25874.18, 0.00, 0.00, 0.00, 0.00
196, 41726.77, 29335.99, 10343.14, 15420.65, 3239.82, 20653.64, -25880.57, 0.00, 0.00, 0.00, 0.00
197, 41759.50, 29362.12, 10326.46, 15429.16, 3246.52, 20831.00, -25877.42, 0.00, 0.00, 0.00, 0.00
198, 41750.00, 29362.59, 10316.36, 15400.15, 3217.89, 20659.47, -25834.30, 0.00, 0.00, 0.00, 0.00
199, 41723.13, 29342.99, 10320.11, 15400.22, 3193.42, 20532.24, -25824.89, 0.00, 0.00, 0.00, 0.00
200, 41728.20, 29341.80, 10322.37, 15423.91, 3218.07, 20687.86, -25883.74, 0.00, 0.00, 0.00, 0.00
201, 41760.63, 29367.53, 10317.32, 15435.69, 3249.36, 20847.52, -25882.04, 0.00, 0.09, 0.75, 0.62
202, 41748.12, 29366.46, 10293.49, 15403.73, 3209.44, 20683.95, -25865.24, 0.00, 0.00, 0.00, 0.00
203, 41707.68, 29341.51, 10264.61, 15385.51, 3162.75, 20487.27, -25864.05, 0.00, 0.00, 0.00, 0.00
204, 41705.43, 29338.34, 10247.27, 15408.33, 3176.36, 20606.47, -25895.03, 0.00, 0.00, 0.00, 0.00
205, 41744.96, 29371.00, 10246.04, 15426.08, 3213.40, 20803.73, -25951.36, 0.00, 0.00, 0.00, 0.00
206, 41732.67, 29364.00, 10222.44, 15385.40, 3177.84, 20664.34, -25957.06, 0.00, 0.00, 0.00, 0.00
207, 41690.50, 29334.65, 10210.25, 15364.77, 3143.95, 20447.51, -25907.30, 0.00, 0.00, 0.00, 0.00
208, 41687.07, 29327.83, 10236.50, 15384.73, 3164.27, 20507.08, -25895.14, 0.00, 0.00, 0.00, 0.00
209, 41726.37, 29355.51, 10248.30, 15402.72, 3204.30, 20742.33, -25942.08, 0.00, 0.00, 0.00, 0.00
210, 41724.22, 29357.38, 10223.17, 15365.91, 3179.07, 20662.09, -25970.85, 0.00, 0.10, 0.73, 0.63
211, 41688.13, 29335.77, 10214.66, 15339.17, 3130.34, 20428.42, -25972.19, 0.00, 0.00, 0.00, 0.00
212, 41678.31, 29329.94, 10229.01, 15368.41, 3139.32, 20464.16, -25916.20, 0.00, 0.00, 0.00, 0.00
213, 41707.44, 29346.97, 10243.18, 15400.49, 3202.20, 20730.73, -25913.07, 0.00, 0.00, 0.00, 0.00
214, 41720.63, 29361.90, 10229.41, 15393.29, 3199.14, 20732.47, -25979.92, 0.00, 0.00, 0.00, 0.00
215, 41692.39, 29346.48, 10220.96, 15366.69, 3145.23, 20497.58, -25963.70, 0.00, 0.00, 0.00, 0.00
216, 41669.26, 29326.83, 10233.05, 15372.03, 3140.06, 20438.46, -25897.42, 0.00, 0.00, 0.00, 0.00
217, 41698.47, 29344.55, 10249.41, 15413.29, 3190.29, 20695.61, -25923.35, 0.00, 0.00, 0.00, 0.00
218, 41715.86, 29358.32, 10233.66, 15395.43, 3185.97, 20755.18, -25953.44, 0.00, 0.00, 0.00, 0.00
219, 41695.48, 29347.39, 10225.88, 15356.47, 3147.42, 20526.03, -25933.88, 0.00, 0.00, 0.00, 0.00
220, 41666.94, 29324.24, 10223.71, 15352.94, 3120.35, 20417.45, -25927.89, 0.00, 0.12, 0.74, 0.63
221, 41683.86, 29333.45, 10233.61, 15411.95, 3162.95, 20634.75, -25929.97, 0.00, 0.00, 0.00, 0.00
222, 41709.32, 29355.37, 10222.66, 15383.30, 3166.62, 20744.77, -25974.00, 0.00, 0.00, 0.00, 0.00
223, 41685.60, 29341.78, 10207.10, 15335.40, 3138.65, 20535.31, -25969.64, 0.00, 0.00, 0.00, 0.00
224, 41654.04, 29318.09, 10219.04, 15333.94, 3102.22, 20386.56, -25919.13, 0.00, 0.00, 0.00, 0.00
225, 41655.25, 29311.36, 10229.16, 15362.64, 3140.62, 20568.59, -25936.79, 0.00, 0.00, 0.00, 0.00
226, 41670.49, 29317.29, 10198.45, 15360.25, 3156.25, 20723.33, -26035.85, 0.00, 0.00, 0.00, 0.00
227, 41659.27, 29305.39, 10169.17, 15313.69, 3106.53, 20546.04, -26046.35, 0.00, 0.00, 0.00, 0.00
228, 41627.33, 29284.12, 10167.76, 15297.04, 3071.15, 20348.80, -25963.65, 0.00, 0.00, 0.00, 0.00
229, 41632.98, 29283.71, 10192.57, 15333.18, 3098.60, 20494.60, -25977.82, 0.00, 0.00, 0.00, 0.00
230, 41665.91, 29305.91, 10188.51, 15348.00, 3132.82, 20732.94, -26025.74, 0.00, 0.15, 0.74, 0.63
231, 41669.77, 29317.02, 10172.14, 15322.72, 3110.27, 20626.44, -25964.05, 0.00, 0.00, 0.00, 0.00
232, 41638.77, 29294.84, 10172.99, 15301.56, 3097.91, 20403.32, -25893.73, 0.00, 0.00, 0.00, 0.00
233, 41629.36, 29284.32, 10186.87, 15318.14, 3093.79, 20424.08, -25938.64, 0.00, 0.00, 0.00, 0.00
234, 41657.68, 29301.84, 10185.94, 15344.96, 3128.69, 20665.51, -25974.78, 0.00, 0.00, 0.00, 0.00
235, 41674.42, 29321.11, 10171.85, 15329.16, 3114.07, 20637.23, -25988.17, 0.00, 0.00, 0.00, 0.00
236, 41652.72, 29307.36, 10170.51, 15305.27, 3075.44, 20404.19, -25957.30, 0.00, 0.00, 0.00, 0.00
237, 41629.05, 29280.96, 10176.93, 15314.97, 3072.09, 20399.23, -25948.90, 0.00, 0.00, 0.00, 0.00
238, 41663.47, 29309.26, 10194.21, 15354.44, 3129.80, 20658.20, -25974.20, 0.00, 0.00, 0.00, 0.00
239, 41693.73, 29341.49, 10199.35, 15354.93, 3144.13, 20670.85, -25991.46, 0.00, 0.00, 0.00, 0.00
240, 41667.05, 29325.09, 10187.01, 15325.99, 3089.17, 20436.62, -26003.24, 0.00, 0.17, 0.73, 0.63
241, 41645.07, 29303.87, 10189.33, 15335.17, 3070.86, 20373.14, -25951.34, 0.00, 0.00, 0.00, 0.00
242, 41679.43, 29325.40, 10209.76, 15374.20, 3132.02, 20618.46, -25963.25, 0.00, 0.00, 0.00, 0.00
243, 41707.46, 29352.22, 10208.42, 15371.00, 3154.75, 20688.80, -26011.78, 0.00, 0.00, 0.00, 0.00
244, 41685.53, 29339.93, 10193.51, 15333.45, 3107.21, 20462.08, -25953.41, 0.00, 0.00, 0.00, 0.00
245, 41654.87, 29313.15, 10192.95, 15326.77, 3081.30, 20346.70, -25941.70, 0.00, 0.00, 0.00, 0.00
246, 41667.76, 29317.53, 10202.97, 15361.44, 3108.30, 20562.78, -26017.97, 0.00, 0.00, 0.00, 0.00
247, 41698.27, 29341.47, 10208.80, 15359.96, 3135.93, 20680.97, -26011.66, 0.00, 0.00, 0.00, 0.00
248, 41699.37, 29345.94, 10208.13, 15337.41, 3115.77, 20497.24, -25942.69, 0.00, 0.00, 0.00, 0.00
249, 41665.80, 29320.19, 10210.86, 15331.60, 3106.27, 20360.00, -25910.05, 0.00, 0.18, 0.74, 0.63
250, 41665.84, 29312.75, 10219.91, 15354.82, 3122.56, 20502.09, -25924.20, 0.00, 0.00, 0.00, 0.00
251, 41706.10, 29341.58, 10224.16, 15365.50, 3162.66, 20674.20, -25960.84, 0.00, 0.00, 0.00, 0.00
252, 41707.93, 29348.09, 10218.66, 15340.52, 3143.80, 20538.57, -25954.38, 0.00, 0.00, 0.00, 0.00
253, 41687.25, 29339.08, 10229.32, 15351.22, 3110.98, 20391.25, -25888.01, 0.00, 0.00, 0.00, 0.00
254, 41684.26, 29332.24, 10244.83, 15399.64, 3118.20, 20508.24, -25919.75, 0.00, 0.00, 0.00, 0.00
255, 41712.22, 29351.93, 10236.90, 15394.12, 3157.16, 20712.22, -25942.22, 0.00, 0.00, 0.00, 0.00
0, 41717.09, 29367.53, 10223.40, 15370.36, 3149.36, 20617.05, -25914.48, 0.00, 0.00, 0.00, 0.00
1, 41694.09, 29350.75, 10222.97, 15360.16, 3112.55, 20412.46, -25901.33, 0.00, 0.00, 0.00, 0.00
2, 41682.11, 29335.05, 10235.18, 15377.46, 3117.80, 20452.16, -25910.83, 0.00, 0.00, 0.00, 0.00
3, 41718.95, 29361.90, 10247.80, 15412.80, 3164.02, 20704.55, -25937.50, 0.00, 0.19, 0.73, 0.63
4, 41727.66, 29371.42, 10232.79, 15392.37, 3159.71, 20660.70, -25925.47, 0.00, 0.00, 0.00, 0.00
5, 41698.79, 29354.08, 10226.17, 15365.04, 3141.69, 20433.12, -25893.11, 0.00, 0.00, 0.00, 0.00
6, 41676.59, 29330.79, 10229.86, 15371.32, 3119.54, 20413.91, -25904.58, 0.00, 0.00, 0.00, 0.00
7, 41708.31, 29348.38, 10237.12, 15404.62, 3158.32, 20661.39, -25929.68, 0.00, 0.00, 0.00, 0.00
8, 41738.48, 29377.01, 10237.70, 15405.67, 3170.17, 20693.00, -25944.36, 0.00, 0.00, 0.00, 0.00
9, 41713.05, 29365.86, 10232.63, 15379.01, 3128.66, 20466.78, -25906.30, 0.00, 0.00, 0.00, 0.00
10, 41685.15, 29342.45, 10237.86, 15380.37, 3116.41, 20389.04, -25874.11, 0.00, 0.00, 0.00, 0.00
11, 41712.20, 29359.44, 10257.08, 15420.20, 3166.75, 20638.91, -25912.80, 0.00, 0.00, 0.00, 0.00
12, 41738.95, 29383.78, 10253.55, 15415.39, 3176.72, 20732.94, -25948.29, 0.00, 0.00, 0.00, 0.00
13, 41716.69, 29369.10, 10239.13, 15377.75, 3136.35, 20510.25, -25882.74, 0.00, 0.20, 0.74, 0.63
14, 41685.13, 29341.22, 10243.04, 15374.38, 3119.79, 20386.60, -25854.22, 0.00, 0.00, 0.00, 0.00
15, 41699.17, 29347.86, 10260.12, 15413.47, 3156.07, 20594.99, -25923.96, 0.00, 0.00, 0.00, 0.00
16, 41735.04, 29380.05, 10259.05, 15426.41, 3186.31, 20750.55, -25918.05, 0.00, 0.00, 0.00, 0.00
17, 41718.93, 29373.14, 10240.63, 15390.09, 3151.39, 20560.43, -25895.52, 0.00, 0.00, 0.00, 0.00
18, 41686.14, 29347.55, 10239.83, 15377.58, 3104.97, 20398.18, -25863.49, 0.00, 0.00, 0.00, 0.00
19, 41698.92, 29353.38, 10263.58, 15415.19, 3158.99, 20555.27, -25847.98, 0.00, 0.00, 0.00, 0.00
20, 41730.75, 29374.75, 10261.22, 15425.50, 3195.45, 20749.77, -25891.97, 0.00, 0.00, 0.00, 0.00
21, 41728.27, 29376.81, 10248.18, 15399.08, 3163.71, 20609.22, -25894.47, 0.00, 0.00, 0.00, 0.00
22, 41691.01, 29347.15, 10242.42, 15378.69, 3115.34, 20402.47, -25891.90, 0.00, 0.00, 0.00, 0.00
23, 41693.91, 29346.14, 10257.01, 15407.86, 3132.02, 20492.68, -25885.02, 0.00, 0.19, 0.74, 0.63
24, 41729.41, 29370.71, 10265.11, 15426.37, 3180.83, 20715.73, -25915.37, 0.00, 0.00, 0.00, 0.00
25, 41729.45, 29374.82, 10248.97, 15393.44, 3157.92, 20620.67, -25931.58, 0.00, 0.00, 0.00, 0.00
26, 41696.20, 29351.28, 10241.52, 15365.53, 3114.74, 20397.26, -25903.19, 0.00, 0.00, 0.00, 0.00
27, 41681.49, 29337.36, 10244.77, 15386.20, 3109.55, 20426.30, -25932.11, 0.00, 0.00, 0.00, 0.00
28, 41709.63, 29355.28, 10250.49, 15412.44, 3148.98, 20685.98, -25948.23, 0.00, 0.00, 0.00, 0.00
29, 41729.23, 29378.08, 10249.12, 15401.71, 3158.93, 20665.66, -25919.02, 0.00, 0.00, 0.00, 0.00
30, 41702.14, 29362.17, 10249.73, 15379.03, 3135.68, 20439.11, -25849.61, 0.00, 0.00, 0.00, 0.00
31, 41679.65, 29338.47, 10251.49, 15380.75, 3122.83, 20398.16, -25879.61, 0.00, 0.00, 0.00, 0.00
32, 41703.97, 29356.31, 10255.96, 15413.20, 3164.87, 20643.65, -25922.19, 0.00, 0.00, 0.00, 0.00
33, 41721.38, 29369.65, 10242.73, 15391.86, 3160.07, 20661.01, -25961.08, 0.00, 0.19, 0.75, 0.63
34, 41703.73, 29363.96, 10239.09, 15379.74, 3115.16, 20462.51, -25925.86, 0.00, 0.00, 0.00, 0.00
35, 41679.68, 29344.11, 10261.53, 15395.48, 3119.88, 20395.50, -25859.87, 0.00, 0.00, 0.00, 0.00
36, 41700.02, 29351.93, 10267.59, 15435.13, 3167.80, 20628.83, -25856.92, 0.00, 0.00, 0.00, 0.00
37, 41733.81, 29377.63, 10259.34, 15426.57, 3186.31, 20724.56, -25908.00, 0.00, 0.00, 0.00, 0.00
38, 41712.51, 29366.06, 10244.72, 15390.49, 3141.34, 20513.27, -25894.45, 0.00, 0.00, 0.00, 0.00
39, 41680.37, 29339.01, 10242.02, 15380.48, 3105.82, 20378.82, -25887.66, 0.00, 0.00, 0.00, 0.00
40, 41688.75, 29340.71, 10251.98, 15413.32, 3136.06, 20564.90, -25920.09, 0.00, 0.00, 0.00, 0.00
41, 41727.53, 29372.05, 10258.91, 15424.00, 3171.22, 20716.80, -25941.34, 0.00, 0.00, 0.00, 0.00
42, 41720.11, 29372.90, 10248.07, 15392.06, 3141.11, 20550.21, -25925.50, 0.00, 0.19, 0.75, 0.63
43, 41681.26, 29342.05, 10239.80, 15376.68, 3101.06, 20375.49, -25933.88, 0.00, 0.00, 0.00, 0.00
44, 41685.98, 29340.91, 10252.95, 15407.95, 3126.41, 20505.18, -25921.92, 0.00, 0.00, 0.00, 0.00
45, 41720.29, 29366.55, 10259.88, 15423.73, 3173.21, 20698.63, -25921.79, 0.00, 0.00, 0.00, 0.00
46, 41713.29, 29364.78, 10248.07, 15394.52, 3150.48, 20570.73, -25916.29, 0.00, 0.00, 0.00, 0.00
47, 41673.80, 29334.96, 10238.04, 15376.14, 3108.55, 20374.53, -25875.09, 0.00, 0.00, 0.00, 0.00
48, 41668.97, 29328.01, 10250.76, 15408.04, 3127.63, 20448.20, -25884.15, 0.00, 0.00, 0.00, 0.00
49, 41707.77, 29352.35, 10256.52, 15427.15, 3167.49, 20677.84, -25963.25, 0.00, 0.00, 0.00, 0.00
50, 41721.52, 29370.39, 10247.07, 15407.75, 3145.05, 20614.30, -25922.57, 0.00, 0.00, 0.00, 0.00
51, 41693.04, 29356.33, 10243.78, 15395.41, 3124.46, 20396.03, -25855.27, 0.00, 0.00, 0.00, 0.00
52, 41680.32, 29343.28, 10263.50, 15402.83, 3125.20, 20418.97, -25859.47, 0.00, 0.17, 0.74, 0.63
53, 41717.72, 29369.81, 10271.10, 15437.70, 3162.30, 20679.68, -25925.16, 0.00, 0.00, 0.00, 0.00
54, 41744.09, 29397.42, 10259.16, 15432.07, 3158.26, 20681.60, -25924.80, 0.00, 0.00, 0.00, 0.00
55, 41716.56, 29380.27, 10251.94, 15404.75, 3111.88, 20438.72, -25894.65, 0.00, 0.00, 0.00, 0.00
56, 41687.99, 29352.85, 10254.44, 15406.43, 3094.55, 20388.99, -25904.93, 0.00, 0.00, 0.00, 0.00
57, 41708.60, 29361.65, 10257.98, 15432.18, 3134.34, 20628.49, -25940.67, 0.00, 0.00, 0.00, 0.00
58, 41729.99, 29379.42, 10249.53, 15415.75, 3144.26, 20666.56, -25980.35, 0.00, 0.00, 0.00, 0.00
59, 41714.34, 29372.22, 10240.54, 15381.84, 3104.99, 20433.20, -25951.69, 0.00, 0.00, 0.00, 0.00
60, 41690.07, 29349.25, 10241.75, 15378.18, 3084.38, 20338.01, -25900.84, 0.00, 0.00, 0.00, 0.00
61, 41689.51, 29340.82, 10253.84, 15414.75, 3128.42, 20564.41, -25906.54, 0.00, 0.00, 0.00, 0.00
62, 41693.02, 29342.21, 10243.56, 15401.74, 3151.60, 20655.45, -25964.79, 0.00, 0.17, 0.75, 0.63
63, 41643.49, 29304.99, 10222.10, 15356.74, 3108.81, 20440.65, -25987.39, 0.00, 0.00, 0.00, 0.00
64, 41590.58, 29263.04, 10224.04, 15352.72, 3076.23, 20315.12, -25924.65, 0.00, 0.00, 0.00, 0.00
65, 41599.12, 29270.37, 10247.27, 15401.38, 3128.35, 20506.54, -25882.85, 0.00, 0.00, 0.00, 0.00
66, 41617.96, 29283.20, 10248.18, 15408.08, 3172.34, 20679.79, -25906.77, 0.00, 0.00, 0.00, 0.00
67, 41586.45, 29259.24, 10226.33, 15373.55, 3132.08, 20529.47, -25935.22, 0.00, 0.00, 0.00, 0.00
68, 41524.13, 29208.57, 10214.10, 15352.38, 3087.58, 20343.46, -25911.44, 0.00, 0.00, 0.00, 0.00
69, 41510.68, 29192.03, 10229.59, 15383.83, 3125.58, 20461.35, -25874.04, 0.00, 0.00, 0.00, 0.00
70, 41530.37, 29208.34, 10236.41, 15402.79, 3172.56, 20671.36, -25904.08, 0.00, 0.00, 0.00, 0.00
71, 41517.05, 29200.43, 10223.13, 15373.60, 3136.91, 20547.82, -25973.13, 0.00, 0.00, 0.00, 0.00
72, 41475.70, 29166.25, 10213.90, 15350.22, 3086.69, 20327.99, -25955.47, 0.00, 0.17, 0.75, 0.63
73, 41464.23, 29158.12, 10230.19, 15380.48, 3118.60, 20408.28, -25848.83, 0.00, 0.00, 0.00, 0.00
74, 41505.02, 29191.73, 10250.38, 15416.22, 3170.48, 20674.69, -25877.46, 0.00, 0.00, 0.00, 0.00
75, 41505.47, 29196.03, 10232.18, 15394.67, 3145.74, 20620.13, -25927.55, 0.00, 0.00, 0.00, 0.00
76, 41468.68, 29169.12, 10207.33, 15364.12, 3081.30, 20377.55, -25914.23, 0.00, 0.00, 0.00, 0.00
77, 41462.91, 29159.19, 10214.52, 15373.24, 3100.30, 20362.68, -25913.07, 0.00, 0.00, 0.00, 0.00
78, 41513.09, 29197.86, 10231.31, 15413.27, 3148.89, 20620.58, -25918.90, 0.00, 0.00, 0.00, 0.00
79, 41546.73, 29226.74, 10226.68, 15401.89, 3152.36, 20639.62, -25930.32, 0.00, 0.00, 0.00, 0.00
80, 41520.71, 29208.54, 10217.97, 15365.84, 3110.38, 20406.45, -25917.88, 0.00, 0.00, 0.00, 0.00
81, 41503.86, 29192.45, 10227.29, 15373.15, 3104.61, 20357.70, -25864.05, 0.00, 0.18, 0.75, 0.62
82, 41539.26, 29218.51, 10240.54, 15415.24, 3151.69, 20605.71, -25893.69, 0.00, 0.00, 0.00, 0.00
83, 41575.83, 29252.51, 10239.54, 15420.42, 3165.95, 20682.61, -25942.39, 0.00, 0.00, 0.00, 0.00
84, 41551.82, 29238.00, 10222.30, 15381.49, 3109.87, 20457.05, -25958.82, 0.00, 0.00, 0.00, 0.00
85, 41525.52, 29215.45, 10224.09, 15377.75, 3085.10, 20344.42, -25918.52, 0.00, 0.00, 0.00, 0.00
86, 41559.09, 29239.81, 10250.78, 15424.02, 3148.11, 20558.08, -25868.08, 0.00, 0.00, 0.00, 0.00
87, 41591.81, 29266.35, 10246.96, 15422.70, 3177.95, 20684.04, -25890.67, 0.00, 0.00, 0.00, 0.00
88, 41577.24, 29260.27, 10232.32, 15395.68, 3143.24, 20505.60, -25861.68, 0.00, 0.00, 0.00, 0.00
89, 41549.95, 29236.15, 10232.94, 15389.38, 3106.67, 20354.30, -25855.11, 0.00, 0.00, 0.00, 0.00
90, 41561.97, 29239.97, 10242.98, 15414.86, 3129.15, 20511.17, -25890.49, 0.00, 0.00, 0.00, 0.00
91, 41598.20, 29269.56, 10239.83, 15425.56, 3158.64, 20691.41, -25945.50, 0.00, 0.18, 0.76, 0.63
92, 41596.06, 29276.11, 10234.77, 15399.23, 3145.92, 20543.55, -25943.45, 0.00, 0.00, 0.00, 0.00
93, 41567.98, 29253.40, 10234.98, 15384.15, 3108.75, 20358.86, -25860.01, 0.00, 0.00, 0.00, 0.00
94, 41569.86, 29248.40, 10244.65, 15416.80, 3128.22, 20475.29, -25872.05, 0.00, 0.00, 0.00, 0.00
95, 41611.37, 29279.91, 10248.21, 15438.04, 3168.38, 20692.98, -25922.08, 0.00, 0.00, 0.00, 0.00
96, 41613.80, 29284.56, 10231.62, 15407.84, 3142.72, 20586.89, -25941.81, 0.00, 0.00, 0.00, 0.00
97, 41577.91, 29257.38, 10229.07, 15378.89, 3102.60, 20373.28, -25903.93, 0.00, 0.00, 0.00, 0.00
98, 41571.96, 29248.02, 10243.54, 15398.63, 3110.45, 20424.20, -25907.28, 0.00, 0.00, 0.00, 0.00
99, 41610.70, 29276.18, 10243.96, 15430.62, 3153.85, 20664.48, -25973.89, 0.00, 0.00, 0.00, 0.00
100, 41626.79, 29293.50, 10231.35, 15408.64, 3142.88, 20617.29, -25979.10, 0.00, 0.00, 0.00, 0.00
101, 41603.73, 29280.54, 10231.64, 15392.39, 3104.97, 20400.03, -25886.58, 0.00, 0.19, 0.77, 0.63
102, 41591.21, 29266.70, 10243.27, 15407.91, 3103.79, 20398.16, -25874.38, 0.00, 0.00, 0.00, 0.00
103, 41620.89, 29285.46, 10247.36, 15438.04, 3144.87, 20639.15, -25914.10, 0.00, 0.00, 0.00, 0.00
104, 41639.27, 29302.82, 10238.08, 15425.36, 3152.56, 20644.16, -25905.27, 0.00, 0.00, 0.00, 0.00
105, 41618.81, 29291.98, 10232.76, 15403.82, 3125.22, 20424.55, -25911.17, 0.00, 0.00, 0.00, 0.00
106, 41598.50, 29274.10, 10239.96, 15411.97, 3098.49, 20360.74, -25877.60, 0.00, 0.00, 0.00, 0.00
107, 41629.14, 29294.40, 10260.23, 15455.11, 3160.40, 20612.31, -25847.33, 0.00, 0.00, 0.00, 0.00
108, 41653.30, 29315.90, 10249.93, 15446.33, 3164.85, 20677.82, -25923.20, 0.00, 0.00, 0.00, 0.00
109, 41634.77, 29307.67, 10241.08, 15415.53, 3124.08, 20459.74, -25885.89, 0.00, 0.00, 0.00, 0.00
110, 41604.82, 29281.54, 10245.88, 15406.34, 3103.83, 20347.15, -25847.47, 0.00, 0.00, 0.00, 0.00
111, 41619.48, 29284.03, 10255.87, 15436.09, 3141.58, 20551.40, -25891.61, 0.00, 0.18, 0.75, 0.63
112, 41649.19, 29308.90, 10254.18, 15440.20, 3162.66, 20683.66, -25955.00, 0.00, 0.00, 0.00, 0.00
113, 41634.30, 29301.97, 10240.14, 15407.06, 3126.32, 20494.09, -25913.25, 0.00, 0.00, 0.00, 0.00
114, 41599.97, 29275.87, 10239.16, 15399.30, 3103.79, 20339.10, -25838.55, 0.00, 0.00, 0.00, 0.00
115, 41616.62, 29286.91, 10257.57, 15440.72, 3134.23, 20502.38, -25869.55, 0.00, 0.00, 0.00, 0.00
116, 41655.18, 29319.36, 10258.58, 15451.34, 3161.90, 20687.68, -25922.03, 0.00, 0.00, 0.00, 0.00
117, 41650.02, 29322.49, 10242.80, 15418.21, 3139.79, 20546.93, -25954.82, 0.00, 0.00, 0.00, 0.00
118, 41617.49, 29297.39, 10244.39, 15404.91, 3107.99, 20353.88, -25916.87, 0.00, 0.00, 0.00, 0.00
119, 41610.74, 29283.56, 10253.24, 15426.70, 3123.88, 20438.01, -25860.28, 0.00, 0.00, 0.00, 0.00
120, 41645.57, 29305.95, 10256.81, 15441.81, 3168.49, 20651.20, -25900.55, 0.00, 0.00, 0.00, 0.00
121, 41648.27, 29313.82, 10243.47, 15421.34, 3144.42, 20565.13, -25922.77, 0.00, 0.18, 0.74, 0.64
122, 41612.26, 29287.51, 10236.85, 15393.40, 3099.49, 20345.07, -25923.84, 0.00, 0.00, 0.00, 0.00
123, 41595.10, 29267.84, 10247.45, 15399.43, 3111.47, 20371.69, -25919.69, 0.00, 0.00, 0.00, 0.00
124, 41638.80, 29299.76, 10262.83, 15438.37, 3169.88, 20635.26, -25916.20, 0.00, 0.00, 0.00, 0.00
125, 41658.42, 29321.82, 10252.03, 15429.72, 3172.79, 20622.77, -25856.12, 0.00, 0.00, 0.00, 0.00
126, 41632.92, 29306.89, 10253.71, 15412.40, 3135.30, 20395.68, -25854.84, 0.00, 0.00, 0.00, 0.00
127, 41602.92, 29276.74, 10255.11, 15406.99, 3116.62, 20359.42, -25870.71, 0.00, 0.00, 0.00, 0.00
128, 41640.65, 29302.94, 10275.37, 15444.09, 3180.00, 20623.15, -25850.17, 0.00, 0.00, 0.00, 0.00
129, 41663.70, 29323.34, 10273.78, 15437.63, 3191.23, 20658.78, -25863.45, 0.00, 0.00, 0.00, 0.00
130, 41630.88, 29300.90, 10261.89, 15405.36, 3129.45, 20422.47, -25893.87, 0.00, 0.18, 0.74, 0.64
131, 41606.30, 29280.43, 10250.49, 15407.15, 3119.05, 20337.03, -25937.68, 0.00, 0.00, 0.00, 0.00
132, 41634.01, 29299.98, 10266.00, 15445.26, 3174.19, 20556.88, -25875.52, 0.00, 0.00, 0.00, 0.00
133, 41668.86, 29328.46, 10269.20, 15445.37, 3199.61, 20642.10, -25863.96, 0.00, 0.00, 0.00, 0.00
134, 41648.77, 29317.89, 10260.30, 15421.79, 3155.15, 20448.96, -25852.27, 0.00, 0.00, 0.00, 0.00
135, 41610.74, 29286.44, 10259.76, 15409.78, 3125.27, 20317.82, -25859.96, 0.00, 0.00, 0.00, 0.00
136, 41631.22, 29294.22, 10274.74, 15443.47, 3164.96, 20513.67, -25892.62, 0.00, 0.00, 0.00, 0.00
137, 41662.38, 29319.07, 10274.38, 15448.72, 3193.48, 20654.20, -25923.42, 0.00, 0.00, 0.00, 0.00
138, 41653.50, 29322.38, 10267.36, 15426.08, 3167.35, 20477.42, -25904.38, 0.00, 0.00, 0.00, 0.00
139, 41621.56, 29299.25, 10268.53, 15425.14, 3137.60, 20314.07, -25862.06, 0.00, 0.00, 0.00, 0.00
140, 41627.53, 29298.71, 10281.31, 15457.15, 3167.26, 20454.37, -25864.88, 0.00, 0.16, 0.74, 0.64
141, 41658.91, 29320.44, 10284.10, 15470.96, 3210.40, 20647.31, -25899.21, 0.00, 0.00, 0.00, 0.00
142, 41658.40, 29324.79, 10278.20, 15443.78, 3196.77, 20516.82, -25845.68, 0.00, 0.00, 0.00, 0.00
143, 41622.68, 29298.80, 10281.82, 15425.68, 3154.30, 20323.46, -25833.38, 0.00, 0.00, 0.00, 0.00
144, 41620.49, 29288.32, 10285.22, 15449.26, 3164.27, 20414.56, -25869.39, 0.00, 0.00, 0.00, 0.00
145, 41653.73, 29309.84, 10278.49, 15464.14, 3196.37, 20634.64, -25912.06, 0.00, 0.00, 0.00, 0.00
146, 41663.70, 29329.04, 10276.79, 15447.58, 3209.53, 20549.61, -25901.94, 0.00, 0.00, 0.00, 0.00
147, 41623.66, 29300.52, 10271.65, 15422.32, 3151.84, 20323.97, -25876.32, 0.00, 0.00, 0.00, 0.00
148, 41603.88, 29280.31, 10279.52, 15438.64, 3147.33, 20349.29, -25875.03, 0.00, 0.00, 0.00, 0.00
149, 41645.32, 29311.79, 10298.95, 15481.89, 3208.93, 20609.18, -25874.27, 0.00, 0.00, 0.00, 0.00
150, 41665.64, 29335.08, 10294.30, 15472.15, 3211.61, 20604.93, -25869.13, 0.00, 0.15, 0.74, 0.64
151, 41636.74, 29316.88, 10293.16, 15439.22, 3163.58, 20367.65, -25861.50, 0.00, 0.00, 0.00, 0.00
152, 41624.58, 29301.13, 10304.65, 15448.77, 3157.30, 20334.43, -25842.55, 0.00, 0.00, 0.00, 0.00
153, 41651.34, 29313.71, 10313.18, 15477.29, 3205.80, 20582.16, -25898.00, 0.00, 0.00, 0.00, 0.00
154, 41673.91, 29335.01, 10309.29, 15464.77, 3215.25, 20621.74, -25904.15, 0.00, 0.00, 0.00, 0.00
155, 41654.80, 29327.23, 10311.95, 15435.67, 3189.77, 20394.54, -25825.99, 0.00, 0.00, 0.00, 0.00
156, 41635.18, 29305.68, 10320.56, 15443.94, 3183.80, 20315.23, -25796.28, 0.00, 0.00, 0.00, 0.00
157, 41650.64, 29309.93, 10324.58, 15477.15, 3211.41, 20538.15, -25837.21, 0.00, 0.00, 0.00, 0.00
158, 41684.71, 29337.09, 10324.11, 15477.82, 3226.36, 20636.83, -25890.99, 0.00, 0.00, 0.00, 0.00
159, 41667.43, 29328.91, 10324.47, 15448.21, 3207.16, 20443.64, -25869.69, 0.00, 0.00, 0.00, 0.00
160, 41635.06, 29302.22, 10320.16, 15449.55, 3167.78, 20320.08, -25843.78, 0.00, 0.15, 0.74, 0.64
161, 41648.96, 29306.51, 10334.82, 15481.04, 3211.63, 20501.13, -25814.52, 0.00, 0.00, 0.00, 0.00
162, 41682.07, 29331.48, 10335.33, 15483.03, 3242.88, 20662.04, -25870.69, 0.00, 0.00, 0.00, 0.00
163, 41673.95, 29331.14, 10321.19, 15450.26, 3204.79, 20496.08, -25900.26, 0.00, 0.00, 0.00, 0.00
164, 41642.66, 29307.32, 10320.72, 15439.71, 3168.18, 20314.70, -25867.18, 0.00, 0.00, 0.00, 0.00
166, 41690.63, 29339.61, 10346.20, 15492.42, 3249.52, 20661.79, -25846.48, 0.00, 0.00, 0.00, 0.00
167, 41693.96, 29350.75, 10337.41, 15472.75, 3227.73, 20541.59, -25850.60, 0.00, 0.00, 0.00, 0.00
168, 41660.03, 29324.93, 10332.38, 15450.46, 3188.54, 20337.56, -25825.81, 0.00, 0.00, 0.00, 0.00
169, 41646.68, 29306.40, 10336.83, 15458.00, 3192.14, 20395.12, -25854.78, 0.00, 0.14, 0.75, 0.64
170, 41688.41, 29337.09, 10348.72, 15488.28, 3250.70, 20640.45, -25869.26, 0.00, 0.00, 0.00, 0.00
171, 41710.28, 29360.65, 10350.15, 15480.62, 3259.00, 20594.76, -25846.08, 0.00, 0.00, 0.00, 0.00
172, 41677.31, 29339.99, 10341.10, 15462.96, 3209.62, 20374.33, -25813.27, 0.00, 0.00, 0.00, 0.00
173, 41662.96, 29324.46, 10354.36, 15474.63, 3215.59, 20380.01, -25811.82, 0.00, 0.00, 0.00, 0.00
174, 41703.84, 29351.04, 10367.92, 15510.50, 3267.18, 20627.55, -25848.65, 0.00, 0.00, 0.00, 0.00
175, 41722.93, 29366.48, 10353.95, 15494.90, 3270.42, 20621.65, -25844.72, 0.00, 0.00, 0.00, 0.00
176, 41696.64, 29352.94, 10357.78, 15475.54, 3235.33, 20411.57, -25794.45, 0.00, 0.00, 0.00, 0.00
177, 41683.90, 29341.09, 10373.29, 15489.20, 3224.57, 20374.78, -25759.31, 0.00, 0.00, 0.00, 0.00
178, 41717.59, 29361.68, 10382.00, 15526.33, 3278.13, 20619.55, -25805.74, 0.00, 0.00, 0.00, 0.00
179, 41746.60, 29386.71, 10378.43, 15520.22, 3288.05, 20674.76, -25889.11, 0.00, 0.13, 0.75, 0.63
180, 41730.37, 29381.52, 10371.08, 15493.13, 3247.48, 20462.87, -25809.22, 0.00, 0.00, 0.00, 0.00
181, 41702.45, 29358.68, 10372.95, 15494.72, 3232.31, 20374.82, -25761.66, 0.00, 0.00, 0.00, 0.00
182, 41719.24, 29367.35, 10384.15, 15533.97, 3266.28, 20591.30, -25819.71, 0.00, 0.00, 0.00, 0.00
183, 41758.73, 29402.02, 10393.63, 15545.55, 3301.38, 20724.36, -25788.03, 0.00, 0.00, 0.00, 0.00
184, 41747.65, 29402.15, 10386.88, 15517.16, 3280.25, 20537.79, -25740.25, 0.00, 0.00, 0.00, 0.00
185, 41716.29, 29377.25, 10387.91, 15515.33, 3253.72, 20395.54, -25727.84, 0.00, 0.00, 0.00, 0.00
186, 41722.41, 29373.57, 10393.63, 15539.51, 3274.08, 20556.43, -25779.36, 0.00, 0.00, 0.00, 0.00
187, 41756.05, 29398.31, 10389.00, 15543.58, 3289.71, 20711.30, -25846.08, 0.00, 0.00, 0.00, 0.00
188, 41741.17, 29389.66, 10370.09, 15507.51, 3268.79, 20551.74, -25840.87, 0.00, 0.00, 0.00, 0.00
189, 41699.48, 29353.23, 10360.06, 15484.91, 3215.86, 20354.71, -25792.73, 0.00, 0.13, 0.75, 0.63
190, 41688.66, 29336.93, 10359.79, 15496.89, 3225.49, 20461.48, -25821.09, 0.00, 0.00, 0.00, 0.00
191, 41717.92, 29355.73, 10358.51, 15501.83, 3258.26, 20671.09, -25843.35, 0.00, 0.00, 0.00, 0.00
192, 41713.18, 29357.92, 10338.06, 15472.41, 3233.69, 20561.03, -25834.62, 0.00, 0.00, 0.00, 0.00
193, 41676.01, 29331.16, 10328.09, 15449.86, 3191.07, 20347.31, -25814.74, 0.00, 0.00, 0.00, 0.00
194, 41661.08, 29312.95, 10331.27, 15459.99, 3195.52, 20394.24, -25825.21, 0.00, 0.00, 0.00, 0.00
195, 41696.04, 29337.42, 10336.00, 15484.86, 3245.34, 20630.10, -25853.57, 0.00, 0.00, 0.00, 0.00
196, 41699.66, 29343.88, 10316.36, 15459.90, 3222.92, 20569.21, -25881.69, 0.00, 0.00, 0.00, 0.00
197, 41661.26, 29315.94, 10300.94, 15426.37, 3168.07, 20333.72, -25884.26, 0.00, 0.00, 0.00, 0.00
198, 41637.10, 29290.98, 10303.73, 15427.75, 3172.18, 20315.01, -25879.27, 0.00, 0.00, 0.00, 0.00
199, 41672.21, 29314.60, 10317.12, 15466.31, 3211.81, 20551.33, -25901.76, 0.00, 0.13, 0.75, 0.63
200, 41694.18, 29330.92, 10308.13, 15454.80, 3211.19, 20573.62, -25893.11, 0.00, 0.00, 0.00, 0.00
201, 41663.72, 29306.85, 10295.30, 15421.99, 3166.26, 20343.13, -25889.62, 0.00, 0.00, 0.00, 0.00
202, 41639.02, 29283.80, 10303.59, 15433.10, 3159.66, 20295.14, -25854.20, 0.00, 0.00, 0.00, 0.00
203, 41663.32, 29297.28, 10316.13, 15472.26, 3207.59, 20553.70, -25847.78, 0.00, 0.00, 0.00, 0.00
204, 41688.33, 29317.82, 10313.27, 15462.40, 3217.38, 20619.06, -25865.24, 0.00, 0.00, 0.00, 0.00
205, 41657.70, 29296.72, 10288.04, 15421.21, 3170.06, 20390.15, -25842.93, 0.00, 0.00, 0.00, 0.00
206, 41627.86, 29270.37, 10284.75, 15416.36, 3143.66, 20275.38, -25831.40, 0.00, 0.00, 0.00, 0.00
207, 41648.14, 29280.36, 10302.21, 15451.60, 3188.36, 20497.20, -25855.29, 0.00, 0.00, 0.00, 0.00
208, 41679.52, 29305.84, 10300.94, 15455.81, 3212.75, 20629.05, -25893.29, 0.00, 0.00, 0.00, 0.00
209, 41664.37, 29294.51, 10280.59, 15419.71, 3159.96, 20437.23, -25901.98, 0.00, 0.13, 0.75, 0.63
210, 41627.17, 29265.43, 10279.83, 15402.18, 3146.30, 20277.90, -25870.15, 0.00, 0.00, 0.00, 0.00
211, 41630.30, 29264.00, 10295.46, 15429.14, 3168.54, 20433.27, -25888.59, 0.00, 0.00, 0.00, 0.00
212, 41667.54, 29292.03, 10293.85, 15444.61, 3206.94, 20620.96, -25903.12, 0.00, 0.00, 0.00, 0.00
213, 41654.06, 29285.77, 10271.81, 15406.14, 3179.89, 20465.03, -25894.96, 0.00, 0.00, 0.00, 0.00
214, 41613.98, 29258.12, 10266.33, 15385.89, 3138.32, 20272.12, -25879.74, 0.00, 0.00, 0.00, 0.00
215, 41612.55, 29251.82, 10278.70, 15416.24, 3155.19, 20378.15, -25897.98, 0.00, 0.00, 0.00, 0.00
216, 41647.40, 29272.83, 10293.38, 15431.38, 3201.57, 20598.58, -25944.36, 0.00, 0.00, 0.00, 0.00
217, 41641.39, 29269.83, 10276.28, 15398.56, 3175.53, 20493.91, -25924.69, 0.00, 0.00, 0.00, 0.00
218, 41611.44, 29251.12, 10262.00, 15388.53, 3138.41, 20296.54, -25860.45, 0.00, 0.14, 0.75, 0.62
219, 41598.96, 29239.17, 10267.81, 15409.00, 3141.05, 20346.14, -25875.54, 0.00, 0.00, 0.00, 0.00
220, 41631.84, 29262.61, 10274.60, 15430.57, 3182.37, 20572.32, -25937.05, 0.00, 0.00, 0.00, 0.00
221, 41660.63, 29287.51, 10266.54, 15423.55, 3178.75, 20543.44, -25926.66, 0.00, 0.00, 0.00, 0.00
222, 41628.65, 29267.78, 10261.15, 15400.98, 3130.92, 20323.44, -25898.29, 0.00, 0.00, 0.00, 0.00
223, 41606.27, 29250.07, 10262.94, 15414.03, 3110.96, 20303.61, -25944.54, 0.00, 0.00, 0.00, 0.00
224, 41646.77, 29277.57, 10273.40, 15446.49, 3155.60, 20553.32, -25930.91, 0.00, 0.00, 0.00, 0.00
225, 41659.20, 29288.23, 10259.63, 15417.27, 3176.59, 20556.88, -25940.85, 0.00, 0.00, 0.00, 0.00
226, 41626.48, 29269.65, 10246.26, 15390.34, 3125.02, 20333.92, -25934.15, 0.00, 0.00, 0.00, 0.00
227, 41588.84, 29233.35, 10239.22, 15382.38, 3096.74, 20268.58, -25918.05, 0.00, 0.00, 0.00, 0.00
228, 41604.08, 29234.16, 10246.24, 15404.96, 3138.90, 20487.27, -25934.62, 0.00, 0.15, 0.76, 0.63
229, 41625.50, 29248.13, 10232.94, 15392.73, 3147.97, 20564.83, -25963.81, 0.00, 0.00, 0.00, 0.00
230, 41598.59, 29232.17, 10218.39, 15357.26, 3102.06, 20341.74, -25950.44, 0.00, 0.00, 0.00, 0.00
231, 41554.66, 29195.71, 10212.51, 15344.34, 3070.53, 20213.51, -25944.38, 0.00, 0.00, 0.00, 0.00
232, 41569.46, 29200.63, 10224.40, 15376.82, 3103.00, 20405.94, -25982.27, 0.00, 0.00, 0.00, 0.00
233, 41604.84, 29227.30, 10227.96, 15381.38, 3134.45, 20539.93, -26017.99, 0.00, 0.00, 0.00, 0.00
234, 41586.78, 29218.78, 10212.91, 15347.36, 3103.90, 20372.97, -25984.48, 0.00, 0.00, 0.00, 0.00
235, 41550.26, 29189.68, 10205.87, 15336.60, 3068.76, 20219.25, -25915.77, 0.00, 0.00, 0.00, 0.00
236, 41559.11, 29190.80, 10220.11, 15371.16, 3105.17, 20369.23, -25923.80, 0.00, 0.00, 0.00, 0.00
237, 41598.81, 29220.84, 10221.77, 15385.02, 3148.71, 20560.72, -25954.00, 0.00, 0.00, 0.00, 0.00
238, 41595.25, 29226.60, 10212.24, 15351.83, 3125.56, 20424.24, -25936.87, 0.00, 0.15, 0.76, 0.63
239, 41552.16, 29194.73, 10206.63, 15327.17, 3074.77, 20221.47, -25936.00, 0.00, 0.00, 0.00, 0.00
240, 41546.66, 29185.97, 10209.81, 15356.94, 3084.07, 20310.20, -25959.96, 0.00, 0.00, 0.00, 0.00
241, 41583.83, 29212.30, 10213.05, 15378.54, 3133.94, 20552.63, -25989.00, 0.00, 0.00, 0.00, 0.00
242, 41588.13, 29218.13, 10202.19, 15351.02, 3130.79, 20465.39, -25980.26, 0.00, 0.00, 0.00, 0.00
243, 41556.47, 29193.39, 10195.17, 15327.24, 3079.91, 20241.11, -25982.85, 0.00, 0.00, 0.00, 0.00
244, 41541.70, 29180.71, 10204.44, 15344.83, 3082.15, 20273.39, -25971.90, 0.00, 0.00, 0.00, 0.00
245, 41581.73, 29208.72, 10216.27, 15375.94, 3135.03, 20520.67, -25961.08, 0.00, 0.00, 0.00, 0.00
246, 41599.64, 29227.61, 10207.28, 15360.03, 3131.90, 20493.87, -25967.79, 0.00, 0.00, 0.00, 0.00
247, 41565.75, 29203.56, 10192.93, 15324.69, 3080.36, 20258.97, -25940.92, 0.00, 0.00, 0.00, 0.00
248, 41544.25, 29182.75, 10196.78, 15330.14, 3072.43, 20228.60, -25931.91, 0.00, 0.15, 0.77, 0.63
249, 41570.62, 29197.32, 10204.64, 15365.39, 3119.23, 20479.14, -25965.48, 0.00, 0.00, 0.00, 0.00
250, 41602.56, 29226.94, 10206.66, 15367.32, 3135.32, 20521.20, -25967.72, 0.00, 0.00, 0.00, 0.00
251, 41578.60, 29215.25, 10198.72, 15342.13, 3097.28, 20296.68, -25972.88, 0.00, 0.00, 0.00, 0.00
252, 41548.07, 29187.87, 10201.67, 15345.95, 3075.18, 20220.73, -25951.02, 0.00, 0.00, 0.00, 0.00
253, 41567.70, 29199.00, 10212.85, 15379.41, 3113.22, 20471.58, -25963.67, 0.00, 0.00, 0.00, 0.00
254, 41605.71, 29232.77, 10216.94, 15383.72, 3134.07, 20571.94, -25979.32, 0.00, 0.00, 0.00, 0.00
255, 41592.30, 29226.31, 10210.32, 15355.33, 3117.15, 20360.79, -25944.92, 0.00, 0.00, 0.00, 0.00
0, 41558.46, 29196.70, 10214.43, 15341.99, 3084.70, 20220.53, -25926.06, 0.00, 0.00, 0.00, 0.00
1, 41575.34, 29203.07, 10231.24, 15368.10, 3118.92, 20400.12, -25945.44, 0.00, 0.00, 0.00, 0.00
2, 41616.42, 29234.00, 10233.77, 15383.34, 3156.29, 20571.67, -25953.04, 0.00, 0.14, 0.77, 0.63
3, 41611.64, 29238.38, 10225.61, 15366.40, 3136.28, 20415.55, -25914.54, 0.00, 0.00, 0.00, 0.00
4, 41571.58, 29209.35, 10218.90, 15351.76, 3098.91, 20239.53, -25905.51, 0.00, 0.00, 0.00, 0.00
5, 41578.60, 29207.00, 10231.89, 15380.21, 3126.09, 20372.09, -25906.92, 0.00, 0.00, 0.00, 0.00
6, 41609.40, 29230.07, 10233.41, 15390.18, 3162.64, 20568.14, -25953.44, 0.00, 0.00, 0.00, 0.00
7, 41609.18, 29236.37, 10219.40, 15363.83, 3138.39, 20440.51, -25959.00, 0.00, 0.00, 0.00, 0.00
8, 41580.86, 29216.99, 10217.70, 15349.66, 3092.61, 20233.87, -25931.85, 0.00, 0.00, 0.00, 0.00
9, 41580.14, 29209.35, 10234.01, 15371.32, 3110.58, 20311.32, -25956.12, 0.00, 0.00, 0.00, 0.00
10, 41611.95, 29231.86, 10247.49, 15396.51, 3164.47, 20546.37, -26008.87, 0.00, 0.00, 0.00, 0.00
11, 41603.14, 29235.43, 10233.63, 15378.54, 3156.36, 20487.09, -25956.72, 0.00, 0.13, 0.77, 0.63
12, 41564.34, 29209.91, 10226.06, 15356.16, 3122.18, 20268.85, -25898.65, 0.00, 0.00, 0.00, 0.00
13, 41553.95, 29200.29, 10236.25, 15371.85, 3128.15, 20280.36, -25905.58, 0.00, 0.00, 0.00, 0.00
14, 41588.64, 29223.41, 10249.50, 15406.52, 3180.27, 20531.44, -25937.19, 0.00, 0.00, 0.00, 0.00
15, 41603.32, 29235.05, 10238.78, 15388.24, 3178.19, 20510.81, -25956.43, 0.00, 0.00, 0.00, 0.00
16, 41574.15, 29213.91, 10229.41, 15362.89, 3130.45, 20273.32, -25913.58, 0.00, 0.00, 0.00, 0.00
17, 41558.11, 29197.99, 10236.61, 15371.56, 3119.95, 20258.26, -25890.63, 0.00, 0.00, 0.00, 0.00
18, 41582.71, 29213.04, 10245.17, 15392.71, 3162.53, 20504.33, -25943.09, 0.00, 0.00, 0.00, 0.00
19, 41609.22, 29238.56, 10237.30, 15385.67, 3170.44, 20553.63, -25972.77, 0.00, 0.00, 0.00, 0.00
20, 41591.72, 29234.94, 10229.57, 15367.99, 3133.47, 20349.43, -25936.87, 0.00, 0.00, 0.00, 0.00
21, 41566.22, 29215.16, 10248.54, 15375.32, 3109.53, 20271.36, -25910.57, 0.00, 0.11, 0.77, 0.63
22, 41597.13, 29233.46, 10268.59, 15417.56, 3158.15, 20494.22, -25910.74, 0.00, 0.00, 0.00, 0.00
23, 41627.55, 29260.13, 10255.25, 15414.28, 3194.89, 20595.75, -25939.85, 0.00, 0.00, 0.00, 0.00
24, 41613.56, 29254.50, 10240.99, 15382.92, 3142.50, 20389.37, -25930.71, 0.00, 0.00, 0.00, 0.00
25, 41578.45, 29227.47, 10241.99, 15376.90, 3111.16, 20245.83, -25900.96, 0.00, 0.00, 0.00, 0.00
26, 41591.36, 29235.05, 10258.20, 15411.91, 3148.85, 20425.34, -25920.11, 0.00, 0.00, 0.00, 0.00
27, 41628.87, 29262.68, 10256.86, 15422.61, 3178.69, 20591.57, -25955.65, 0.00, 0.00, 0.00, 0.00
28, 41618.25, 29257.85, 10241.26, 15390.61, 3143.95, 20422.43, -25962.98, 0.00, 0.00, 0.00, 0.00
29, 41581.53, 29230.49, 10236.94, 15377.26, 3107.47, 20249.65, -25945.01, 0.00, 0.00, 0.00, 0.00
30, 41582.49, 29226.74, 10250.40, 15401.47, 3125.53, 20376.72, -25929.90, 0.00, 0.00, 0.00, 0.00
31, 41620.98, 29253.58, 10251.14, 15419.64, 3159.73, 20576.10, -25993.49, 0.00, 0.11, 0.77, 0.63
32, 41620.58, 29255.86, 10243.22, 15397.96, 3132.44, 20464.16, -25983.12, 0.00, 0.00, 0.00, 0.00
33, 41585.73, 29232.26, 10243.47, 15378.92, 3102.78, 20265.63, -25909.63, 0.00, 0.00, 0.00, 0.00
34, 41577.48, 29223.45, 10251.74, 15399.19, 3123.92, 20327.86, -25895.81, 0.00, 0.00, 0.00, 0.00
35, 41615.30, 29252.04, 10268.46, 15426.48, 3181.99, 20567.43, -25925.61, 0.00, 0.00, 0.00, 0.00
36, 41627.71, 29268.16, 10256.59, 15412.40, 3180.00, 20521.47, -25907.21, 0.00, 0.00, 0.00, 0.00
37, 41600.04, 29251.57, 10252.39, 15393.27, 3135.39, 20304.79, -25861.62, 0.00, 0.00, 0.00, 0.00
38, 41586.07, 29237.56, 10263.38, 15408.87, 3129.67, 20304.95, -25870.20, 0.00, 0.00, 0.00, 0.00
39, 41625.52, 29262.86, 10279.54, 15437.05, 3179.45, 20561.73, -25910.10, 0.00, 0.00, 0.00, 0.00
40, 41642.84, 29279.46, 10269.02, 15416.09, 3184.59, 20556.07, -25926.73, 0.00, 0.00, 0.00, 0.00
41, 41610.21, 29258.90, 10254.71, 15383.61, 3132.75, 20315.41, -25912.62, 0.00, 0.12, 0.76, 0.63
42, 41584.50, 29236.95, 10250.69, 15389.00, 3114.65, 20261.48, -25922.41, 0.00, 0.00, 0.00, 0.00
43, 41612.00, 29255.17, 10259.65, 15428.85, 3161.12, 20513.49, -25935.67, 0.00, 0.00, 0.00, 0.00
44, 41645.16, 29282.97, 10260.12, 15430.37, 3182.78, 20583.38, -25933.66, 0.00, 0.00, 0.00, 0.00
45, 41622.37, 29270.59, 10246.02, 15402.34, 3140.15, 20369.14, -25904.80, 0.00, 0.00, 0.00, 0.00
46, 41597.69, 29248.58, 10245.30, 15411.62, 3112.99, 20269.43, -25880.44, 0.00, 0.00, 0.00, 0.00
47, 41621.03, 29267.46, 10258.80, 15450.75, 3150.93, 20476.97, -25912.24, 0.00, 0.00, 0.00, 0.00
48, 41664.43, 29306.85, 10259.05, 15450.26, 3168.05, 20594.85, -25938.75, 0.00, 0.00, 0.00, 0.00
49, 41641.77, 29292.32, 10246.49, 15412.29, 3147.93, 20402.63, -25930.59, 0.00, 0.00, 0.00, 0.00
50, 41594.56, 29248.06, 10251.94, 15396.40, 3125.09, 20255.69, -25868.90, 0.00, 0.12, 0.76, 0.63
51, 41611.53, 29253.16, 10263.81, 15424.27, 3150.61, 20415.93, -25880.88, 0.00, 0.00, 0.00, 0.00
52, 41657.17, 29289.46, 10265.93, 15446.60, 3186.33, 20620.45, -25934.21, 0.00, 0.00, 0.00, 0.00
53, 41646.80, 29285.12, 10250.93, 15413.00, 3151.10, 20473.82, -25953.08, 0.00, 0.00, 0.00, 0.00
54, 41617.85, 29267.02, 10258.51, 15406.86, 3130.16, 20285.24, -25847.78, 0.00, 0.00, 0.00, 0.00
55, 41619.24, 29265.54, 10271.70, 15434.46, 3154.68, 20395.50, -25887.43, 0.00, 0.00, 0.00, 0.00
56, 41659.38, 29292.90, 10276.42, 15446.93, 3189.93, 20601.63, -25908.93, 0.00, 0.00, 0.00, 0.00
57, 41665.50, 29302.31, 10269.04, 15424.38, 3186.40, 20489.17, -25875.29, 0.00, 0.00, 0.00, 0.00
58, 41632.27, 29280.87, 10264.35, 15407.28, 3152.00, 20271.15, -25835.04, 0.00, 0.00, 0.00, 0.00
59, 41621.14, 29267.06, 10269.13, 15429.34, 3154.23, 20340.38, -25833.90, 0.00, 0.00, 0.00, 0.00
60, 41664.23, 29297.57, 10279.32, 15465.51, 3199.32, 20605.38, -25864.14, 0.00, 0.14, 0.74, 0.63
61, 41682.98, 29318.09, 10272.84, 15450.78, 3187.72, 20560.50, -25888.55, 0.00, 0.00, 0.00, 0.00
62, 41649.57, 29297.28, 10264.21, 15422.39, 3140.60, 20326.97, -25862.40, 0.00, 0.00, 0.00, 0.00
63, 41626.55, 29277.54, 10265.91, 15432.40, 3129.33, 20320.22, -25868.25, 0.00, 0.00, 0.00, 0.00
64, 41668.77, 29306.06, 10287.70, 15473.62, 3186.22, 20578.45, -25913.47, 0.00, 0.00, 0.00, 0.00
65, 41689.80, 29322.27, 10277.47, 15459.43, 3194.65, 20581.51, -25926.17, 0.00, 0.00, 0.00, 0.00
66, 41654.60, 29302.15, 10265.26, 15421.88, 3138.92, 20339.04, -25880.14, 0.00, 0.00, 0.00, 0.00
67, 41627.80, 29277.19, 10271.39, 15425.45, 3125.31, 20273.34, -25856.86, 0.00, 0.00, 0.00, 0.00
68, 41652.39, 29290.69, 10281.33, 15459.87, 3185.77, 20509.98, -25906.32, 0.00, 0.00, 0.00, 0.00
69, 41682.07, 29315.68, 10271.25, 15454.40, 3192.28, 20580.61, -25927.11, 0.00, 0.00, 0.00, 0.00
70, 41663.45, 29308.72, 10263.21, 15425.81, 3166.71, 20379.63, -25845.46, 0.00, 0.17, 0.74, 0.63
71, 41633.57, 29285.57, 10266.02, 15426.28, 3143.55, 20275.24, -25817.11, 0.00, 0.00, 0.00, 0.00
72, 41647.91, 29290.69, 10271.92, 15462.40, 3175.69, 20484.81, -25860.21, 0.00, 0.00, 0.00, 0.00
73, 41679.14, 29316.86, 10265.33, 15472.01, 3193.35, 20618.10, -25912.15, 0.00, 0.00, 0.00, 0.00
74, 41664.16, 29312.32, 10248.83, 15444.00, 3155.64, 20429.14, -25908.82, 0.00, 0.00, 0.00, 0.00
75, 41634.68, 29289.35, 10250.31, 15440.09, 3127.88, 20281.17, -25861.08, 0.00, 0.00, 0.00, 0.00
76, 41627.53, 29274.48, 10254.87, 15454.31, 3147.33, 20428.44, -25893.47, 0.00, 0.00, 0.00, 0.00
77, 41661.95, 29300.97, 10254.78, 15468.35, 3176.90, 20610.30, -25941.68, 0.00, 0.00, 0.00, 0.00
78, 41658.02, 29304.34, 10241.39, 15446.24, 3147.35, 20463.74, -25920.31, 0.00, 0.00, 0.00, 0.00
79, 41623.44, 29280.43, 10239.47, 15426.91, 3114.07, 20273.54, -25876.10, 0.00, 0.00, 0.00, 0.00
80, 41624.04, 29276.83, 10255.34, 15452.48, 3138.14, 20373.50, -25880.64, 0.00, 0.19, 0.75, 0.62
81, 41656.14, 29294.22, 10248.90, 15463.63, 3169.39, 20592.30, -25901.31, 0.00, 0.00, 0.00, 0.00
82, 41659.31, 29299.78, 10225.19, 15436.70, 3147.55, 20498.40, -25900.69, 0.00, 0.00, 0.00, 0.00
83, 41628.25, 29281.14, 10218.70, 15423.22, 3111.74, 20288.92, -25888.21, 0.00, 0.00, 0.00, 0.00
84, 41604.78, 29259.10, 10223.26, 15437.30, 3106.69, 20323.68, -25905.69, 0.00, 0.00, 0.00, 0.00
85, 41633.77, 29276.63, 10232.65, 15456.86, 3160.16, 20559.67, -25918.46, 0.00, 0.00, 0.00, 0.00
86, 41644.50, 29289.12, 10221.97, 15435.24, 3150.81, 20524.91, -25910.19, 0.00, 0.00, 0.00, 0.00
87, 41618.01, 29276.11, 10207.06, 15410.99, 3101.64, 20303.99, -25881.02, 0.00, 0.00, 0.00, 0.00
88, 41594.54, 29252.26, 10207.57, 15413.76, 3084.12, 20274.02, -25906.95, 0.00, 0.00, 0.00, 0.00
89, 41618.66, 29266.95, 10218.10, 15446.37, 3134.01, 20519.75, -25927.98, 0.00, 0.00, 0.00, 0.00
90, 41642.37, 29291.22, 10212.02, 15436.58, 3140.46, 20545.19, -25937.57, 0.00, 0.20, 0.73, 0.63
91, 41615.06, 29274.99, 10197.83, 15404.22, 3091.13, 20326.77, -25931.53, 0.00, 0.00, 0.00, 0.00
92, 41586.29, 29251.03, 10200.51, 15417.43, 3083.24, 20263.04, -25860.52, 0.00, 0.00, 0.00, 0.00
93, 41605.22, 29260.94, 10207.62, 15447.02, 3121.78, 20490.83, -25864.12, 0.00, 0.00, 0.00, 0.00
94, 41629.25, 29278.77, 10197.69, 15435.22, 3131.55, 20564.23, -25917.49, 0.00, 0.00, 0.00, 0.00
95, 41617.23, 29274.82, 10198.01, 15409.61, 3101.28, 20364.07, -25886.00, 0.00, 0.00, 0.00, 0.00
96, 41589.80, 29253.02, 10210.23, 15404.84, 3073.54, 20231.55, -25879.27, 0.00, 0.00, 0.00, 0.00
97, 41602.27, 29253.94, 10208.35, 15431.73, 3102.85, 20412.57, -25916.87, 0.00, 0.00, 0.00, 0.00
98, 41634.50, 29275.71, 10197.51, 15430.48, 3123.63, 20557.39, -25958.13, 0.00, 0.00, 0.00, 0.00
99, 41628.36, 29278.37, 10189.20, 15404.73, 3097.66, 20383.40, -25930.75, 0.00, 0.20, 0.74, 0.63
100, 41594.76, 29253.04, 10187.12, 15397.11, 3062.79, 20216.26, -25904.53, 0.00, 0.00, 0.00, 0.00
101, 41592.01, 29244.75, 10192.33, 15425.34, 3072.09, 20367.00, -25925.79, 0.00, 0.00, 0.00, 0.00
102, 41616.58, 29259.62, 10188.44, 15430.93, 3119.28, 20565.17, -25996.17, 0.00, 0.00, 0.00, 0.00
103, 41619.30, 29272.02, 10185.00, 15414.37, 3094.29, 20449.25, -25948.38, 0.00, 0.00, 0.00, 0.00
104, 41588.62, 29252.02, 10187.39, 15404.67, 3066.46, 20257.99, -25879.97, 0.00, 0.00, 0.00, 0.00
105, 41577.86, 29235.99, 10191.86, 15419.80, 3078.98, 20334.07, -25906.99, 0.00, 0.00, 0.00, 0.00
106, 41604.66, 29252.40, 10197.42, 15437.03, 3124.19, 20559.34, -25924.98, 0.00, 0.00, 0.00, 0.00
107, 41606.52, 29255.26, 10184.21, 15403.59, 3112.79, 20464.50, -25937.75, 0.00, 0.00, 0.00, 0.00
108, 41574.04, 29231.23, 10177.84, 15377.11, 3067.58, 20248.09, -25903.01, 0.00, 0.00, 0.00, 0.00
109, 41562.31, 29216.61, 10190.36, 15397.36, 3069.99, 20281.44, -25884.79, 0.00, 0.19, 0.75, 0.63
110, 41595.70, 29241.00, 10198.74, 15431.62, 3113.44, 20532.58, -25928.96, 0.00, 0.00, 0.00, 0.00
111, 41609.69, 29257.52, 10183.72, 15416.29, 3102.87, 20513.38, -25965.30, 0.00, 0.00, 0.00, 0.00
112, 41582.40, 29241.09, 10176.37, 15392.10, 3058.01, 20291.20, -25942.64, 0.00, 0.00, 0.00, 0.00
113, 41560.54, 29220.86, 10189.91, 15401.09, 3055.01, 20258.03, -25900.24, 0.00, 0.00, 0.00, 0.00
114, 41582.80, 29232.19, 10194.54, 15425.45, 3100.79, 20487.36, -25951.40, 0.00, 0.00, 0.00, 0.00
115, 41607.84, 29256.42, 10181.76, 15414.28, 3104.03, 20523.44, -25962.76, 0.00, 0.00, 0.00, 0.00
116, 41589.96, 29247.93, 10170.85, 15388.44, 3051.88, 20314.96, -25924.94, 0.00, 0.00, 0.00, 0.00
117, 41562.60, 29223.99, 10173.53, 15393.09, 3028.17, 20225.22, -25920.33, 0.00, 0.00, 0.00, 0.00
118, 41579.16, 29228.44, 10185.96, 15422.99, 3075.40, 20449.30, -25929.68, 0.00, 0.00, 0.00, 0.00
119, 41609.09, 29251.82, 10179.57, 15416.71, 3092.05, 20557.01, -25935.51, 0.00, 0.19, 0.75, 0.63
120, 41593.42, 29247.35, 10172.26, 15390.14, 3058.12, 20357.28, -25922.61, 0.00, 0.00, 0.00, 0.00
121, 41558.24, 29215.79, 10168.66, 15382.56, 3019.43, 20225.85, -25912.40, 0.00, 0.00, 0.00, 0.00
122, 41566.29, 29218.67, 10177.53, 15414.17, 3059.24, 20416.26, -25922.46, 0.00, 0.00, 0.00, 0.00
123, 41604.29, 29247.97, 10182.76, 15424.51, 3103.88, 20568.92, -25961.24, 0.00, 0.00, 0.00, 0.00
124, 41601.24, 29253.22, 10174.25, 15405.29, 3068.69, 20414.16, -25942.98, 0.00, 0.00, 0.00, 0.00
125, 41566.00, 29227.10, 10172.48, 15389.35, 3026.63, 20242.07, -25929.12, 0.00, 0.00, 0.00, 0.00
126, 41563.94, 29221.17, 10185.15, 15416.33, 3056.02, 20366.15, -25920.60, 0.00, 0.00, 0.00, 0.00
127, 41604.66, 29245.54, 10190.96, 15429.48, 3105.44, 20565.91, -25948.43, 0.00, 0.00, 0.00, 0.00
128, 41606.56, 29246.50, 10175.16, 15388.01, 3072.20, 20435.86, -25974.92, 0.00, 0.00, 0.00, 0.00
129, 41576.43, 29228.30, 10172.48, 15371.43, 3034.54, 20243.37, -25906.59, 0.00, 0.18, 0.75, 0.62
130, 41563.13, 29219.00, 10183.10, 15404.80, 3053.20, 20331.66, -25897.22, 0.00, 0.00, 0.00, 0.00
131, 41593.42, 29242.29, 10192.86, 15432.85, 3089.70, 20568.57, -25959.81, 0.00, 0.00, 0.00, 0.00
132, 41613.40, 29261.88, 10188.48, 15414.12, 3074.64, 20489.31, -25962.42, 0.00, 0.00, 0.00, 0.00
133, 41587.23, 29245.38, 10179.34, 15397.78, 3040.53, 20270.88, -25909.25, 0.00, 0.00, 0.00, 0.00
134, 41573.98, 29229.60, 10186.85, 15431.04, 3033.96, 20296.41, -25934.68, 0.00, 0.00, 0.00, 0.00
135, 41604.29, 29247.23, 10193.00, 15449.88, 3070.03, 20540.63, -26002.43, 0.00, 0.00, 0.00, 0.00
136, 41637.27, 29281.88, 10196.26, 15437.14, 3084.56, 20537.59, -25951.80, 0.00, 0.00, 0.00, 0.00
137, 41614.99, 29272.51, 10196.53, 15419.75, 3052.98, 20308.73, -25892.51, 0.00, 0.00, 0.00, 0.00
138, 41584.23, 29246.14, 10196.64, 15437.10, 3033.51, 20256.49, -25912.53, 0.00, 0.18, 0.75, 0.62
139, 41612.49, 29264.91, 10207.50, 15460.21, 3075.73, 20506.50, -25957.24, 0.00, 0.00, 0.00, 0.00
140, 41636.47, 29284.38, 10199.10, 15439.27, 3086.53, 20552.41, -25971.56, 0.00, 0.00, 0.00, 0.00
141, 41607.84, 29266.14, 10178.27, 15417.58, 3035.14, 20318.43, -25972.41, 0.00, 0.00, 0.00, 0.00
142, 41575.92, 29241.54, 10176.39, 15402.23, 3007.81, 20225.82, -25929.16, 0.00, 0.00, 0.00, 0.00
143, 41587.79, 29242.67, 10188.91, 15429.21, 3070.37, 20453.83, -25947.67, 0.00, 0.00, 0.00, 0.00
144, 41614.59, 29257.83, 10182.22, 15424.58, 3085.68, 20556.70, -25993.27, 0.00, 0.00, 0.00, 0.00
145, 41605.51, 29257.99, 10173.75, 15396.98, 3054.99, 20363.22, -25941.93, 0.00, 0.00, 0.00, 0.00
146, 41579.27, 29240.28, 10178.54, 15402.16, 3033.91, 20227.23, -25898.56, 0.00, 0.00, 0.00, 0.00
147, 41586.61, 29239.61, 10191.75, 15455.40, 3062.59, 20401.60, -25929.92, 0.00, 0.00, 0.00, 0.00
148, 41624.29, 29268.18, 10196.22, 15460.10, 3102.53, 20565.26, -25953.32, 0.00, 0.18, 0.76, 0.62
149, 41620.40, 29269.43, 10188.89, 15400.44, 3081.66, 20406.20, -25926.44, 0.00, 0.00, 0.00, 0.00
150, 41577.80, 29232.35, 10179.39, 15387.01, 3041.51, 20218.94, -25901.33, 0.00, 0.00, 0.00, 0.00
151, 41572.57, 29221.91, 10182.14, 15413.52, 3049.18, 20331.79, -25916.89, 0.00, 0.00, 0.00, 0.00
152, 41606.72, 29249.38, 10188.80, 15435.60, 3086.84, 20543.22, -25978.34, 0.00, 0.00, 0.00, 0.00
153, 41618.41, 29262.99, 10192.95, 15427.22, 3073.81, 20456.99, -25953.88, 0.00, 0.00, 0.00, 0.00
154, 41590.00, 29245.94, 10182.43, 15420.65, 3030.81, 20269.43, -25882.04, 0.00, 0.00, 0.00, 0.00
155, 41577.91, 29232.88, 10184.97, 15434.68, 3045.83, 20323.05, -25882.11, 0.00, 0.00, 0.00, 0.00
156, 41613.76, 29256.38, 10187.30, 15462.47, 3096.48, 20555.04, -25939.24, 0.00, 0.00, 0.00, 0.00
157, 41629.36, 29273.19, 10179.90, 15447.31, 3091.16, 20500.08, -25945.50, 0.00, 0.00, 0.00, 0.00
158, 41595.77, 29248.46, 10171.56, 15427.60, 3043.48, 20292.43, -25878.92, 0.00, 0.17, 0.76, 0.62
159, 41576.66, 29228.50, 10176.41, 15453.24, 3033.33, 20305.17, -25884.46, 0.00, 0.00, 0.00, 0.00
160, 41607.12, 29247.21, 10179.30, 15477.64, 3087.07, 20549.28, -25964.17, 0.00, 0.00, 0.00, 0.00
161, 41639.58, 29280.25, 10182.38, 15461.66, 3098.18, 20562.67, -25942.78, 0.00, 0.00, 0.00, 0.00
162, 41610.48, 29261.45, 10172.08, 15428.42, 3053.83, 20327.08, -25887.95, 0.00, 0.00, 0.00, 0.00
163, 41582.60, 29237.49, 10177.04, 15437.70, 3050.19, 20260.49, -25853.12, 0.00, 0.00, 0.00, 0.00
164, 41609.13, 29256.49, 10189.13, 15478.67, 3099.40, 20518.81, -25886.47, 0.00, 0.00, 0.00, 0.00
165, 41636.89, 29279.76, 10185.67, 15482.40, 3116.24, 20597.87, -25903.46, 0.00, 0.00, 0.00, 0.00
166, 41619.28, 29270.26, 10181.13, 15450.69, 3074.71, 20381.75, -25873.06, 0.00, 0.00, 0.00, 0.00
167, 41591.72, 29248.31, 10182.38, 15439.49, 3053.05, 20279.09, -25867.47, 0.00, 0.00, 0.00, 0.00
168, 41601.87, 29249.69, 10191.41, 15475.99, 3089.32, 20487.90, -25923.35, 0.00, 0.17, 0.76, 0.62
169, 41634.35, 29279.06, 10189.78, 15481.33, 3107.52, 20612.93, -25952.97, 0.00, 0.00, 0.00, 0.00
170, 41629.18, 29279.49, 10182.31, 15456.32, 3079.53, 20423.32, -25906.74, 0.00, 0.00, 0.00, 0.00
171, 41593.89, 29253.16, 10183.99, 15456.07, 3055.84, 20274.17, -25859.76, 0.00, 0.00, 0.00, 0.00
172, 41596.68, 29249.51, 10192.57, 15483.43, 3082.06, 20425.27, -25880.39, 0.00, 0.00, 0.00, 0.00
173, 41639.31, 29281.30, 10200.62, 15485.49, 3126.83, 20608.58, -25898.23, 0.00, 0.00, 0.00, 0.00
174, 41638.13, 29284.90, 10185.98, 15452.41, 3086.66, 20467.54, -25914.86, 0.00, 0.00, 0.00, 0.00
175, 41601.27, 29257.22, 10181.00, 15441.34, 3052.29, 20281.84, -25908.44, 0.00, 0.00, 0.00, 0.00
176, 41603.37, 29254.54, 10209.00, 15477.51, 3073.28, 20389.73, -25900.17, 0.00, 0.00, 0.00, 0.00
177, 41651.58, 29292.83, 10219.51, 15509.70, 3144.09, 20615.66, -25892.35, 0.00, 0.00, 0.00, 0.00
178, 41657.84, 29301.35, 10203.50, 15481.58, 3128.15, 20519.64, -25885.04, 0.00, 0.17, 0.76, 0.63
179, 41618.57, 29271.40, 10189.78, 15461.93, 3078.08, 20307.32, -25872.63, 0.00, 0.00, 0.00, 0.00
180, 41601.87, 29252.91, 10191.25, 15473.51, 3075.64, 20359.40, -25879.43, 0.00, 0.00, 0.00, 0.00
181, 41646.82, 29286.39, 10206.32, 15504.67, 3128.89, 20615.28, -25907.24, 0.00, 0.00, 0.00, 0.00
182, 41659.02, 29301.68, 10200.20, 15481.26, 3122.96, 20564.19, -25904.80, 0.00, 0.00, 0.00, 0.00
183, 41621.52, 29275.55, 10198.63, 15453.28, 3075.85, 20320.84, -25891.79, 0.00, 0.00, 0.00, 0.00
184, 41602.56, 29259.73, 10204.76, 15465.48, 3072.47, 20313.13, -25858.35, 0.00, 0.00, 0.00, 0.00
185, 41638.04, 29281.41, 10200.58, 15499.44, 3120.48, 20577.66, -25883.14, 0.00, 0.00, 0.00, 0.00
186, 41658.35, 29297.39, 10189.02, 15496.24, 3124.62, 20596.55, -25910.05, 0.00, 0.00, 0.00, 0.00
187, 41636.74, 29288.52, 10183.48, 15467.99, 3080.27, 20365.23, -25880.37, 0.00, 0.17, 0.76, 0.62
188, 41617.49, 29267.02, 10188.57, 15462.96, 3078.75, 20288.90, -25846.01, 0.00, 0.00, 0.00, 0.00
189, 41632.65, 29275.40, 10206.34, 15503.44, 3125.47, 20520.33, -25874.96, 0.00, 0.00, 0.00, 0.00
190, 41659.20, 29297.50, 10204.29, 15493.65, 3140.49, 20604.49, -25917.65, 0.00, 0.00, 0.00, 0.00
191, 41639.27, 29285.10, 10194.50, 15461.64, 3097.28, 20400.64, -25907.53, 0.00, 0.00, 0.00, 0.00
192, 41605.94, 29258.21, 10195.95, 15462.33, 3071.49, 20286.53, -25876.75, 0.00, 0.00, 0.00, 0.00
193, 41622.95, 29269.61, 10209.20, 15496.08, 3098.73, 20478.98, -25890.79, 0.00, 0.00, 0.00, 0.00
194, 41657.01, 29296.70, 10204.20, 15498.34, 3127.48, 20603.88, -25905.54, 0.00, 0.00, 0.00, 0.00
195, 41645.61, 29294.11, 10202.48, 15473.98, 3112.44, 20428.71, -25852.43, 0.00, 0.00, 0.00, 0.00
196, 41602.14, 29257.72, 10196.84, 15453.46, 3073.48, 20280.99, -25832.07, 0.00, 0.00, 0.00, 0.00
197, 41605.40, 29255.50, 10196.17, 15479.19, 3087.31, 20430.90, -25861.64, 0.00, 0.16, 0.75, 0.62
198, 41656.07, 29297.97, 10207.44, 15509.29, 3142.97, 20630.70, -25888.06, 0.00, 0.00, 0.00, 0.00
199, 41647.67, 29295.58, 10194.23, 15481.42, 3122.76, 20483.85, -25884.39, 0.00, 0.00, 0.00, 0.00
200, 41609.94, 29264.42, 10183.66, 15470.29, 3071.76, 20275.63, -25853.95, 0.00, 0.00, 0.00, 0.00
201, 41611.13, 29258.97, 10198.27, 15484.55, 3095.49, 20372.29, -25841.95, 0.00, 0.00, 0.00, 0.00
202, 41645.97, 29283.11, 10202.41, 15493.47, 3138.05, 20605.13, -25886.25, 0.00, 0.00, 0.00, 0.00
203, 41650.04, 29290.42, 10186.90, 15470.00, 3119.61, 20517.52, -25909.27, 0.00, 0.00, 0.00, 0.00
204, 41619.82, 29270.12, 10180.46, 15457.13, 3075.96, 20306.76, -25898.05, 0.00, 0.00, 0.00, 0.00
205, 41595.54, 29244.17, 10179.27, 15462.85, 3065.07, 20324.53, -25920.49, 0.00, 0.00, 0.00, 0.00
206, 41631.84, 29270.32, 10192.86, 15488.15, 3121.06, 20567.58, -25924.71, 0.00, 0.00, 0.00, 0.00
207, 41657.64, 29297.53, 10192.35, 15481.24, 3135.01, 20554.02, -25867.18, 0.00, 0.17, 0.76, 0.62
208, 41635.44, 29287.80, 10188.68, 15469.80, 3097.28, 20336.20, -25831.29, 0.00, 0.00, 0.00, 0.00
209, 41610.83, 29264.98, 10191.03, 15476.17, 3087.54, 20305.62, -25837.52, 0.00, 0.00, 0.00, 0.00
210, 41631.20, 29273.77, 10195.99, 15491.68, 3126.00, 20545.97, -25873.42, 0.00, 0.00, 0.00, 0.00
211, 41660.43, 29300.19, 10194.07, 15488.64, 3128.22, 20580.05, -25899.90, 0.00, 0.00, 0.00, 0.00
212, 41632.43, 29283.20, 10178.72, 15458.51, 3087.54, 20366.82, -25896.44, 0.00, 0.00, 0.00, 0.00
213, 41609.96, 29266.03, 10193.36, 15469.22, 3074.28, 20292.66, -25864.41, 0.00, 0.00, 0.00, 0.00
214, 41630.19, 29276.45, 10207.91, 15499.44, 3107.36, 20513.92, -25904.98, 0.00, 0.00, 0.00, 0.00
215, 41665.46, 29302.00, 10202.21, 15503.42, 3119.77, 20600.57, -25922.30, 0.00, 0.00, 0.00, 0.00
216, 41654.13, 29300.61, 10206.50, 15493.02, 3108.21, 20415.88, -25872.86, 0.00, 0.00, 0.00, 0.00
217, 41621.83, 29274.08, 10200.87, 15473.93, 3083.11, 20292.43, -25856.36, 0.00, 0.17, 0.76, 0.63
218, 41632.16, 29274.68, 10205.00, 15492.87, 3107.38, 20468.95, -25857.10, 0.00, 0.00, 0.00, 0.00
219, 41660.77, 29294.13, 10200.33, 15490.29, 3130.67, 20611.24, -25913.05, 0.00, 0.00, 0.00, 0.00
220, 41652.88, 29296.36, 10194.12, 15467.05, 3112.35, 20436.18, -25889.40, 0.00, 0.00, 0.00, 0.00
221, 41614.12, 29267.37, 10193.83, 15449.68, 3078.35, 20258.68, -25848.85, 0.00, 0.00, 0.00, 0.00
222, 41611.77, 29257.94, 10215.86, 15471.61, 3103.76, 20402.98, -25847.06, 0.00, 0.00, 0.00, 0.00
223, 41655.58, 29292.05, 10215.35, 15497.78, 3156.09, 20613.38, -25872.28, 0.00, 0.00, 0.00, 0.00
224, 41654.93, 29294.78, 10196.42, 15472.19, 3123.99, 20487.03, -25889.49, 0.00, 0.00, 0.00, 0.00
225, 41616.46, 29266.61, 10188.68, 15455.40, 3073.07, 20284.05, -25889.44, 0.00, 0.00, 0.00, 0.00
226, 41614.14, 29265.54, 10204.73, 15490.03, 3100.59, 20372.29, -25876.12, 0.00, 0.00, 0.00, 0.00
227, 41652.18, 29291.63, 10213.94, 15509.76, 3144.51, 20613.85, -25890.47, 0.00, 0.16, 0.76, 0.62
228, 41658.71, 29296.97, 10204.06, 15482.92, 3134.70, 20537.95, -25893.71, 0.00, 0.00, 0.00, 0.00
229, 41620.15, 29269.14, 10192.35, 15465.62, 3084.38, 20316.93, -25854.98, 0.00, 0.00, 0.00, 0.00
230, 41612.75, 29264.78, 10210.23, 15484.55, 3098.31, 20341.23, -25833.07, 0.00, 0.00, 0.00, 0.00
231, 41645.61, 29284.94, 10218.32, 15501.87, 3136.11, 20584.97, -25897.42, 0.00, 0.00, 0.00, 0.00
232, 41664.68, 29301.41, 10203.26, 15484.04, 3127.97, 20559.51, -25916.40, 0.00, 0.00, 0.00, 0.00
233, 41636.94, 29285.19, 10195.19, 15454.89, 3090.55, 20328.44, -25859.20, 0.00, 0.00, 0.00, 0.00
234, 41614.95, 29266.50, 10202.23, 15468.32, 3090.91, 20296.05, -25835.73, 0.00, 0.00, 0.00, 0.00
235, 41638.62, 29281.19, 10211.06, 15497.49, 3137.18, 20542.88, -25879.12, 0.00, 0.00, 0.00, 0.00
236, 41667.41, 29306.78, 10209.36, 15488.26, 3152.22, 20590.70, -25891.05, 0.00, 0.17, 0.76, 0.62
237, 41642.80, 29292.09, 10197.40, 15459.78, 3107.56, 20379.72, -25845.48, 0.00, 0.00, 0.00, 0.00
238, 41612.11, 29265.85, 10196.15, 15456.92, 3081.84, 20282.78, -25834.19, 0.00, 0.00, 0.00, 0.00
239, 41630.66, 29273.32, 10214.81, 15487.90, 3121.29, 20492.23, -25878.22, 0.00, 0.00, 0.00, 0.00
240, 41661.71, 29299.94, 10216.36, 15489.71, 3145.34, 20601.18, -25896.98, 0.00, 0.00, 0.00, 0.00
241, 41641.10, 29287.60, 10196.44, 15457.68, 3108.81, 20409.36, -25858.75, 0.00, 0.00, 0.00, 0.00
242, 41609.34, 29259.64, 10194.70, 15446.75, 3070.37, 20263.09, -25839.49, 0.00, 0.00, 0.00, 0.00
243, 41624.51, 29268.38, 10209.56, 15493.74, 3123.43, 20447.13, -25859.25, 0.00, 0.00, 0.00, 0.00
244, 41658.64, 29295.13, 10207.35, 15498.68, 3141.74, 20600.17, -25906.25, 0.00, 0.00, 0.00, 0.00
245, 41654.33, 29298.58, 10200.53, 15454.49, 3116.37, 20440.29, -25888.68, 0.00, 0.00, 0.00, 0.00
246, 41619.48, 29272.25, 10202.45, 15441.17, 3086.13, 20265.99, -25856.41, 0.00, 0.17, 0.76, 0.63
247, 41617.18, 29266.75, 10215.78, 15472.91, 3104.17, 20405.42, -25877.93, 0.00, 0.00, 0.00, 0.00
248, 41657.19, 29293.57, 10219.51, 15490.85, 3145.20, 20621.70, -25907.59, 0.00, 0.00, 0.00, 0.00
249, 41657.28, 29299.96, 10205.49, 15463.90, 3129.15, 20497.76, -25867.72, 0.00, 0.00, 0.00, 0.00
250, 41625.63, 29278.44, 10206.01, 15450.38, 3098.13, 20287.65, -25814.77, 0.00, 0.00, 0.00, 0.00
251, 41616.18, 29265.99, 10216.40, 15469.06, 3104.70, 20352.13, -25840.00, 0.00, 0.00, 0.00, 0.00
252, 41647.13, 29286.13, 10217.72, 15487.34, 3145.16, 20578.27, -25897.94, 0.00, 0.00, 0.00, 0.00
253, 41658.02, 29298.02, 10204.11, 15462.29, 3126.45, 20510.41, -25903.93, 0.00, 0.00, 0.00, 0.00
254, 41636.29, 29290.53, 10203.75, 15456.88, 3091.16, 20318.47, -25850.89, 0.00, 0.00, 0.00, 0.00
255, 41620.24, 29271.15, 10209.74, 15465.69, 3094.80, 20324.57, -25857.57, 0.00, 0.00, 0.00, 0.00
0, 41651.89, 29291.27, 10221.74, 15493.40, 3144.76, 20577.55, -25879.63, 0.00, 0.16, 0.75, 0.63
1, 41671.99, 29312.77, 10213.61, 15479.72, 3141.67, 20579.05, -25855.71, 0.00, 0.00, 0.00, 0.00
2, 41640.16, 29291.11, 10203.19, 15445.14, 3109.15, 20345.79, -25849.66, 0.00, 0.00, 0.00, 0.00
3, 41613.56, 29265.67, 10211.04, 15450.96, 3085.79, 20290.98, -25867.65, 0.00, 0.00, 0.00, 0.00
4, 41637.59, 29276.83, 10217.32, 15483.03, 3127.08, 20527.84, -25915.37, 0.00, 0.00, 0.00, 0.00
5, 41662.44, 29299.47, 10207.77, 15474.25, 3140.46, 20578.76, -25927.82, 0.00, 0.00, 0.00, 0.00
6, 41642.77, 29290.55, 10196.33, 15456.48, 3107.54, 20369.79, -25907.32, 0.00, 0.00, 0.00, 0.00
7, 41620.22, 29272.92, 10201.18, 15462.33, 3085.28, 20291.38, -25838.12, 0.00, 0.00, 0.00, 0.00
8, 41639.53, 29280.92, 10220.42, 15483.41, 3132.22, 20508.04, -25801.60, 0.00, 0.00, 0.00, 0.00
9, 41670.78, 29302.20, 10217.61, 15481.09, 3160.18, 20617.18, -25855.54, 0.00, 0.00, 0.00, 0.00
10, 41652.16, 29291.49, 10202.43, 15450.20, 3121.78, 20420.22, -25851.56, 0.00, 0.16, 0.75, 0.62
11, 41623.04, 29269.74, 10208.40, 15446.49, 3096.52, 20273.97, -25828.31, 0.00, 0.00, 0.00, 0.00
12, 41629.14, 29268.83, 10216.74, 15479.59, 3117.93, 20448.02, -25853.28, 0.00, 0.00, 0.00, 0.00
13, 41659.47, 29289.32, 10220.31, 15489.00, 3146.99, 20615.21, -25885.82, 0.00, 0.00, 0.00, 0.00
14, 41656.32, 29293.30, 10220.69, 15464.72, 3125.82, 20464.52, -25872.95, 0.00, 0.00, 0.00, 0.00
15, 41622.61, 29268.33, 10209.70, 15444.36, 3097.01, 20279.11, -25857.59, 0.00, 0.00, 0.00, 0.00
16, 41625.21, 29266.72, 10211.60, 15473.40, 3105.17, 20396.28, -25870.96, 0.00, 0.00, 0.00, 0.00
17, 41664.86, 29295.94, 10219.37, 15493.11, 3144.80, 20618.32, -25899.39, 0.00, 0.00, 0.00, 0.00
18, 41665.50, 29300.54, 10202.61, 15462.67, 3116.84, 20497.62, -25900.71, 0.00, 0.00, 0.00, 0.00
19, 41634.17, 29279.51, 10201.22, 15451.51, 3086.44, 20291.03, -25858.62, 0.00, 0.17, 0.75, 0.63
20, 41622.14, 29265.00, 10212.36, 15473.20, 3101.82, 20363.76, -25826.48, 0.00, 0.00, 0.00, 0.00
21, 41659.11, 29290.55, 10227.78, 15497.60, 3152.22, 20594.20, -25872.50, 0.00, 0.00, 0.00, 0.00
22, 41667.94, 29300.30, 10217.29, 15479.52, 3137.60, 20537.54, -25900.78, 0.00, 0.00, 0.00, 0.00
23, 41629.54, 29274.37, 10203.06, 15450.26, 3086.22, 20312.50, -25874.29, 0.00, 0.00, 0.00, 0.00
24, 41609.63, 29254.88, 10207.21, 15461.24, 3079.78, 20305.98, -25865.77, 0.00, 0.00, 0.00, 0.00
25, 41647.63, 29282.04, 10222.82, 15506.86, 3141.34, 20565.21, -25862.69, 0.00, 0.00, 0.00, 0.00
26, 41673.66, 29307.32, 10214.95, 15507.44, 3150.61, 20590.63, -25886.27, 0.00, 0.00, 0.00, 0.00
27, 41649.70, 29291.94, 10208.00, 15478.22, 3097.26, 20370.93, -25870.47, 0.00, 0.00, 0.00, 0.00
28, 41620.24, 29263.66, 10216.07, 15474.87, 3094.13, 20307.45, -25823.35, 0.00, 0.00, 0.00, 0.00
29, 41642.89, 29277.01, 10231.04, 15506.14, 3151.66, 20540.16, -25844.63, 0.00, 0.17, 0.76, 0.62
30, 41671.61, 29299.27, 10223.44, 15501.25, 3156.54, 20606.90, -25856.65, 0.00, 0.00, 0.00, 0.00
31, 41648.36, 29286.39, 10211.68, 15471.47, 3112.84, 20393.13, -25835.98, 0.00, 0.00, 0.00, 0.00
32, 41613.61, 29258.68, 10210.01, 15461.95, 3087.29, 20283.92, -25826.68, 0.00, 0.00, 0.00, 0.00
33, 41630.10, 29268.02, 10224.18, 15492.40, 3124.42, 20487.70, -25869.62, 0.00, 0.00, 0.00, 0.00
34, 41667.05, 29297.46, 10223.20, 15494.79, 3148.96, 20616.13, -25893.18, 0.00, 0.00, 0.00, 0.00
35, 41655.07, 29291.76, 10212.27, 15465.62, 3115.52, 20429.70, -25863.00, 0.00, 0.00, 0.00, 0.00
36, 41619.46, 29263.13, 10211.68, 15459.67, 3084.05, 20282.62, -25828.45, 0.00, 0.00, 0.00, 0.00
37, 41636.92, 29271.93, 10235.40, 15504.44, 3131.21, 20451.62, -25832.27, 0.00, 0.00, 0.00, 0.00
38, 41669.20, 29299.25, 10235.40, 15512.18, 3166.64, 20624.83, -25875.70, 0.00, 0.00, 0.00, 0.00
39, 41660.88, 29296.90, 10222.26, 15466.33, 3136.06, 20472.57, -25868.88, 0.00, 0.17, 0.76, 0.62
40, 41621.88, 29266.10, 10214.12, 15444.52, 3094.55, 20274.24, -25847.80, 0.00, 0.00, 0.00, 0.00
41, 41619.82, 29258.68, 10224.34, 15480.21, 3110.02, 20368.99, -25848.09, 0.00, 0.00, 0.00, 0.00
42, 41653.10, 29282.53, 10225.99, 15500.76, 3146.32, 20593.24, -25896.26, 0.00, 0.00, 0.00, 0.00
43, 41657.13, 29291.18, 10213.03, 15467.38, 3128.82, 20505.65, -25922.39, 0.00, 0.00, 0.00, 0.00
44, 41623.06, 29266.48, 10203.77, 15441.99, 3087.76, 20283.43, -25892.08, 0.00, 0.00, 0.00, 0.00
45, 41609.38, 29250.52, 10209.94, 15458.64, 3089.82, 20324.15, -25857.32, 0.00, 0.00, 0.00, 0.00
46, 41643.02, 29271.69, 10218.77, 15488.39, 3154.26, 20578.89, -25877.78, 0.00, 0.00, 0.00, 0.00
47, 41659.94, 29291.13, 10225.48, 15475.50, 3158.41, 20543.26, -25864.70, 0.00, 0.00, 0.00, 0.00
48, 41631.93, 29274.06, 10210.52, 15455.76, 3107.88, 20318.47, -25835.96, 0.00, 0.00, 0.00, 0.00
49, 41613.52, 29255.10, 10211.62, 15464.75, 3099.14, 20293.39, -25829.76, 0.00, 0.16, 0.76, 0.62
50, 41638.13, 29274.26, 10225.10, 15501.85, 3152.80, 20548.43, -25823.69, 0.00, 0.00, 0.00, 0.00
51, 41663.72, 29298.82, 10220.16, 15495.01, 3160.09, 20590.74, -25852.72, 0.00, 0.00, 0.00, 0.00
52, 41641.70, 29287.58, 10218.05, 15481.13, 3117.42, 20378.11, -25838.21, 0.00, 0.00, 0.00, 0.00
53, 41611.68, 29260.89, 10224.63, 15488.62, 3102.15, 20294.78, -25795.52, 0.00, 0.00, 0.00, 0.00
54, 41632.83, 29273.07, 10238.28, 15503.79, 3145.85, 20518.21, -25835.08, 0.00, 0.00, 0.00, 0.00
55, 41669.44, 29307.40, 10235.78, 15498.39, 3167.26, 20608.80, -25855.13, 0.00, 0.00, 0.00, 0.00
56, 41662.38, 29311.50, 10230.37, 15482.52, 3133.25, 20407.72, -25830.35, 0.00, 0.00, 0.00, 0.00
57, 41630.03, 29285.08, 10230.91, 15479.23, 3095.74, 20281.41, -25821.72, 0.00, 0.00, 0.00, 0.00
58, 41646.64, 29295.42, 10246.24, 15520.38, 3129.09, 20483.21, -25840.31, 0.00, 0.00, 0.00, 0.00
59, 41686.52, 29327.57, 10247.67, 15533.97, 3165.14, 20634.73, -25880.06, 0.00, 0.16, 0.75, 0.62
60, 41673.06, 29318.80, 10229.68, 15489.54, 3121.82, 20443.11, -25879.86, 0.00, 0.00, 0.00, 0.00
61, 41633.32, 29285.99, 10223.73, 15471.83, 3074.30, 20270.33, -25862.98, 0.00, 0.00, 0.00, 0.00
62, 41632.20, 29278.19, 10235.71, 15505.83, 3108.32, 20413.15, -25904.53, 0.00, 0.00, 0.00, 0.00
63, 41669.64, 29303.20, 10244.14, 15523.75, 3144.76, 20609.49, -25924.25, 0.00, 0.00, 0.00, 0.00
64, 41677.60, 29315.18, 10235.96, 15482.23, 3132.46, 20481.93, -25855.74, 0.00, 0.00, 0.00, 0.00
65, 41638.86, 29284.63, 10231.00, 15447.22, 3095.25, 20274.13, -25837.83, 0.00, 0.00, 0.00, 0.00
66, 41628.94, 29265.61, 10233.39, 15468.12, 3102.06, 20356.16, -25855.51, 0.00, 0.00, 0.00, 0.00
67, 41667.14, 29293.81, 10233.25, 15502.97, 3150.12, 20612.62, -25880.30, 0.00, 0.00, 0.00, 0.00
68, 41676.35, 29307.52, 10224.29, 15481.04, 3139.21, 20527.71, -25875.85, 0.00, 0.16, 0.76, 0.62
69, 41641.43, 29286.24, 10221.54, 15461.91, 3098.11, 20307.21, -25839.06, 0.00, 0.00, 0.00, 0.00
70, 41622.25, 29266.52, 10228.58, 15471.65, 3098.71, 20332.33, -25841.46, 0.00, 0.00, 0.00, 0.00
71, 41657.41, 29293.14, 10242.19, 15500.71, 3146.97, 20578.24, -25877.08, 0.00, 0.00, 0.00, 0.00
72, 41676.82, 29311.81, 10236.52, 15491.12, 3149.05, 20556.59, -25884.12, 0.00, 0.00, 0.00, 0.00
73, 41647.13, 29293.84, 10228.74, 15470.33, 3110.25, 20335.42, -25843.78, 0.00, 0.00, 0.00, 0.00
74, 41627.17, 29274.39, 10235.11, 15477.93, 3098.09, 20311.88, -25826.93, 0.00, 0.00, 0.00, 0.00
75, 41659.94, 29296.05, 10252.95, 15513.43, 3147.93, 20563.07, -25853.72, 0.00, 0.00, 0.00, 0.00
76, 41687.77, 29322.22, 10247.54, 15502.39, 3158.06, 20590.16, -25860.32, 0.00, 0.00, 0.00, 0.00
77, 41661.64, 29303.78, 10241.75, 15472.46, 3120.62, 20351.62, -25841.90, 0.00, 0.00, 0.00, 0.00
78, 41634.66, 29280.70, 10253.06, 15477.31, 3101.66, 20273.61, -25819.66, 0.00, 0.17, 0.76, 0.61
79, 41654.13, 29291.80, 10246.58, 15498.97, 3134.52, 20501.22, -25858.46, 0.00, 0.00, 0.00, 0.00
80, 41679.68, 29311.79, 10232.76, 15500.22, 3150.95, 20616.47, -25881.33, 0.00, 0.00, 0.00, 0.00
81, 41664.88, 29306.69, 10226.50, 15480.73, 3123.88, 20430.19, -25845.37, 0.00, 0.00, 0.00, 0.00
82, 41629.59, 29280.18, 10223.00, 15474.85, 3086.73, 20291.96, -25827.64, 0.00, 0.00, 0.00, 0.00
83, 41636.74, 29281.25, 10237.10, 15504.02, 3120.04, 20469.15, -25873.84, 0.00, 0.00, 0.00, 0.00
84, 41665.68, 29302.67, 10236.70, 15508.56, 3145.47, 20620.00, -25885.46, 0.00, 0.00, 0.00, 0.00
85, 41659.63, 29304.28, 10227.44, 15480.91, 3131.01, 20451.00, -25837.43, 0.00, 0.00, 0.00, 0.00
86, 41632.49, 29289.28, 10234.37, 15482.49, 3110.89, 20291.05, -25796.55, 0.00, 0.00, 0.00, 0.00
87, 41643.67, 29292.59, 10246.53, 15506.34, 3136.22, 20427.91, -25819.64, 0.00, 0.00, 0.00, 0.00
88, 41685.98, 29321.64, 10254.40, 15517.99, 3180.25, 20631.31, -25848.32, 0.00, 0.17, 0.76, 0.61
89, 41682.07, 29323.99, 10244.39, 15491.57, 3151.64, 20504.28, -25846.19, 0.00, 0.00, 0.00, 0.00
90, 41649.28, 29299.07, 10236.67, 15474.49, 3107.97, 20296.01, -25842.46, 0.00, 0.00, 0.00, 0.00
91, 41641.63, 29287.00, 10243.04, 15501.63, 3117.82, 20370.57, -25828.71, 0.00, 0.00, 0.00, 0.00
92, 41677.71, 29314.16, 10248.41, 15528.49, 3158.61, 20608.33, -25887.59, 0.00, 0.00, 0.00, 0.00
93, 41697.25, 29335.30, 10244.65, 15498.59, 3150.90, 20540.94, -25880.68, 0.00, 0.00, 0.00, 0.00
94, 41661.32, 29307.45, 10241.73, 15470.63, 3112.03, 20320.53, -25808.22, 0.00, 0.00, 0.00, 0.00
95, 41639.89, 29285.93, 10241.05, 15484.68, 3106.74, 20330.21, -25824.24, 0.00, 0.00, 0.00, 0.00
96, 41678.27, 29313.73, 10250.58, 15524.81, 3160.34, 20586.52, -25886.22, 0.00, 0.00, 0.00, 0.00
97, 41699.82, 29334.94, 10238.48, 15512.69, 3160.74, 20580.73, -25870.18, 0.00, 0.00, 0.00, 0.00
98, 41668.55, 29316.93, 10235.74, 15479.30, 3118.38, 20345.47, -25823.55, 0.00, 0.17, 0.77, 0.62
99, 41645.97, 29298.33, 10248.36, 15486.76, 3113.22, 20313.55, -25785.33, 0.00, 0.00, 0.00, 0.00
100, 41677.02, 29315.90, 10253.64, 15528.29, 3166.42, 20572.05, -25815.44, 0.00, 0.00, 0.00, 0.00
101, 41702.30, 29337.36, 10248.70, 15525.77, 3182.24, 20618.54, -25849.41, 0.00, 0.00, 0.00, 0.00
102, 41677.46, 29324.24, 10236.72, 15499.17, 3127.14, 20387.96, -25827.98, 0.00, 0.00, 0.00, 0.00
103, 41651.38, 29304.14, 10242.42, 15486.05, 3115.48, 20293.33, -25794.27, 0.00, 0.00, 0.00, 0.00
104, 41668.50, 29312.59, 10254.15, 15513.63, 3158.64, 20512.80, -25827.78, 0.00, 0.00, 0.00, 0.00
105, 41703.46, 29337.78, 10251.18, 15515.91, 3179.40, 20625.03, -25852.50, 0.00, 0.00, 0.00, 0.00
106, 41686.67, 29328.01, 10238.51, 15487.21, 3140.82, 20422.79, -25833.12, 0.00, 0.00, 0.00, 0.00
107, 41653.43, 29300.83, 10237.84, 15485.60, 3112.41, 20289.64, -25811.14, 0.00, 0.00, 0.00, 0.00
108, 41658.44, 29298.35, 10244.34, 15518.39, 3139.57, 20471.49, -25848.16, 0.00, 0.17, 0.76, 0.62
129, 41667.76, 29295.16, 10248.59, 15521.97, 3139.84, 20498.61, -25854.98, 0.00, 0.00, 0.00, 0.00
130, 41697.60, 29321.64, 10249.57, 15524.43, 3167.47, 20613.85, -25872.17, 0.00, 0.00, 0.00, 0.00
131, 41675.90, 29308.46, 10234.93, 15476.06, 3128.44, 20415.01, -25841.99, 0.00, 0.00, 0.00, 0.00
132, 41635.89, 29276.16, 10227.31, 15462.36, 3090.71, 20262.66, -25822.21, 0.00, 0.00, 0.00, 0.00
133, 41645.70, 29281.14, 10240.81, 15496.78, 3120.73, 20427.71, -25843.85, 0.00, 0.00, 0.00, 0.00
134, 41685.98, 29314.63, 10252.14, 15515.53, 3160.31, 20608.17, -25887.19, 0.00, 0.00, 0.00, 0.00
135, 41683.50, 29318.09, 10241.50, 15487.48, 3132.46, 20457.54, -25900.17, 0.00, 0.00, 0.00, 0.00
136, 41644.90, 29287.78, 10228.16, 15467.54, 3090.40, 20261.32, -25869.37, 0.00, 0.00, 0.00, 0.00
137, 41638.37, 29278.21, 10238.53, 15488.15, 3109.22, 20378.44, -25870.51, 0.00, 0.16, 0.76, 0.63
138, 41681.04, 29312.26, 10246.60, 15526.17, 3160.07, 20605.54, -25852.85, 0.00, 0.00, 0.00, 0.00
139, 41683.34, 29321.67, 10238.08, 15511.73, 3157.52, 20510.00, -25843.40, 0.00, 0.00, 0.00, 0.00
140, 41645.79, 29290.04, 10231.71, 15464.48, 3097.93, 20298.58, -25823.51, 0.00, 0.00, 0.00, 0.00
141, 41630.39, 29270.03, 10237.97, 15475.39, 3100.50, 20341.81, -25837.03, 0.00, 0.00, 0.00, 0.00
142, 41666.67, 29296.56, 10243.20, 15512.45, 3149.16, 20589.93, -25865.44, 0.00, 0.00, 0.00, 0.00
143, 41684.30, 29316.08, 10234.71, 15500.44, 3146.16, 20538.55, -25880.73, 0.00, 0.00, 0.00, 0.00
144, 41647.94, 29287.82, 10223.26, 15468.12, 3093.62, 20304.48, -25874.71, 0.00, 0.00, 0.00, 0.00
145, 41624.22, 29265.88, 10221.23, 15474.65, 3078.26, 20292.95, -25881.84, 0.00, 0.00, 0.00, 0.00
146, 41659.61, 29293.73, 10235.38, 15516.38, 3129.87, 20549.21, -25871.16, 0.00, 0.00, 0.00, 0.00
147, 41679.27, 29314.51, 10227.55, 15507.82, 3132.84, 20566.20, -25866.76, 0.00, 0.17, 0.76, 0.61
148, 41646.21, 29293.12, 10211.04, 15479.50, 3080.94, 20336.71, -25878.33, 0.00, 0.00, 0.00, 0.00
149, 41624.20, 29273.10, 10223.93, 15480.35, 3079.80, 20271.27, -25843.33, 0.00, 0.00, 0.00, 0.00
150, 41650.33, 29290.93, 10241.70, 15522.64, 3140.44, 20514.34, -25828.98, 0.00, 0.00, 0.00, 0.00
151, 41675.79, 29306.94, 10226.30, 15518.23, 3143.17, 20578.67, -25902.81, 0.00, 0.00, 0.00, 0.00
152, 41656.36, 29296.16, 10218.57, 15474.40, 3099.40, 20366.93, -25893.89, 0.00, 0.00, 0.00, 0.00
153, 41627.86, 29274.48, 10224.94, 15470.00, 3080.83, 20277.46, -25839.22, 0.00, 0.00, 0.00, 0.00
154, 41643.24, 29283.49, 10225.63, 15507.77, 3116.37, 20472.52, -25844.56, 0.00, 0.00, 0.00, 0.00
155, 41675.56, 29308.97, 10223.75, 15513.00, 3153.23, 20597.22, -25854.93, 0.00, 0.00, 0.00, 0.00
156, 41661.82, 29303.07, 10207.57, 15479.83, 3117.00, 20416.08, -25857.75, 0.00, 0.16, 0.75, 0.62
157, 41622.81, 29269.65, 10200.49, 15463.56, 3071.49, 20239.30, -25855.74, 0.00, 0.00, 0.00, 0.00
158, 41625.61, 29265.88, 10214.39, 15495.03, 3103.38, 20386.06, -25851.00, 0.00, 0.00, 0.00, 0.00
159, 41665.55, 29293.61, 10218.41, 15507.97, 3147.95, 20583.61, -25876.05, 0.00, 0.00, 0.00, 0.00
160, 41660.27, 29293.79, 10210.12, 15479.39, 3128.77, 20452.99, -25874.87, 0.00, 0.00, 0.00, 0.00
161, 41621.99, 29266.03, 10205.76, 15468.90, 3077.46, 20257.70, -25868.84, 0.00, 0.00, 0.00, 0.00
162, 41618.39, 29258.83, 10212.71, 15489.54, 3086.95, 20354.41, -25885.80, 0.00, 0.00, 0.00, 0.00
163, 41656.70, 29287.62, 10221.03, 15512.69, 3134.30, 20578.49, -25894.05, 0.00, 0.00, 0.00, 0.00
164, 41662.04, 29298.80, 10217.70, 15480.39, 3120.91, 20481.53, -25885.20, 0.00, 0.00, 0.00, 0.00
165, 41626.14, 29274.44, 10218.43, 15449.01, 3082.77, 20270.10, -25848.00, 0.00, 0.00, 0.00, 0.00
166, 41607.05, 29254.43, 10207.17, 15467.85, 3086.31, 20304.35, -25848.81, 0.00, 0.17, 0.76, 0.62
167, 41635.96, 29270.77, 10204.89, 15490.36, 3126.09, 20540.87, -25898.07, 0.00, 0.00, 0.00, 0.00
168, 41648.81, 29284.23, 10192.60, 15466.76, 3111.32, 20498.43, -25925.23, 0.00, 0.00, 0.00, 0.00
169, 41626.43, 29269.99, 10191.81, 15445.08, 3072.11, 20274.04, -25878.04, 0.00, 0.00, 0.00, 0.00
170, 41607.39, 29253.04, 10199.35, 15464.41, 3075.29, 20262.48, -25848.99, 0.00, 0.00, 0.00, 0.00
171, 41637.32, 29275.60, 10213.27, 15506.21, 3129.40, 20516.02, -25873.28, 0.00, 0.00, 0.00, 0.00
172, 41659.43, 29290.53, 10206.86, 15483.25, 3126.54, 20546.64, -25902.03, 0.00, 0.00, 0.00, 0.00
173, 41635.22, 29275.26, 10194.16, 15446.91, 3082.37, 20317.36, -25876.79, 0.00, 0.00, 0.00, 0.00
174, 41608.93, 29253.31, 10194.21, 15468.57, 3060.60, 20244.42, -25876.99, 0.00, 0.00, 0.00, 0.00
175, 41625.29, 29259.55, 10202.74, 15498.05, 3099.05, 20475.05, -25930.15, 0.00, 0.00, 0.00, 0.00
176, 41658.22, 29284.27, 10201.89, 15480.06, 3120.84, 20566.71, -25913.00, 0.00, 0.16, 0.76, 0.62
177, 41634.95, 29270.97, 10188.86, 15450.67, 3080.96, 20356.76, -25884.93, 0.00, 0.00, 0.00, 0.00
178, 41596.19, 29239.99, 10186.47, 15442.69, 3053.76, 20222.49, -25864.74, 0.00, 0.00, 0.00, 0.00
179, 41606.34, 29241.91, 10194.72, 15475.32, 3084.34, 20407.54, -25907.30, 0.00, 0.00, 0.00, 0.00
180, 41644.07, 29273.03, 10193.69, 15485.20, 3114.45, 20563.83, -25925.43, 0.00, 0.00, 0.00, 0.00
181, 41637.75, 29274.71, 10180.77, 15451.92, 3073.03, 20394.98, -25901.58, 0.00, 0.00, 0.00, 0.00
182, 41604.51, 29249.09, 10181.04, 15441.81, 3055.10, 20230.68, -25863.76, 0.00, 0.00, 0.00, 0.00
183, 41605.25, 29243.21, 10194.47, 15474.36, 3075.85, 20376.27, -25866.64, 0.00, 0.00, 0.00, 0.00
184, 41638.71, 29263.89, 10196.15, 15477.93, 3113.24, 20570.29, -25905.87, 0.00, 0.00, 0.00, 0.00
185, 41646.51, 29278.95, 10190.85, 15458.82, 3093.15, 20437.16, -25903.23, 0.00, 0.00, 0.00, 0.00
186, 41612.15, 29254.03, 10183.16, 15437.77, 3043.84, 20223.50, -25906.07, 0.00, 0.16, 0.75, 0.62
187, 41600.46, 29237.51, 10187.39, 15454.24, 3058.90, 20305.11, -25908.15, 0.00, 0.00, 0.00, 0.00
188, 41633.45, 29261.14, 10190.90, 15478.98, 3106.76, 20540.87, -25930.91, 0.00, 0.00, 0.00, 0.00
189, 41648.79, 29278.21, 10186.72, 15464.84, 3100.75, 20474.46, -25907.08, 0.00, 0.00, 0.00, 0.00
190, 41623.15, 29262.99, 10183.23, 15454.98, 3067.40, 20261.59, -25845.77, 0.00, 0.00, 0.00, 0.00
191, 41600.06, 29241.38, 10185.49, 15456.59, 3066.46, 20275.65, -25856.52, 0.00, 0.00, 0.00, 0.00
192, 41628.76, 29263.64, 10193.94, 15478.25, 3107.25, 20511.26, -25922.37, 0.00, 0.00, 0.00, 0.00
193, 41642.75, 29278.79, 10185.89, 15462.33, 3104.34, 20490.65, -25934.06, 0.00, 0.00, 0.00, 0.00
194, 41621.99, 29268.33, 10183.99, 15447.04, 3072.78, 20289.57, -25888.15, 0.00, 0.00, 0.00, 0.00
195, 41602.54, 29249.58, 10188.86, 15459.11, 3060.47, 20261.21, -25857.93, 0.00, 0.00, 0.00, 0.00
196, 41626.23, 29263.30, 10198.30, 15485.53, 3110.38, 20502.92, -25875.63, 0.00, 0.16, 0.76, 0.62
197, 41649.17, 29281.77, 10189.62, 15469.51, 3122.63, 20536.96, -25900.71, 0.00, 0.00, 0.00, 0.00
198, 41630.46, 29272.29, 10183.99, 15441.48, 3082.17, 20317.91, -25876.30, 0.00, 0.00, 0.00, 0.00
199, 41593.62, 29240.30, 10179.12, 15442.15, 3049.69, 20225.65, -25870.85, 0.00, 0.00, 0.00, 0.00
200, 41613.05, 29250.19, 10188.86, 15481.67, 3080.90, 20445.36, -25902.09, 0.00, 0.00, 0.00, 0.00
201, 41644.07, 29275.84, 10193.22, 15488.48, 3116.46, 20543.94, -25949.84, 0.00, 0.00, 0.00, 0.00
202, 41625.05, 29266.68, 10185.60, 15456.03, 3078.75, 20342.93, -25947.94, 0.00, 0.00, 0.00, 0.00
203, 41592.88, 29241.40, 10182.16, 15435.02, 3044.02, 20208.57, -25897.85, 0.00, 0.00, 0.00, 0.00
204, 41601.71, 29244.11, 10196.40, 15472.35, 3081.21, 20396.03, -25875.85, 0.00, 0.00, 0.00, 0.00
205, 41639.80, 29273.65, 10195.30, 15480.68, 3111.63, 20560.59, -25901.78, 0.00, 0.16, 0.76, 0.62
206, 41630.41, 29270.93, 10183.25, 15445.66, 3076.45, 20388.10, -25926.70, 0.00, 0.00, 0.00, 0.00
207, 41593.82, 29240.89, 10174.49, 15430.91, 3029.44, 20215.45, -25924.25, 0.00, 0.00, 0.00, 0.00
208, 41592.77, 29232.75, 10183.21, 15457.50, 3052.38, 20346.64, -25914.03, 0.00, 0.00, 0.00, 0.00
209, 41634.28, 29263.13, 10193.24, 15476.03, 3106.13, 20557.75, -25903.64, 0.00, 0.00, 0.00, 0.00
210, 41638.97, 29272.18, 10183.86, 15453.57, 3083.74, 20441.61, -25887.25, 0.00, 0.00, 0.00, 0.00
211, 41604.73, 29246.09, 10180.77, 15437.48, 3049.40, 20236.35, -25857.66, 0.00, 0.00, 0.00, 0.00
212, 41588.62, 29226.47, 10184.88, 15443.40, 3051.33, 20298.60, -25877.15, 0.00, 0.00, 0.00, 0.00
213, 41624.16, 29252.60, 10193.49, 15473.31, 3095.56, 20547.20, -25914.59, 0.00, 0.00, 0.00, 0.00
214, 41633.90, 29265.59, 10182.76, 15459.63, 3087.47, 20480.86, -25911.24, 0.00, 0.00, 0.00, 0.00
215, 41600.64, 29247.10, 10172.46, 15436.18, 3030.81, 20255.78, -25891.46, 0.00, 0.17, 0.75, 0.62
216, 41582.16, 29228.79, 10177.82, 15438.68, 3036.77, 20271.38, -25896.15, 0.00, 0.00, 0.00, 0.00
217, 41616.53, 29250.21, 10194.67, 15471.83, 3090.58, 20523.55, -25917.49, 0.00, 0.00, 0.00, 0.00
218, 41640.34, 29274.62, 10189.56, 15461.51, 3088.32, 20511.59, -25929.12, 0.00, 0.00, 0.00, 0.00
219, 41613.18, 29258.70, 10178.74, 15432.83, 3047.24, 20279.18, -25913.40, 0.00, 0.00, 0.00, 0.00
220, 41587.50, 29237.51, 10182.94, 15443.45, 3033.44, 20248.62, -25882.04, 0.00, 0.00, 0.00, 0.00
221, 41619.93, 29257.16, 10195.26, 15480.39, 3080.16, 20506.18, -25900.69, 0.00, 0.00, 0.00, 0.00
222, 41641.16, 29279.46, 10185.42, 15472.23, 3098.40, 20557.48, -25919.02, 0.00, 0.00, 0.00, 0.00
223, 41615.08, 29264.22, 10176.64, 15437.95, 3059.91, 20325.33, -25898.12, 0.00, 0.00, 0.00, 0.00
224, 41587.23, 29239.84, 10189.98, 15441.88, 3038.79, 20224.37, -25880.86, 0.00, 0.00, 0.00, 0.00
