%OpenBCI Raw EEG Data
%
%Sample Rate = 250.0 Hz
%First Column = SampleIndex
%Other Columns = EEG data in microvolts followed by Accel Data (in G) interleaved with Aux Data
0, 53038.41, 47494.21, 30740.82, 22875.69, 31569.89, 36508.18, 20976.98, 0.00, 0.03, 0.45, 0.19
1, 53057.00, 47504.92, 30644.38, 22769.01, 31378.76, 36221.63, 20955.97, 0.00, 0.00, 0.00, 0.00
2, 53001.59, 47508.99, 30599.85, 22745.00, 31265.89, 35793.88, 21009.21, 0.00, 0.00, 0.00, 0.00
3, 52987.34, 47500.88, 30649.87, 22806.42, 31364.50, 35970.35, 21028.50, 0.00, 0.00, 0.00, 0.00
4, 53032.95, 47499.82, 30728.35, 22880.90, 31551.90, 36436.76, 21004.98, 0.00, 0.00, 0.00, 0.00
5, 53070.15, 47505.93, 30662.48, 22797.86, 31437.32, 36338.55, 20965.64, 0.00, 0.00, 0.00, 0.00
6, 53010.65, 47507.80, 30584.47, 22741.58, 31252.19, 35815.92, 21003.17, 0.00, 0.00, 0.00, 0.00
7, 52987.94, 47499.96, 30637.49, 22799.47, 31344.14, 35919.25, 21030.40, 0.00, 0.07, 0.92, 0.39
8, 53016.59, 47494.89, 30707.25, 22874.28, 31508.05, 36345.25, 21005.56, 0.00, 0.00, 0.00, 0.00
9, 53070.44, 47499.29, 30678.10, 22817.51, 31473.83, 36428.22, 20952.59, 0.00, 0.00, 0.00, 0.00
10, 53020.66, 47507.58, 30575.55, 22735.50, 31236.14, 35851.59, 20988.04, 0.00, 0.00, 0.00, 0.00
11, 52995.52, 47504.74, 30624.44, 22788.03, 31317.32, 35875.04, 21028.50, 0.00, 0.00, 0.00, 0.00
12, 53021.09, 47509.05, 30695.89, 22866.53, 31473.87, 36252.07, 21022.66, 0.00, 0.00, 0.00, 0.00
13, 53084.96, 47511.96, 30709.84, 22849.92, 31528.32, 36502.90, 20964.55, 0.00, 0.00, 0.00, 0.00
14, 53042.72, 47515.36, 30587.31, 22739.32, 31263.74, 35924.75, 20988.91, 0.00, 0.00, 0.00, 0.00
15, 53003.90, 47508.65, 30623.86, 22780.58, 31310.88, 35840.39, 21036.19, 0.00, 0.00, 0.00, 0.00
16, 53006.67, 47498.71, 30682.08, 22848.22, 31437.79, 36155.38, 21034.27, 0.00, 0.07, 0.92, 0.38
17, 53071.73, 47499.13, 30724.73, 22863.51, 31558.49, 36522.88, 20980.71, 0.00, 0.00, 0.00, 0.00
18, 53049.70, 47506.51, 30595.94, 22742.25, 31291.84, 36002.42, 20977.92, 0.00, 0.00, 0.00, 0.00
19, 53001.33, 47502.86, 30604.79, 22763.08, 31284.93, 35803.45, 21013.99, 0.00, 0.00, 0.00, 0.00
20, 53000.77, 47496.29, 30656.04, 22826.07, 31396.02, 36064.05, 21019.78, 0.00, 0.00, 0.00, 0.00
21, 53070.93, 47501.79, 30725.67, 22874.10, 31565.94, 36512.27, 20986.41, 0.00, 0.00, 0.00, 0.00
22, 53067.53, 47507.27, 30612.34, 22758.95, 31335.49, 36116.95, 20972.28, 0.00, 0.00, 0.00, 0.00
23, 53011.63, 47504.03, 30595.25, 22756.09, 31269.40, 35791.51, 21010.59, 0.00, 0.00, 0.00, 0.00
24, 52998.49, 47489.92, 30648.73, 22811.65, 31372.04, 36003.21, 21016.52, 0.00, 0.00, 0.00, 0.00
25, 53053.52, 47490.10, 30727.95, 22873.05, 31554.43, 36468.61, 20989.88, 0.00, 0.00, 0.00, 0.00
26, 53071.15, 47496.76, 30644.02, 22770.50, 31386.61, 36230.90, 20960.33, 0.00, 0.07, 0.92, 0.38
27, 53014.56, 47501.99, 30593.57, 22742.41, 31259.58, 35789.75, 21012.79, 0.00, 0.00, 0.00, 0.00
28, 52993.97, 47490.39, 30630.63, 22795.83, 31347.40, 35939.91, 21021.75, 0.00, 0.00, 0.00, 0.00
29, 53036.42, 47486.66, 30707.38, 22865.72, 31520.96, 36388.55, 20989.58, 0.00, 0.00, 0.00, 0.00
30, 53080.32, 47493.92, 30658.05, 22789.90, 31430.55, 36334.79, 20944.28, 0.00, 0.00, 0.00, 0.00
31, 53025.40, 47501.21, 30584.38, 22733.11, 31251.38, 35809.86, 21002.75, 0.00, 0.00, 0.00, 0.00
32, 53000.63, 47495.09, 30635.48, 22791.49, 31337.70, 35895.85, 21031.05, 0.00, 0.00, 0.00, 0.00
33, 53030.88, 47494.24, 30707.61, 22868.61, 31495.60, 36300.06, 21012.63, 0.00, 0.00, 0.00, 0.00
34, 53086.09, 47496.32, 30692.99, 22826.18, 31493.14, 36428.87, 20962.94, 0.00, 0.00, 0.00, 0.00
35, 53033.76, 47497.21, 30582.95, 22731.30, 31254.87, 35854.90, 20982.77, 0.00, 0.00, 0.00, 0.00
36, 53001.01, 47491.46, 30618.00, 22776.25, 31313.16, 35851.28, 21014.04, 0.00, 0.07, 0.91, 0.39
37, 53015.07, 47488.83, 30680.07, 22848.33, 31454.40, 36202.88, 21006.08, 0.00, 0.00, 0.00, 0.00
38, 53084.39, 47497.52, 30704.34, 22843.46, 31529.37, 36481.91, 20958.31, 0.00, 0.00, 0.00, 0.00
39, 53053.03, 47503.47, 30589.39, 22729.55, 31270.92, 35922.67, 20970.05, 0.00, 0.00, 0.00, 0.00
40, 53013.91, 47497.88, 30614.96, 22765.12, 31298.99, 35818.76, 21003.46, 0.00, 0.00, 0.00, 0.00
41, 53011.68, 47484.85, 30662.41, 22824.75, 31414.62, 36110.11, 21001.23, 0.00, 0.00, 0.00, 0.00
42, 53078.82, 47492.38, 30710.69, 22852.18, 31553.24, 36493.45, 20964.79, 0.00, 0.00, 0.00, 0.00
43, 53062.01, 47499.71, 30591.51, 22736.39, 31309.23, 36013.64, 20963.12, 0.00, 0.00, 0.00, 0.00
44, 53015.27, 47496.98, 30595.69, 22748.38, 31287.14, 35782.30, 21006.04, 0.00, 0.00, 0.00, 0.00
45, 53007.59, 47486.35, 30647.46, 22807.52, 31389.25, 36021.45, 21010.35, 0.00, 0.00, 0.00, 0.00
46, 53067.98, 47488.96, 30712.68, 22864.36, 31557.87, 36470.29, 20978.97, 0.00, 0.07, 0.92, 0.38
47, 53075.15, 47496.43, 30608.34, 22753.16, 31348.52, 36121.40, 20953.78, 0.00, 0.00, 0.00, 0.00
48, 53023.50, 47496.14, 30583.78, 22740.02, 31265.69, 35776.47, 20990.01, 0.00, 0.00, 0.00, 0.00
49, 53009.57, 47486.12, 30628.68, 22800.14, 31360.66, 35970.64, 21013.95, 0.00, 0.00, 0.00, 0.00
50, 53059.62, 47488.96, 30705.64, 22865.97, 31542.63, 36427.93, 20984.00, 0.00, 0.00, 0.00, 0.00
51, 53087.71, 47501.61, 30635.14, 22777.07, 31405.47, 36240.63, 20949.35, 0.00, 0.00, 0.00, 0.00
52, 53030.38, 47500.09, 30580.87, 22738.59, 31264.48, 35781.34, 20991.17, 0.00, 0.00, 0.00, 0.00
53, 53005.68, 47485.05, 30620.55, 22787.85, 31343.43, 35902.73, 21004.43, 0.00, 0.00, 0.00, 0.00
54, 53048.22, 47491.62, 30698.31, 22866.77, 31514.62, 36340.00, 20991.44, 0.00, 0.00, 0.00, 0.00
55, 53092.86, 47500.05, 30661.88, 22798.15, 31457.17, 36335.87, 20949.95, 0.00, 0.00, 0.00, 0.00
56, 53036.38, 47501.16, 30570.35, 22723.47, 31253.19, 35800.95, 20978.30, 0.00, 0.07, 0.92, 0.39
57, 53007.14, 47492.11, 30610.49, 22774.30, 31327.73, 35859.71, 21015.65, 0.00, 0.00, 0.00, 0.00
58, 53026.88, 47483.30, 30676.49, 22842.43, 31477.94, 36248.02, 21000.31, 0.00, 0.00, 0.00, 0.00
59, 53092.79, 47495.13, 30672.36, 22820.66, 31500.51, 36421.96, 20959.56, 0.00, 0.00, 0.00, 0.00
60, 53048.85, 47501.01, 30568.31, 22732.01, 31264.59, 35864.04, 20980.93, 0.00, 0.00, 0.00, 0.00
61, 53017.98, 47499.04, 30605.66, 22775.73, 31314.84, 35832.26, 21015.96, 0.00, 0.00, 0.00, 0.00
62, 53029.13, 47494.41, 30663.55, 22845.45, 31444.84, 36168.59, 21011.85, 0.00, 0.00, 0.00, 0.00
63, 53089.91, 47494.08, 30693.77, 22849.32, 31537.17, 36479.14, 20959.65, 0.00, 0.00, 0.00, 0.00
64, 53057.03, 47498.73, 30571.46, 22737.13, 31282.67, 35944.62, 20966.47, 0.00, 0.00, 0.00, 0.00
65, 53018.76, 47498.98, 30589.99, 22767.11, 31297.52, 35808.21, 21006.35, 0.00, 0.06, 0.91, 0.39
66, 53016.10, 47491.11, 30641.02, 22827.10, 31411.75, 36086.33, 21013.30, 0.00, 0.00, 0.00, 0.00
67, 53083.74, 47497.39, 30698.06, 22864.43, 31560.35, 36490.16, 20986.95, 0.00, 0.00, 0.00, 0.00
68, 53071.15, 47501.05, 30585.81, 22746.54, 31328.85, 36047.68, 20974.34, 0.00, 0.00, 0.00, 0.00
69, 53026.83, 47502.11, 30583.06, 22758.75, 31290.74, 35792.05, 21007.82, 0.00, 0.00, 0.00, 0.00
70, 53020.04, 47494.53, 30634.29, 22821.18, 31388.06, 36021.22, 21016.00, 0.00, 0.00, 0.00, 0.00
71, 53081.41, 47499.94, 30712.62, 22881.44, 31570.36, 36474.43, 21000.00, 0.00, 0.00, 0.00, 0.00
72, 53091.70, 47502.98, 30614.04, 22771.73, 31378.23, 36167.38, 20979.64, 0.00, 0.00, 0.00, 0.00
73, 53037.74, 47497.21, 30578.66, 22743.46, 31267.88, 35793.30, 21008.90, 0.00, 0.00, 0.00, 0.00
74, 53035.19, 47503.11, 30627.81, 22806.82, 31360.05, 35969.03, 21023.49, 0.00, 0.00, 0.00, 0.00
75, 53082.51, 47521.21, 30709.69, 22902.98, 31546.87, 36440.23, 21017.86, 0.00, 0.07, 0.91, 0.40
76, 53117.31, 47539.57, 30650.30, 22835.23, 31431.16, 36321.09, 20995.24, 0.00, 0.00, 0.00, 0.00
77, 53073.34, 47557.98, 30592.56, 22795.22, 31272.66, 35846.96, 21022.82, 0.00, 0.00, 0.00, 0.00
78, 53051.89, 47550.68, 30631.03, 22845.43, 31346.26, 35945.67, 21027.56, 0.00, 0.00, 0.00, 0.00
79, 53079.60, 47548.08, 30696.77, 22914.09, 31508.00, 36357.70, 21004.89, 0.00, 0.00, 0.00, 0.00
80, 53128.35, 47557.71, 30663.64, 22862.62, 31469.49, 36403.75, 20971.46, 0.00, 0.00, 0.00, 0.00
81, 53078.02, 47563.15, 30575.38, 22787.78, 31259.49, 35858.54, 20997.81, 0.00, 0.00, 0.00, 0.00
82, 53047.01, 47548.35, 30610.06, 22828.30, 31325.99, 35885.03, 21021.37, 0.00, 0.00, 0.00, 0.00
83, 53061.45, 47532.95, 30669.14, 22890.71, 31472.55, 36252.94, 21022.66, 0.00, 0.00, 0.00, 0.00
84, 53118.00, 47535.07, 30675.82, 22864.38, 31510.44, 36456.12, 20976.33, 0.00, 0.00, 0.00, 0.00
85, 53071.51, 47536.93, 30563.57, 22764.78, 31270.18, 35904.99, 20984.91, 0.00, 0.08, 0.91, 0.40
86, 53032.89, 47530.63, 30591.13, 22799.09, 31313.81, 35843.39, 21018.46, 0.00, 0.00, 0.00, 0.00
87, 53042.68, 47528.77, 30650.30, 22866.19, 31443.47, 36159.13, 21031.63, 0.00, 0.00, 0.00, 0.00
88, 53115.41, 47539.10, 30689.37, 22881.99, 31551.25, 36494.34, 20994.52, 0.00, 0.00, 0.00, 0.00
89, 53093.10, 47546.81, 30571.87, 22772.81, 31301.76, 35990.13, 20991.57, 0.00, 0.00, 0.00, 0.00
90, 53048.93, 47539.23, 30586.51, 22793.91, 31298.57, 35827.70, 21021.99, 0.00, 0.00, 0.00, 0.00
91, 53044.80, 47530.11, 30635.50, 22852.42, 31400.09, 36088.48, 21028.19, 0.00, 0.00, 0.00, 0.00
92, 53105.26, 47533.11, 30694.87, 22891.98, 31549.80, 36495.14, 20994.79, 0.00, 0.00, 0.00, 0.00
93, 53096.99, 47539.43, 30580.20, 22784.21, 31326.75, 36091.14, 20977.27, 0.00, 0.00, 0.00, 0.00
94, 53050.95, 47544.68, 30572.76, 22793.48, 31286.05, 35818.91, 21019.91, 0.00, 0.00, 0.00, 0.00
95, 53039.14, 47534.80, 30620.23, 22849.27, 31378.92, 36026.12, 21029.50, 0.00, 0.07, 0.92, 0.39
96, 53095.14, 47535.03, 30689.68, 22903.23, 31546.49, 36464.41, 20994.70, 0.00, 0.00, 0.00, 0.00
97, 53111.01, 47545.54, 30601.35, 22805.57, 31375.16, 36202.61, 20972.64, 0.00, 0.00, 0.00, 0.00
98, 53062.41, 47549.11, 30569.45, 22785.93, 31273.35, 35815.14, 21013.34, 0.00, 0.00, 0.00, 0.00
99, 53047.19, 47539.01, 30614.94, 22836.06, 31359.90, 35969.97, 21025.68, 0.00, 0.00, 0.00, 0.00
100, 53086.64, 47534.36, 30686.98, 22898.45, 31529.71, 36399.14, 21003.02, 0.00, 0.00, 0.00, 0.00
101, 53114.65, 47531.72, 30627.68, 22814.25, 31427.11, 36301.13, 20956.41, 0.00, 0.00, 0.00, 0.00
102, 53059.66, 47532.57, 30565.76, 22764.63, 31267.59, 35827.30, 20997.63, 0.00, 0.00, 0.00, 0.00
103, 53038.77, 47526.60, 30612.19, 22816.93, 31343.94, 35917.04, 21022.49, 0.00, 0.00, 0.00, 0.00
104, 53068.98, 47525.71, 30674.10, 22885.71, 31498.21, 36315.57, 21005.36, 0.00, 0.07, 0.91, 0.40
105, 53123.86, 47537.38, 30648.42, 22842.10, 31476.82, 36396.02, 20963.95, 0.00, 0.00, 0.00, 0.00
106, 53075.29, 47542.00, 30556.22, 22763.20, 31262.78, 35863.91, 20985.18, 0.00, 0.00, 0.00, 0.00
107, 53050.81, 47540.15, 30599.20, 22810.02, 31326.79, 35877.12, 21016.76, 0.00, 0.00, 0.00, 0.00
108, 53069.45, 47538.18, 30663.64, 22877.77, 31461.51, 36226.52, 21013.50, 0.00, 0.00, 0.00, 0.00
109, 53130.05, 47541.58, 30674.62, 22864.29, 31515.60, 36461.17, 20965.33, 0.00, 0.00, 0.00, 0.00
110, 53086.93, 47540.10, 30558.70, 22761.54, 31272.97, 35929.04, 20974.50, 0.00, 0.00, 0.00, 0.00
111, 53045.34, 47528.39, 30581.63, 22794.33, 31304.42, 35842.45, 21011.60, 0.00, 0.00, 0.00, 0.00
112, 53050.12, 47524.86, 30637.11, 22854.01, 31423.47, 36132.36, 21010.33, 0.00, 0.00, 0.00, 0.00
113, 53113.73, 47531.41, 30679.96, 22873.46, 31544.48, 36485.60, 20974.96, 0.00, 0.00, 0.00, 0.00
114, 53090.55, 47534.96, 30565.65, 22766.68, 31305.12, 36012.41, 20973.67, 0.00, 0.07, 0.91, 0.39
115, 53046.41, 47529.78, 30576.63, 22785.37, 31303.97, 35829.04, 21017.39, 0.00, 0.00, 0.00, 0.00
116, 53035.64, 47517.37, 30622.65, 22840.22, 31399.77, 36067.40, 21018.46, 0.00, 0.00, 0.00, 0.00
117, 53095.20, 47521.17, 30682.75, 22882.13, 31547.16, 36479.50, 20979.35, 0.00, 0.00, 0.00, 0.00
118, 53097.08, 47531.77, 30579.67, 22781.12, 31339.56, 36115.48, 20974.85, 0.00, 0.00, 0.00, 0.00
119, 53052.76, 47535.74, 30566.75, 22783.94, 31285.82, 35822.63, 21021.39, 0.00, 0.00, 0.00, 0.00
120, 53037.43, 47523.96, 30613.11, 22837.02, 31376.10, 36012.95, 21026.80, 0.00, 0.00, 0.00, 0.00
121, 53092.12, 47528.88, 30686.89, 22898.45, 31545.08, 36447.45, 20997.59, 0.00, 0.00, 0.00, 0.00
122, 53115.72, 47536.35, 30603.58, 22807.41, 31388.29, 36230.07, 20968.84, 0.00, 0.00, 0.00, 0.00
123, 53062.35, 47536.84, 30559.88, 22780.16, 31269.66, 35824.61, 21007.13, 0.00, 0.00, 0.00, 0.00
124, 53047.32, 47529.15, 30612.21, 22834.70, 31354.96, 35956.45, 21029.24, 0.00, 0.08, 0.92, 0.39
125, 53085.64, 47526.27, 30674.33, 22898.13, 31516.92, 36370.82, 20999.82, 0.00, 0.00, 0.00, 0.00
126, 53123.99, 47532.86, 30613.11, 22829.22, 31430.15, 36319.37, 20959.52, 0.00, 0.00, 0.00, 0.00
127, 53072.90, 47535.32, 30545.87, 22777.01, 31262.62, 35842.27, 20992.15, 0.00, 0.00, 0.00, 0.00
128, 53045.00, 47519.54, 30589.23, 22819.77, 31333.66, 35914.20, 21007.09, 0.00, 0.00, 0.00, 0.00
129, 53065.23, 47511.34, 30656.40, 22886.04, 31480.84, 36293.18, 20993.76, 0.00, 0.00, 0.00, 0.00
130, 53123.84, 47525.93, 30649.52, 22854.46, 31484.06, 36416.80, 20964.55, 0.00, 0.00, 0.00, 0.00
131, 53079.27, 47532.46, 30551.08, 22773.52, 31267.65, 35895.63, 20995.42, 0.00, 0.00, 0.00, 0.00
132, 53048.58, 47523.03, 30583.18, 22812.84, 31315.37, 35885.30, 21008.72, 0.00, 0.00, 0.00, 0.00
133, 53057.70, 47514.06, 30637.04, 22871.85, 31438.89, 36210.63, 20993.45, 0.00, 0.00, 0.00, 0.00
134, 53123.97, 47522.78, 30660.38, 22866.53, 31511.47, 36464.25, 20969.00, 0.00, 0.08, 0.91, 0.39
135, 53094.89, 47533.31, 30554.48, 22771.96, 31280.77, 35952.69, 20983.46, 0.00, 0.00, 0.00, 0.00
136, 53052.60, 47523.03, 30577.39, 22799.07, 31307.53, 35846.81, 21015.60, 0.00, 0.00, 0.00, 0.00
137, 53051.89, 47512.74, 30624.41, 22857.25, 31411.64, 36116.59, 21012.11, 0.00, 0.00, 0.00, 0.00
138, 53117.27, 47519.49, 30674.24, 22884.38, 31535.14, 36480.04, 20972.93, 0.00, 0.00, 0.00, 0.00
139, 53101.29, 47529.66, 30564.40, 22782.10, 31303.37, 36034.90, 20965.89, 0.00, 0.00, 0.00, 0.00
140, 53054.68, 47524.37, 30568.20, 22791.04, 31282.81, 35819.86, 21002.28, 0.00, 0.00, 0.00, 0.00
141, 53046.01, 47514.67, 30611.54, 22845.07, 31377.91, 36045.41, 21011.62, 0.00, 0.00, 0.00, 0.00
142, 53106.96, 47523.14, 30671.76, 22893.39, 31537.55, 36459.63, 20975.84, 0.00, 0.00, 0.00, 0.00
143, 53114.43, 47533.29, 30571.46, 22791.63, 31340.41, 36134.23, 20956.10, 0.00, 0.00, 0.00, 0.00
144, 53067.58, 47533.29, 30551.50, 22778.62, 31270.83, 35816.05, 20997.25, 0.00, 0.07, 0.90, 0.39
145, 53053.25, 47526.00, 30594.57, 22829.80, 31357.71, 35984.54, 21010.04, 0.00, 0.00, 0.00, 0.00
146, 53099.50, 47527.50, 30665.16, 22891.54, 31525.48, 36413.58, 20984.85, 0.00, 0.00, 0.00, 0.00
147, 53119.39, 47530.04, 30589.21, 22802.18, 31387.86, 36235.29, 20952.32, 0.00, 0.00, 0.00, 0.00
148, 53067.84, 47532.48, 30539.77, 22770.32, 31261.91, 35816.84, 20988.91, 0.00, 0.00, 0.00, 0.00
149, 53047.53, 47522.07, 30585.14, 22823.75, 31343.63, 35936.80, 21010.21, 0.00, 0.00, 0.00, 0.00
150, 53083.13, 47521.57, 30657.56, 22894.40, 31501.41, 36341.72, 20984.53, 0.00, 0.00, 0.00, 0.00
151, 53125.13, 47530.67, 30618.63, 22832.93, 31434.17, 36331.89, 20942.20, 0.00, 0.00, 0.00, 0.00
152, 53074.86, 47537.98, 30532.26, 22776.00, 31246.71, 35846.59, 20980.11, 0.00, 0.00, 0.00, 0.00
153, 53059.42, 47544.57, 30573.68, 22824.57, 31308.89, 35893.28, 20998.88, 0.00, 0.08, 0.90, 0.39
154, 53090.22, 47541.78, 30644.11, 22884.81, 31454.78, 36248.38, 20985.43, 0.00, 0.00, 0.00, 0.00
155, 53118.11, 47508.74, 30643.79, 22844.96, 31481.34, 36396.51, 20946.85, 0.00, 0.00, 0.00, 0.00
156, 53053.90, 47487.55, 30544.28, 22754.43, 31259.67, 35874.68, 20966.20, 0.00, 0.00, 0.00, 0.00
157, 53016.77, 47467.97, 30578.13, 22785.17, 31305.05, 35835.30, 20994.66, 0.00, 0.00, 0.00, 0.00
158, 53010.07, 47437.91, 30633.87, 22836.08, 31429.88, 36138.57, 20994.19, 0.00, 0.00, 0.00, 0.00
159, 53064.02, 47428.03, 30660.31, 22832.84, 31512.03, 36419.04, 20948.17, 0.00, 0.00, 0.00, 0.00
160, 53021.64, 47414.89, 30545.58, 22723.39, 31269.69, 35917.29, 20942.06, 0.00, 0.00, 0.00, 0.00
161, 52972.83, 47399.58, 30568.49, 22744.55, 31280.01, 35783.84, 20978.21, 0.00, 0.00, 0.00, 0.00
162, 52965.16, 47379.41, 30621.62, 22799.29, 31388.62, 36042.88, 20988.98, 0.00, 0.00, 0.00, 0.00
163, 53025.51, 47380.94, 30675.22, 22833.16, 31519.94, 36418.57, 20946.33, 0.00, 0.07, 0.91, 0.39
164, 53007.23, 47384.00, 30559.59, 22725.08, 31288.06, 35998.13, 20927.80, 0.00, 0.00, 0.00, 0.00
165, 52967.55, 47389.32, 30560.06, 22739.14, 31263.14, 35765.76, 20972.48, 0.00, 0.00, 0.00, 0.00
166, 52961.56, 47385.43, 30603.54, 22800.03, 31352.12, 35980.12, 20983.82, 0.00, 0.00, 0.00, 0.00
167, 53020.48, 47392.58, 30671.26, 22847.55, 31510.50, 36403.32, 20947.88, 0.00, 0.00, 0.00, 0.00
168, 53033.49, 47405.01, 30579.06, 22747.21, 31326.48, 36110.43, 20930.84, 0.00, 0.00, 0.00, 0.00
169, 52987.22, 47408.47, 30550.92, 22731.50, 31239.89, 35763.73, 20975.57, 0.00, 0.00, 0.00, 0.00
170, 52977.45, 47402.26, 30589.99, 22783.91, 31320.07, 35918.98, 20989.03, 0.00, 0.00, 0.00, 0.00
171, 53025.98, 47407.00, 30663.11, 22850.84, 31492.02, 36346.13, 20965.42, 0.00, 0.00, 0.00, 0.00
172, 53055.53, 47413.37, 30592.45, 22765.38, 31366.34, 36212.42, 20927.11, 0.00, 0.00, 0.00, 0.00
173, 53007.94, 47417.35, 30536.15, 22727.68, 31222.68, 35776.89, 20964.48, 0.00, 0.07, 0.91, 0.39
174, 52991.27, 47413.50, 30587.24, 22782.10, 31307.21, 35882.93, 20996.09, 0.00, 0.00, 0.00, 0.00
175, 53025.78, 47413.50, 30660.69, 22848.98, 31464.62, 36281.93, 20976.91, 0.00, 0.00, 0.00, 0.00
176, 53074.53, 47424.43, 30627.50, 22792.61, 31416.83, 36310.88, 20933.82, 0.00, 0.00, 0.00, 0.00
177, 53022.96, 47429.19, 30532.79, 22724.48, 31220.31, 35813.66, 20962.16, 0.00, 0.00, 0.00, 0.00
178, 52994.49, 47419.52, 30571.11, 22767.24, 31292.75, 35843.88, 20984.33, 0.00, 0.00, 0.00, 0.00
179, 53008.57, 47411.27, 30632.89, 22829.98, 31429.44, 36187.99, 20965.42, 0.00, 0.00, 0.00, 0.00
180, 53064.70, 47416.43, 30634.65, 22804.88, 31460.04, 36376.57, 20931.31, 0.00, 0.00, 0.00, 0.00
181, 53025.91, 47423.79, 30525.40, 22718.71, 31229.57, 35856.62, 20948.79, 0.00, 0.00, 0.00, 0.00
182, 52996.99, 47419.40, 30562.41, 22758.79, 31277.67, 35799.31, 20975.41, 0.00, 0.00, 0.00, 0.00
183, 52999.67, 47408.85, 30616.32, 22817.69, 31395.82, 36095.32, 20972.37, 0.00, 0.07, 0.91, 0.40
184, 53068.14, 47418.13, 30652.20, 22829.76, 31494.79, 36410.39, 20932.07, 0.00, 0.00, 0.00, 0.00
185, 53041.76, 47423.43, 30536.01, 22726.20, 31249.59, 35926.14, 20938.85, 0.00, 0.00, 0.00, 0.00
186, 53003.00, 47423.05, 30551.32, 22752.15, 31259.92, 35776.92, 20975.90, 0.00, 0.00, 0.00, 0.00
187, 52998.04, 47411.29, 30599.89, 22805.53, 31359.92, 36029.67, 20975.08, 0.00, 0.00, 0.00, 0.00
188, 53062.97, 47415.65, 30658.81, 22838.77, 31505.41, 36420.82, 20937.17, 0.00, 0.00, 0.00, 0.00
189, 53054.99, 47422.15, 30541.74, 22731.86, 31278.85, 36019.72, 20923.78, 0.00, 0.00, 0.00, 0.00
190, 53006.00, 47417.97, 30535.97, 22734.99, 31233.97, 35754.77, 20959.28, 0.00, 0.00, 0.00, 0.00
191, 52996.72, 47410.64, 30575.64, 22782.39, 31319.78, 35938.50, 20973.71, 0.00, 0.00, 0.00, 0.00
192, 53041.05, 47422.31, 30627.12, 22828.82, 31442.06, 36275.74, 20959.56, 0.00, 0.00, 0.00, 0.00
193, 53071.89, 47432.61, 30594.62, 22768.74, 31373.53, 36142.37, 20945.24, 0.00, 0.08, 0.91, 0.39
194, 53034.92, 47421.13, 30556.24, 22735.05, 31284.62, 35839.48, 20959.07, 0.00, 0.00, 0.00, 0.00
195, 52998.84, 47405.68, 30566.30, 22765.88, 31307.86, 35894.11, 20964.42, 0.00, 0.00, 0.00, 0.00
196, 53016.48, 47405.16, 30610.06, 22814.63, 31413.77, 36207.66, 20946.38, 0.00, 0.00, 0.00, 0.00
197, 53059.20, 47417.37, 30596.81, 22774.79, 31389.74, 36195.72, 20914.15, 0.00, 0.00, 0.00, 0.00
198, 53036.95, 47416.83, 30551.39, 22733.62, 31285.58, 35865.59, 20938.58, 0.00, 0.00, 0.00, 0.00
199, 52998.29, 47402.59, 30556.49, 22763.04, 31294.61, 35865.30, 20973.15, 0.00, 0.00, 0.00, 0.00
200, 53006.40, 47403.89, 30598.64, 22821.87, 31395.06, 36154.73, 20970.27, 0.00, 0.00, 0.00, 0.00
201, 53056.71, 47419.05, 30600.07, 22801.62, 31414.48, 36252.92, 20939.09, 0.00, 0.00, 0.00, 0.00
202, 53039.05, 47412.21, 30545.31, 22736.24, 31294.36, 35910.33, 20946.02, 0.00, 0.08, 0.92, 0.40
203, 53002.64, 47399.98, 30546.23, 22753.31, 31288.22, 35837.02, 20971.93, 0.00, 0.00, 0.00, 0.00
204, 52997.06, 47393.12, 30576.69, 22802.87, 31368.82, 36077.52, 20964.13, 0.00, 0.00, 0.00, 0.00
205, 53048.24, 47407.11, 30594.15, 22807.18, 31428.68, 36273.62, 20940.72, 0.00, 0.00, 0.00, 0.00
206, 53044.35, 47407.63, 30546.29, 22739.46, 31313.32, 35958.97, 20943.45, 0.00, 0.00, 0.00, 0.00
207, 53003.58, 47394.97, 30547.99, 22745.54, 31281.96, 35824.28, 20964.17, 0.00, 0.00, 0.00, 0.00
208, 52993.73, 47392.94, 30569.99, 22800.83, 31345.35, 36030.65, 20971.26, 0.00, 0.00, 0.00, 0.00
209, 53044.58, 47408.36, 30608.34, 22826.85, 31442.06, 36300.71, 20957.29, 0.00, 0.00, 0.00, 0.00
210, 53051.39, 47410.60, 30562.05, 22755.53, 31342.35, 36036.40, 20947.23, 0.00, 0.00, 0.00, 0.00
211, 53007.68, 47397.41, 30541.96, 22742.65, 31288.93, 35826.45, 20967.68, 0.00, 0.00, 0.00, 0.00
212, 52981.43, 47387.30, 30561.12, 22785.35, 31331.22, 35969.61, 20970.43, 0.00, 0.08, 0.91, 0.39
213, 53023.90, 47402.15, 30604.63, 22826.63, 31437.19, 36274.51, 20948.57, 0.00, 0.00, 0.00, 0.00
214, 53046.79, 47409.99, 30566.32, 22760.91, 31358.85, 36095.43, 20935.83, 0.00, 0.00, 0.00, 0.00
215, 53013.55, 47397.68, 30534.85, 22736.48, 31282.27, 35833.15, 20956.17, 0.00, 0.00, 0.00, 0.00
216, 52987.69, 47386.57, 30550.99, 22777.28, 31315.37, 35921.24, 20971.32, 0.00, 0.00, 0.00, 0.00
217, 53020.26, 47395.46, 30598.91, 22824.62, 31427.27, 36231.95, 20951.09, 0.00, 0.00, 0.00, 0.00
218, 53053.74, 47403.22, 30576.76, 22771.42, 31379.86, 36142.79, 20932.50, 0.00, 0.00, 0.00, 0.00
219, 53023.77, 47397.01, 30541.13, 22736.93, 31286.41, 35844.20, 20955.07, 0.00, 0.00, 0.00, 0.00
220, 52986.20, 47383.64, 30548.40, 22769.16, 31300.00, 35875.62, 20969.58, 0.00, 0.00, 0.00, 0.00
221, 53008.16, 47388.85, 30591.74, 22823.41, 31403.51, 36174.35, 20958.13, 0.00, 0.00, 0.00, 0.00
222, 53054.72, 47405.12, 30589.41, 22790.46, 31397.85, 36200.23, 20938.73, 0.00, 0.06, 0.91, 0.39
223, 53029.54, 47397.12, 30540.53, 22732.62, 31285.94, 35870.30, 20948.59, 0.00, 0.00, 0.00, 0.00
224, 52993.04, 47383.86, 30540.33, 22754.61, 31282.45, 35840.91, 20965.47, 0.00, 0.00, 0.00, 0.00
225, 52996.41, 47381.72, 30576.34, 22808.10, 31377.91, 36108.08, 20951.23, 0.00, 0.00, 0.00, 0.00
226, 53044.44, 47395.51, 30589.32, 22796.05, 31411.60, 36230.16, 20917.83, 0.00, 0.00, 0.00, 0.00
227, 53033.11, 47395.09, 30543.61, 22736.86, 31303.68, 35907.94, 20942.49, 0.00, 0.00, 0.00, 0.00
228, 52993.73, 47378.57, 30539.79, 22745.94, 31286.23, 35818.22, 20965.27, 0.00, 0.00, 0.00, 0.00
229, 52992.09, 47376.60, 30569.50, 22796.21, 31360.19, 36049.81, 20962.61, 0.00, 0.00, 0.00, 0.00
230, 53044.46, 47391.13, 30595.58, 22803.25, 31426.95, 36262.89, 20936.01, 0.00, 0.00, 0.00, 0.00
231, 53049.18, 47393.92, 30547.03, 22738.52, 31318.28, 35964.36, 20929.81, 0.00, 0.00, 0.00, 0.00
232, 53006.07, 47380.29, 30536.64, 22741.85, 31284.98, 35810.06, 20944.93, 0.00, 0.07, 0.91, 0.39
233, 52982.98, 47368.29, 30560.13, 22782.02, 31345.39, 35991.70, 20959.74, 0.00, 0.00, 0.00, 0.00
234, 53031.10, 47381.74, 30598.64, 22811.32, 31440.30, 36270.38, 20941.46, 0.00, 0.00, 0.00, 0.00
235, 53048.51, 47390.35, 30554.56, 22741.71, 31337.05, 36021.71, 20926.06, 0.00, 0.00, 0.00, 0.00
236, 53012.50, 47373.76, 30535.95, 22717.91, 31271.63, 35795.27, 20936.99, 0.00, 0.00, 0.00, 0.00
237, 52991.58, 47367.43, 30555.82, 22762.61, 31312.31, 35923.07, 20949.53, 0.00, 0.00, 0.00, 0.00
238, 53017.60, 47379.75, 30605.42, 22821.85, 31434.06, 36247.87, 20946.49, 0.00, 0.00, 0.00, 0.00
239, 53043.44, 47393.79, 30569.76, 22766.35, 31369.13, 36097.20, 20933.19, 0.00, 0.00, 0.00, 0.00
240, 53023.99, 47402.89, 30535.79, 22741.58, 31291.39, 35827.68, 20951.88, 0.00, 0.00, 0.00, 0.00
241, 52999.74, 47405.90, 30548.42, 22787.89, 31322.93, 35910.40, 20977.63, 0.00, 0.08, 0.91, 0.39
242, 53026.96, 47416.45, 30600.01, 22842.43, 31435.40, 36228.29, 20977.13, 0.00, 0.00, 0.00, 0.00
243, 53068.29, 47426.78, 30580.07, 22789.77, 31398.41, 36167.69, 20946.96, 0.00, 0.00, 0.00, 0.00
244, 53045.67, 47422.67, 30539.50, 22748.98, 31303.06, 35861.05, 20961.69, 0.00, 0.00, 0.00, 0.00
245, 53007.34, 47403.73, 30538.88, 22772.98, 31309.58, 35874.86, 20974.27, 0.00, 0.00, 0.00, 0.00
246, 53026.67, 47410.11, 30578.91, 22826.34, 31407.64, 36162.17, 20964.62, 0.00, 0.00, 0.00, 0.00
247, 53074.91, 47424.54, 30573.18, 22795.83, 31408.54, 36208.37, 20933.23, 0.00, 0.00, 0.00, 0.00
248, 53054.43, 47421.32, 30531.05, 22747.55, 31302.92, 35886.35, 20944.88, 0.00, 0.00, 0.00, 0.00
249, 53018.61, 47409.55, 30537.67, 22771.22, 31296.98, 35845.34, 20965.76, 0.00, 0.00, 0.00, 0.00
250, 53027.32, 47414.51, 30580.05, 22832.42, 31389.43, 36111.68, 20971.14, 0.00, 0.00, 0.00, 0.00
251, 53080.27, 47433.51, 30597.71, 22827.61, 31433.62, 36262.64, 20947.94, 0.00, 0.07, 0.92, 0.39
252, 53081.70, 47442.74, 30546.94, 22774.10, 31321.10, 35944.29, 20953.15, 0.00, 0.00, 0.00, 0.00
253, 53045.32, 47432.43, 30540.44, 22788.90, 31299.88, 35842.83, 20971.05, 0.00, 0.00, 0.00, 0.00
254, 53037.16, 47429.86, 30573.25, 22842.14, 31365.78, 36061.16, 20966.34, 0.00, 0.00, 0.00, 0.00
255, 53082.66, 47438.20, 30603.52, 22850.17, 31436.70, 36288.30, 20945.77, 0.00, 0.00, 0.00, 0.00
0, 53081.93, 47435.05, 30554.25, 22774.95, 31322.97, 35999.03, 20943.27, 0.00, 0.00, 0.00, 0.00
1, 53034.86, 47412.70, 30532.26, 22764.11, 31281.98, 35824.05, 20962.81, 0.00, 0.00, 0.00, 0.00
2, 53013.71, 47402.19, 30552.53, 22809.46, 31335.49, 35988.68, 20973.11, 0.00, 0.00, 0.00, 0.00
3, 53054.86, 47410.26, 30596.07, 22834.43, 31432.94, 36269.37, 20947.16, 0.00, 0.00, 0.00, 0.00
4, 53064.54, 47408.63, 30547.66, 22757.83, 31336.65, 36039.53, 20929.26, 0.00, 0.00, 0.00, 0.00
5, 53028.59, 47395.78, 30517.80, 22736.93, 31270.29, 35804.97, 20940.30, 0.00, 0.07, 0.91, 0.39
6, 53007.61, 47391.04, 30535.03, 22783.33, 31314.05, 35925.93, 20959.12, 0.00, 0.00, 0.00, 0.00
7, 53045.52, 47404.16, 30582.75, 22830.94, 31426.87, 36242.59, 20945.60, 0.00, 0.00, 0.00, 0.00
8, 53070.32, 47411.71, 30549.27, 22768.00, 31355.65, 36098.94, 20918.46, 0.00, 0.00, 0.00, 0.00
9, 53041.27, 47408.94, 30522.24, 22746.21, 31276.44, 35824.08, 20948.03, 0.00, 0.00, 0.00, 0.00
10, 53014.00, 47398.73, 30536.59, 22785.10, 31307.60, 35888.25, 20975.64, 0.00, 0.00, 0.00, 0.00
11, 53040.49, 47403.45, 30585.66, 22837.00, 31414.57, 36195.77, 20958.65, 0.00, 0.00, 0.00, 0.00
12, 53076.59, 47413.88, 30564.06, 22790.38, 31381.38, 36155.93, 20929.19, 0.00, 0.00, 0.00, 0.00
13, 53051.21, 47410.75, 30523.50, 22747.21, 31279.72, 35841.42, 20948.97, 0.00, 0.00, 0.00, 0.00
14, 53017.71, 47401.52, 30531.07, 22780.92, 31289.63, 35846.14, 20970.32, 0.00, 0.00, 0.00, 0.00
15, 53031.64, 47405.66, 30574.41, 22838.32, 31389.56, 36136.04, 20958.63, 0.00, 0.07, 0.91, 0.40
16, 53080.81, 47419.74, 30577.12, 22814.09, 31399.82, 36207.63, 20929.55, 0.00, 0.00, 0.00, 0.00
17, 53061.41, 47415.45, 30530.98, 22759.15, 31291.19, 35883.38, 20948.14, 0.00, 0.00, 0.00, 0.00
18, 53025.73, 47405.50, 30530.45, 22780.03, 31283.17, 35840.46, 20973.07, 0.00, 0.00, 0.00, 0.00
19, 53031.39, 47408.00, 30567.19, 22839.97, 31371.86, 36107.18, 20978.77, 0.00, 0.00, 0.00, 0.00
20, 53080.12, 47420.63, 30584.14, 22837.98, 31425.66, 36279.99, 20957.31, 0.00, 0.00, 0.00, 0.00
21, 53067.53, 47415.60, 30528.01, 22768.56, 31307.89, 35965.61, 20956.12, 0.00, 0.00, 0.00, 0.00
22, 53017.40, 47393.81, 30516.23, 22765.43, 31275.72, 35838.03, 20968.86, 0.00, 0.00, 0.00, 0.00
23, 53005.59, 47387.42, 30544.44, 22815.23, 31344.25, 36034.05, 20972.82, 0.00, 0.00, 0.00, 0.00
24, 53055.55, 47403.33, 30582.59, 22837.56, 31431.80, 36280.84, 20953.60, 0.00, 0.00, 0.00, 0.00
25, 53060.29, 47407.63, 30531.97, 22762.10, 31320.13, 36002.98, 20946.04, 0.00, 0.07, 0.91, 0.39
26, 53020.08, 47396.27, 30514.58, 22755.55, 31273.96, 35817.02, 20968.86, 0.00, 0.00, 0.00, 0.00
27, 52999.98, 47389.68, 30542.38, 22805.35, 31328.07, 35975.60, 20973.18, 0.00, 0.00, 0.00, 0.00
28, 53043.32, 47401.59, 30578.04, 22838.16, 31426.95, 36265.30, 20948.48, 0.00, 0.00, 0.00, 0.00
29, 53060.18, 47405.93, 30529.98, 22769.70, 31337.23, 36058.28, 20936.34, 0.00, 0.00, 0.00, 0.00
30, 53022.34, 47396.34, 30505.37, 22752.82, 31270.16, 35815.38, 20960.04, 0.00, 0.00, 0.00, 0.00
31, 52997.30, 47387.24, 30529.31, 22794.89, 31312.27, 35922.47, 20986.25, 0.00, 0.00, 0.00, 0.00
32, 53028.04, 47388.20, 30573.88, 22835.90, 31424.41, 36232.73, 20963.23, 0.00, 0.00, 0.00, 0.00
33, 53057.16, 47396.25, 30542.00, 22777.41, 31359.56, 36115.03, 20939.20, 0.00, 0.00, 0.00, 0.00
34, 53023.36, 47389.92, 30504.74, 22745.87, 31264.86, 35823.63, 20954.27, 0.00, 0.08, 0.92, 0.39
35, 52986.84, 47375.50, 30513.97, 22778.44, 31287.50, 35870.70, 20966.09, 0.00, 0.00, 0.00, 0.00
36, 53011.25, 47380.71, 30560.27, 22830.07, 31398.66, 36174.00, 20947.23, 0.00, 0.00, 0.00, 0.00
37, 53053.41, 47393.74, 30551.55, 22791.69, 31384.60, 36164.52, 20927.92, 0.00, 0.00, 0.00, 0.00
38, 53028.35, 47389.79, 30509.04, 22746.54, 31281.44, 35850.34, 20952.03, 0.00, 0.00, 0.00, 0.00
39, 52990.73, 47372.73, 30511.18, 22770.62, 31286.63, 35838.68, 20967.93, 0.00, 0.00, 0.00, 0.00
40, 53001.33, 47374.36, 30554.45, 22826.83, 31386.12, 36113.18, 20957.26, 0.00, 0.00, 0.00, 0.00
41, 53048.58, 47385.45, 30560.33, 22801.97, 31411.08, 36203.52, 20925.72, 0.00, 0.00, 0.00, 0.00
42, 53035.97, 47385.56, 30506.29, 22739.12, 31294.70, 35879.11, 20929.75, 0.00, 0.00, 0.00, 0.00
43, 53004.25, 47377.79, 30510.60, 22761.14, 31282.67, 35807.07, 20955.38, 0.00, 0.00, 0.00, 0.00
44, 53004.05, 47374.36, 30545.31, 22812.95, 31367.90, 36043.77, 20953.53, 0.00, 0.08, 0.92, 0.40
45, 53057.27, 47389.36, 30566.79, 22815.72, 31430.93, 36231.02, 20925.41, 0.00, 0.00, 0.00, 0.00
46, 53055.93, 47393.21, 30515.56, 22752.15, 31313.47, 35924.71, 20926.89, 0.00, 0.00, 0.00, 0.00
47, 53019.34, 47383.17, 30507.92, 22763.37, 31279.90, 35792.99, 20962.58, 0.00, 0.00, 0.00, 0.00
48, 53009.13, 47375.28, 30537.33, 22812.88, 31341.71, 35991.80, 20964.86, 0.00, 0.00, 0.00, 0.00
49, 53058.64, 47387.44, 30572.02, 22831.61, 31428.74, 36248.83, 20932.54, 0.00, 0.00, 0.00, 0.00
50, 53066.35, 47395.26, 30519.72, 22764.67, 31320.76, 35993.44, 20933.73, 0.00, 0.00, 0.00, 0.00
51, 53030.25, 47391.26, 30497.70, 22759.06, 31266.80, 35797.75, 20961.15, 0.00, 0.00, 0.00, 0.00
52, 53009.48, 47382.59, 30516.90, 22802.96, 31313.14, 35934.81, 20962.87, 0.00, 0.00, 0.00, 0.00
53, 53051.48, 47389.30, 30567.22, 22842.57, 31421.72, 36233.20, 20945.35, 0.00, 0.00, 0.00, 0.00
54, 53077.59, 47399.89, 30528.71, 22778.28, 31339.78, 36049.65, 20934.42, 0.00, 0.07, 0.92, 0.39
55, 53040.22, 47393.48, 30494.42, 22756.42, 31267.18, 35798.31, 20959.68, 0.00, 0.00, 0.00, 0.00
56, 53010.02, 47381.92, 30510.53, 22796.86, 31302.19, 35887.71, 20967.59, 0.00, 0.00, 0.00, 0.00
57, 53040.71, 47388.07, 30558.39, 22844.96, 31414.30, 36201.18, 20948.41, 0.00, 0.00, 0.00, 0.00
58, 53074.44, 47398.50, 30530.47, 22792.70, 31362.22, 36110.61, 20929.46, 0.00, 0.00, 0.00, 0.00
59, 53038.41, 47391.91, 30486.33, 22754.16, 31261.89, 35815.50, 20943.54, 0.00, 0.00, 0.00, 0.00
60, 53003.65, 47381.74, 30499.38, 22789.79, 31288.04, 35853.52, 20967.90, 0.00, 0.00, 0.00, 0.00
61, 53024.46, 47385.88, 30550.47, 22841.87, 31401.07, 36150.21, 20959.41, 0.00, 0.00, 0.00, 0.00
62, 53071.33, 47402.06, 30543.97, 22811.01, 31385.34, 36167.65, 20929.17, 0.00, 0.00, 0.00, 0.00
63, 53047.21, 47397.30, 30493.84, 22758.63, 31269.29, 35850.21, 20937.59, 0.00, 0.00, 0.00, 0.00
64, 53011.54, 47384.51, 30496.36, 22783.54, 31272.53, 35822.83, 20962.11, 0.00, 0.07, 0.91, 0.39
65, 53018.11, 47382.41, 30539.01, 22835.88, 31370.40, 36088.90, 20957.60, 0.00, 0.00, 0.00, 0.00
66, 53065.86, 47394.39, 30546.32, 22819.03, 31400.02, 36203.88, 20934.49, 0.00, 0.00, 0.00, 0.00
67, 53048.71, 47392.34, 30488.11, 22756.00, 31278.54, 35882.26, 20939.40, 0.00, 0.00, 0.00, 0.00
68, 53010.80, 47379.82, 30482.79, 22770.23, 31262.51, 35795.29, 20958.56, 0.00, 0.00, 0.00, 0.00
69, 53001.93, 47374.25, 30516.59, 22820.04, 31340.97, 36021.24, 20955.59, 0.00, 0.00, 0.00, 0.00
70, 53057.09, 47393.52, 30544.80, 22833.42, 31411.67, 36229.45, 20935.74, 0.00, 0.00, 0.00, 0.00
71, 53058.05, 47396.00, 30493.54, 22769.68, 31292.96, 35942.25, 20938.62, 0.00, 0.00, 0.00, 0.00
72, 53013.44, 47378.84, 30479.58, 22766.32, 31250.49, 35788.70, 20961.11, 0.00, 0.00, 0.00, 0.00
73, 52997.66, 47366.92, 30506.04, 22807.67, 31317.12, 35959.51, 20964.28, 0.00, 0.00, 0.00, 0.00
74, 53045.09, 47374.30, 30549.83, 22828.21, 31413.43, 36222.41, 20932.18, 0.00, 0.07, 0.91, 0.39
75, 53054.59, 47380.62, 30503.38, 22762.37, 31310.28, 35989.41, 20934.35, 0.00, 0.00, 0.00, 0.00
76, 53012.39, 47369.71, 30480.49, 22755.08, 31257.55, 35784.67, 20962.85, 0.00, 0.00, 0.00, 0.00
77, 52983.11, 47356.48, 30500.77, 22792.65, 31305.14, 35910.78, 20967.77, 0.00, 0.00, 0.00, 0.00
78, 53024.50, 47369.67, 30548.98, 22832.22, 31418.24, 36208.84, 20943.34, 0.00, 0.00, 0.00, 0.00
79, 53052.49, 47381.43, 30507.09, 22772.07, 31338.24, 36046.59, 20922.26, 0.00, 0.00, 0.00, 0.00
80, 53021.15, 47375.79, 30473.38, 22748.08, 31254.98, 35788.92, 20946.96, 0.00, 0.00, 0.00, 0.00
81, 52993.28, 47365.94, 30489.10, 22787.45, 31287.90, 35869.72, 20962.83, 0.00, 0.00, 0.00, 0.00
82, 53026.27, 47376.87, 30542.38, 22841.31, 31408.33, 36181.91, 20952.73, 0.00, 0.00, 0.00, 0.00
83, 53058.59, 47382.48, 30516.59, 22788.59, 31357.95, 36121.27, 20926.48, 0.00, 0.07, 0.91, 0.40
84, 53026.38, 47376.36, 30471.13, 22743.37, 31252.19, 35809.59, 20938.20, 0.00, 0.00, 0.00, 0.00
85, 53000.43, 47371.79, 30484.25, 22774.73, 31272.73, 35819.74, 20952.28, 0.00, 0.00, 0.00, 0.00
86, 53021.71, 47376.09, 30532.15, 22830.99, 31386.68, 36117.04, 20955.63, 0.00, 0.00, 0.00, 0.00
87, 53067.31, 47388.11, 30524.64, 22799.47, 31385.13, 36158.77, 20932.25, 0.00, 0.00, 0.00, 0.00
88, 53046.75, 47387.06, 30474.32, 22747.66, 31267.41, 35842.38, 20948.37, 0.00, 0.00, 0.00, 0.00
89, 53006.91, 47373.70, 30478.28, 22764.31, 31268.23, 35801.59, 20967.90, 0.00, 0.00, 0.00, 0.00
90, 53010.82, 47374.16, 30525.84, 22817.17, 31371.07, 36061.12, 20968.80, 0.00, 0.00, 0.00, 0.00
91, 53057.94, 47386.03, 30541.31, 22809.71, 31412.25, 36201.80, 20943.61, 0.00, 0.00, 0.00, 0.00
92, 53046.39, 47388.65, 30484.69, 22755.37, 31285.98, 35889.43, 20948.88, 0.00, 0.00, 0.00, 0.00
93, 53005.42, 47379.86, 30478.61, 22773.25, 31266.20, 35793.05, 20971.59, 0.00, 0.08, 0.91, 0.39
94, 52996.32, 47376.64, 30513.44, 22822.72, 31345.44, 36012.59, 20971.97, 0.00, 0.00, 0.00, 0.00
95, 53043.68, 47385.27, 30543.30, 22826.14, 31419.85, 36227.41, 20935.22, 0.00, 0.00, 0.00, 0.00
96, 53047.28, 47391.44, 30490.08, 22758.70, 31302.95, 35937.63, 20935.96, 0.00, 0.00, 0.00, 0.00
97, 53003.92, 47377.32, 30477.23, 22753.72, 31259.90, 35773.47, 20958.85, 0.00, 0.00, 0.00, 0.00
98, 52990.71, 47371.57, 30510.35, 22798.31, 31321.19, 35940.11, 20969.80, 0.00, 0.00, 0.00, 0.00
99, 53039.04, 47385.32, 30555.26, 22827.93, 31426.89, 36213.13, 20945.06, 0.00, 0.00, 0.00, 0.00
100, 53054.23, 47392.92, 30501.12, 22761.72, 31330.46, 35993.93, 20939.29, 0.00, 0.00, 0.00, 0.00
101, 53011.30, 47378.30, 30471.86, 22742.83, 31259.09, 35770.21, 20952.77, 0.00, 0.00, 0.00, 0.00
102, 52990.53, 47371.84, 30499.31, 22789.46, 31307.35, 35892.03, 20965.47, 0.00, 0.00, 0.00, 0.00
103, 53024.89, 47376.02, 30546.81, 22831.84, 31421.54, 36199.27, 20942.33, 0.00, 0.08, 0.91, 0.40
104, 53052.82, 47386.61, 30507.38, 22774.42, 31346.06, 36057.36, 20929.01, 0.00, 0.00, 0.00, 0.00
105, 53011.03, 47373.54, 30470.19, 22740.46, 31258.04, 35786.77, 20949.82, 0.00, 0.00, 0.00, 0.00
106, 52979.04, 47363.46, 30489.77, 22780.70, 31288.57, 35852.38, 20971.70, 0.00, 0.00, 0.00, 0.00
107, 53007.36, 47372.44, 30540.21, 22836.35, 31402.70, 36167.02, 20952.32, 0.00, 0.00, 0.00, 0.00
108, 53043.88, 47383.33, 30516.79, 22792.61, 31365.71, 36133.54, 20922.89, 0.00, 0.00, 0.00, 0.00
109, 53012.68, 47376.64, 30468.73, 22749.45, 31262.85, 35823.96, 20954.63, 0.00, 0.00, 0.00, 0.00
110, 52977.39, 47366.52, 30476.47, 22780.81, 31275.99, 35827.83, 20978.38, 0.00, 0.00, 0.00, 0.00
111, 52992.99, 47371.04, 30527.90, 22832.37, 31382.59, 36110.00, 20965.13, 0.00, 0.00, 0.00, 0.00
112, 53037.92, 47382.03, 30528.44, 22802.56, 31385.67, 36174.98, 20931.96, 0.00, 0.00, 0.00, 0.00
113, 53020.71, 47382.66, 30472.15, 22748.08, 31260.05, 35852.09, 20936.70, 0.00, 0.08, 0.91, 0.40
114, 52982.98, 47371.66, 30472.31, 22763.35, 31255.96, 35792.12, 20956.84, 0.00, 0.00, 0.00, 0.00
115, 52984.00, 47369.98, 30517.91, 22815.43, 31356.68, 36043.62, 20956.19, 0.00, 0.00, 0.00, 0.00
116, 53033.87, 47383.42, 30533.00, 22816.23, 31407.80, 36219.01, 20924.96, 0.00, 0.00, 0.00, 0.00
117, 53024.71, 47384.49, 30471.64, 22754.50, 31282.70, 35906.98, 20932.03, 0.00, 0.00, 0.00, 0.00
118, 52985.08, 47375.35, 30465.02, 22767.29, 31254.91, 35797.41, 20963.01, 0.00, 0.00, 0.00, 0.00
119, 52972.70, 47366.30, 30501.77, 22817.58, 31330.71, 36002.54, 20963.05, 0.00, 0.00, 0.00, 0.00
120, 53022.07, 47375.39, 30536.93, 22831.32, 31417.41, 36236.49, 20940.66, 0.00, 0.00, 0.00, 0.00
121, 53025.51, 47377.65, 30480.49, 22762.57, 31299.30, 35963.15, 20940.43, 0.00, 0.00, 0.00, 0.00
122, 52985.73, 47363.59, 30462.30, 22754.63, 31255.70, 35781.92, 20961.96, 0.00, 0.00, 0.00, 0.00
123, 52971.57, 47360.39, 30495.62, 22800.19, 31317.70, 35937.36, 20970.47, 0.00, 0.08, 0.91, 0.39
124, 53016.35, 47373.09, 30541.20, 22834.27, 31422.44, 36230.57, 20940.48, 0.00, 0.00, 0.00, 0.00
125, 53035.86, 47384.73, 30489.72, 22772.16, 31320.69, 36024.77, 20927.07, 0.00, 0.00, 0.00, 0.00
126, 52994.26, 47372.75, 30458.70, 22749.78, 31248.32, 35781.14, 20944.23, 0.00, 0.00, 0.00, 0.00
127, 52967.51, 47364.82, 30476.13, 22789.95, 31288.17, 35885.39, 20953.78, 0.00, 0.00, 0.00, 0.00
128, 53010.38, 47382.93, 30534.31, 22840.89, 31412.54, 36201.53, 20951.07, 0.00, 0.00, 0.00, 0.00
129, 53040.96, 47395.40, 30500.90, 22782.60, 31349.17, 36087.00, 20931.36, 0.00, 0.00, 0.00, 0.00
130, 53012.05, 47392.00, 30463.10, 22750.79, 31255.85, 35802.00, 20947.29, 0.00, 0.00, 0.00, 0.00
131, 52978.50, 47377.05, 30475.22, 22782.10, 31277.62, 35852.84, 20959.97, 0.00, 0.00, 0.00, 0.00
132, 53001.89, 47384.04, 30517.73, 22834.99, 31391.48, 36154.66, 20949.22, 0.00, 0.08, 0.91, 0.39
133, 53046.10, 47397.68, 30500.05, 22796.10, 31369.58, 36147.55, 20926.69, 0.00, 0.00, 0.00, 0.00
134, 53017.57, 47392.47, 30454.07, 22750.83, 31257.42, 35831.95, 20941.82, 0.00, 0.00, 0.00, 0.00
135, 52982.08, 47381.92, 30467.26, 22777.83, 31271.27, 35823.18, 20964.95, 0.00, 0.00, 0.00, 0.00
136, 52994.75, 47383.64, 30519.23, 22831.88, 31382.32, 36107.23, 20965.18, 0.00, 0.00, 0.00, 0.00
137, 53038.48, 47391.84, 30521.89, 22805.66, 31402.21, 36198.45, 20931.65, 0.00, 0.00, 0.00, 0.00
138, 53025.98, 47396.07, 30466.39, 22750.41, 31281.20, 35873.68, 20947.65, 0.00, 0.00, 0.00, 0.00
139, 52983.80, 47380.82, 30462.32, 22762.66, 31269.24, 35801.75, 20970.50, 0.00, 0.00, 0.00, 0.00
140, 52976.27, 47371.91, 30499.56, 22812.61, 31357.95, 36041.52, 20969.36, 0.00, 0.00, 0.00, 0.00
141, 53025.11, 47383.42, 30519.54, 22812.79, 31418.10, 36225.23, 20935.04, 0.00, 0.00, 0.00, 0.00
142, 53019.83, 47388.13, 30457.76, 22748.85, 31287.30, 35921.40, 20931.31, 0.00, 0.08, 0.91, 0.39
143, 52979.76, 47378.05, 30453.33, 22755.37, 31260.12, 35787.62, 20954.89, 0.00, 0.00, 0.00, 0.00
144, 52970.57, 47372.15, 30489.92, 22802.58, 31335.47, 35977.55, 20970.65, 0.00, 0.00, 0.00, 0.00
145, 53018.85, 47382.39, 30530.60, 22822.07, 31425.17, 36229.02, 20942.44, 0.00, 0.00, 0.00, 0.00
146, 53024.73, 47388.31, 30474.84, 22753.83, 31306.77, 35968.49, 20930.57, 0.00, 0.00, 0.00, 0.00
147, 52991.92, 47384.33, 30455.28, 22747.95, 31254.51, 35773.05, 20950.33, 0.00, 0.00, 0.00, 0.00
148, 52969.90, 47374.14, 30478.41, 22789.97, 31304.82, 35917.46, 20952.46, 0.00, 0.00, 0.00, 0.00
149, 53012.93, 47385.03, 30522.36, 22831.93, 31410.39, 36220.87, 20930.15, 0.00, 0.00, 0.00, 0.00
150, 53037.49, 47396.94, 30476.58, 22772.11, 31320.09, 36038.63, 20920.20, 0.00, 0.00, 0.00, 0.00
151, 53000.32, 47388.02, 30445.53, 22745.92, 31247.69, 35786.91, 20942.82, 0.00, 0.00, 0.00, 0.00
152, 52968.11, 47372.66, 30466.32, 22780.18, 31284.57, 35872.96, 20951.21, 0.00, 0.08, 0.91, 0.39
153, 53002.04, 47379.46, 30519.61, 22826.38, 31407.71, 36178.93, 20932.90, 0.00, 0.00, 0.00, 0.00
154, 53037.29, 47393.34, 30488.67, 22776.40, 31350.20, 36091.41, 20907.31, 0.00, 0.00, 0.00, 0.00
155, 53011.03, 47393.81, 30452.08, 22742.90, 31253.91, 35797.61, 20932.77, 0.00, 0.00, 0.00, 0.00
156, 52978.39, 47382.68, 30464.60, 22773.77, 31274.85, 35830.25, 20945.95, 0.00, 0.00, 0.00, 0.00
157, 52996.27, 47385.05, 30513.51, 22829.47, 31384.82, 36132.55, 20934.67, 0.00, 0.00, 0.00, 0.00
158, 53035.73, 47396.02, 30501.84, 22800.21, 31372.53, 36158.93, 20920.20, 0.00, 0.00, 0.00, 0.00
159, 53008.30, 47392.16, 30447.37, 22748.60, 31253.84, 35841.09, 20938.11, 0.00, 0.00, 0.00, 0.00
160, 52972.45, 47376.84, 30462.16, 22769.86, 31265.57, 35812.99, 20958.80, 0.00, 0.00, 0.00, 0.00
161, 52978.93, 47368.84, 30501.70, 22817.84, 31362.42, 36075.11, 20949.93, 0.00, 0.00, 0.00, 0.00
162, 53027.14, 47378.01, 30509.37, 22798.78, 31388.42, 36192.86, 20916.78, 0.00, 0.08, 0.91, 0.40
163, 53015.79, 47380.36, 30456.78, 22740.69, 31265.20, 35873.21, 20927.07, 0.00, 0.00, 0.00, 0.00
164, 52983.38, 47374.72, 30463.21, 22760.54, 31257.71, 35794.29, 20959.54, 0.00, 0.00, 0.00, 0.00
165, 52981.37, 47369.47, 30502.04, 22808.46, 31341.23, 36018.79, 20954.60, 0.00, 0.00, 0.00, 0.00
166, 53031.25, 47380.54, 30526.98, 22811.01, 31404.85, 36214.05, 20917.70, 0.00, 0.00, 0.00, 0.00
167, 53030.14, 47386.50, 30463.93, 22746.99, 31276.01, 35917.20, 20920.76, 0.00, 0.00, 0.00, 0.00
168, 52991.49, 47375.82, 30451.01, 22747.44, 31242.35, 35775.33, 20940.32, 0.00, 0.00, 0.00, 0.00
169, 52981.05, 47370.79, 30487.46, 22798.29, 31312.89, 35957.27, 20948.86, 0.00, 0.00, 0.00, 0.00
170, 53027.97, 47379.28, 30530.16, 22825.67, 31407.75, 36223.95, 20917.52, 0.00, 0.00, 0.00, 0.00
171, 53037.40, 47387.77, 30473.90, 22756.85, 31292.02, 35973.77, 20906.39, 0.00, 0.08, 0.91, 0.40
172, 52999.83, 47383.80, 30451.39, 22746.77, 31232.87, 35763.73, 20935.16, 0.00, 0.00, 0.00, 0.00
173, 52974.28, 47370.88, 30471.44, 22787.07, 31278.14, 35898.31, 20941.35, 0.00, 0.00, 0.00, 0.00
174, 53014.83, 47377.38, 30524.23, 22823.88, 31394.61, 36206.45, 20919.18, 0.00, 0.00, 0.00, 0.00
175, 53037.52, 47388.80, 30485.72, 22765.14, 31315.49, 36045.83, 20907.62, 0.00, 0.00, 0.00, 0.00
176, 53000.93, 47381.83, 30450.43, 22744.49, 31236.25, 35786.24, 20936.01, 0.00, 0.00, 0.00, 0.00
177, 52970.08, 47365.60, 30468.69, 22779.40, 31272.64, 35866.64, 20949.37, 0.00, 0.00, 0.00, 0.00
178, 52997.64, 47364.39, 30518.96, 22826.74, 31388.40, 36171.78, 20926.02, 0.00, 0.00, 0.00, 0.00
179, 53033.82, 47372.24, 30493.37, 22774.28, 31341.99, 36102.16, 20900.27, 0.00, 0.00, 0.00, 0.00
180, 53004.41, 47370.74, 30454.65, 22740.20, 31242.96, 35803.74, 20926.57, 0.00, 0.00, 0.00, 0.00
181, 52971.53, 47359.79, 30471.75, 22774.19, 31266.24, 35828.71, 20949.80, 0.00, 0.09, 0.91, 0.40
182, 52988.41, 47362.47, 30522.18, 22827.30, 31382.21, 36123.61, 20943.43, 0.00, 0.00, 0.00, 0.00
183, 53036.69, 47380.85, 30514.11, 22802.47, 31380.33, 36168.83, 20917.28, 0.00, 0.00, 0.00, 0.00
184, 53022.61, 47389.41, 30462.43, 22759.75, 31264.12, 35854.19, 20938.00, 0.00, 0.00, 0.00, 0.00
185, 52986.80, 47378.39, 30471.75, 22785.68, 31262.74, 35820.37, 20953.93, 0.00, 0.00, 0.00, 0.00
186, 53000.75, 47385.81, 30520.48, 22848.06, 31358.96, 36084.90, 20947.56, 0.00, 0.00, 0.00, 0.00
187, 53055.71, 47404.32, 30528.75, 22842.63, 31397.20, 36224.53, 20911.46, 0.00, 0.00, 0.00, 0.00
188, 53038.88, 47400.02, 30460.91, 22773.81, 31258.20, 35895.85, 20908.65, 0.00, 0.00, 0.00, 0.00
189, 53000.84, 47388.18, 30462.25, 22781.81, 31238.30, 35793.14, 20937.13, 0.00, 0.00, 0.00, 0.00
190, 52993.50, 47379.91, 30498.93, 22825.87, 31317.95, 36010.43, 20940.97, 0.00, 0.00, 0.00, 0.00
191, 53044.20, 47392.58, 30530.58, 22836.51, 31398.37, 36238.48, 20915.02, 0.00, 0.08, 0.91, 0.40
192, 53043.82, 47398.46, 30470.10, 22769.77, 31271.79, 35949.32, 20912.98, 0.00, 0.00, 0.00, 0.00
193, 52999.29, 47380.91, 30452.51, 22765.16, 31229.25, 35776.29, 20931.38, 0.00, 0.00, 0.00, 0.00
194, 52974.64, 47360.93, 30478.53, 22801.75, 31295.39, 35938.70, 20944.10, 0.00, 0.00, 0.00, 0.00
195, 53018.94, 47367.30, 30525.64, 22824.88, 31402.21, 36218.16, 20918.42, 0.00, 0.00, 0.00, 0.00
196, 53031.70, 47373.05, 30473.61, 22760.13, 31295.35, 35991.31, 20909.14, 0.00, 0.00, 0.00, 0.00
197, 52994.15, 47363.68, 30448.78, 22749.22, 31231.06, 35771.75, 20933.39, 0.00, 0.00, 0.00, 0.00
198, 52973.48, 47354.76, 30475.84, 22789.23, 31284.53, 35890.98, 20942.71, 0.00, 0.00, 0.00, 0.00
199, 53014.11, 47362.74, 30527.12, 22834.21, 31402.75, 36202.25, 20919.44, 0.00, 0.00, 0.00, 0.00
200, 53039.46, 47374.50, 30480.13, 22777.54, 31319.40, 36058.23, 20905.03, 0.00, 0.00, 0.00, 0.00
201, 53007.07, 47373.27, 30444.08, 22756.04, 31235.73, 35782.41, 20929.14, 0.00, 0.08, 0.90, 0.39
202, 52976.40, 47363.86, 30463.28, 22793.30, 31268.39, 35850.99, 20949.33, 0.00, 0.00, 0.00, 0.00
203, 53002.78, 47367.17, 30515.70, 22840.67, 31388.24, 36158.55, 20934.73, 0.00, 0.00, 0.00, 0.00
204, 53039.64, 47379.84, 30491.56, 22795.11, 31346.20, 36117.54, 20911.08, 0.00, 0.00, 0.00, 0.00
205, 53008.86, 47380.13, 30441.13, 22757.21, 31234.46, 35806.31, 20933.66, 0.00, 0.00, 0.00, 0.00
206, 52977.52, 47371.23, 30457.25, 22789.26, 31256.10, 35816.30, 20950.67, 0.00, 0.00, 0.00, 0.00
207, 52991.27, 47367.23, 30508.54, 22837.40, 31367.86, 36101.35, 20936.79, 0.00, 0.00, 0.00, 0.00
208, 53038.96, 47379.17, 30508.10, 22808.26, 31373.38, 36165.48, 20905.50, 0.00, 0.00, 0.00, 0.00
209, 53019.88, 47381.92, 30454.00, 22759.26, 31250.02, 35841.54, 20925.68, 0.00, 0.00, 0.00, 0.00
210, 52978.41, 47364.91, 30450.85, 22774.97, 31246.15, 35788.25, 20946.02, 0.00, 0.00, 0.00, 0.00
211, 52979.31, 47358.67, 30491.98, 22824.62, 31338.69, 36039.21, 20936.07, 0.00, 0.07, 0.91, 0.40
212, 53033.02, 47374.61, 30511.40, 22820.44, 31387.99, 36206.16, 20910.53, 0.00, 0.00, 0.00, 0.00
213, 53024.01, 47378.34, 30449.56, 22759.37, 31256.88, 35890.22, 20926.02, 0.00, 0.00, 0.00, 0.00
214, 52982.19, 47366.81, 30447.46, 22771.08, 31239.71, 35776.80, 20952.88, 0.00, 0.00, 0.00, 0.00
215, 52974.44, 47361.29, 30488.18, 22819.39, 31320.58, 35982.29, 20954.09, 0.00, 0.00, 0.00, 0.00
216, 53024.24, 47370.23, 30514.69, 22828.13, 31401.81, 36221.29, 20922.26, 0.00, 0.00, 0.00, 0.00
217, 53027.37, 47378.97, 30452.66, 22762.37, 31271.68, 35936.44, 20916.98, 0.00, 0.00, 0.00, 0.00
218, 52987.07, 47370.27, 30440.37, 22760.38, 31227.04, 35763.26, 20942.98, 0.00, 0.00, 0.00, 0.00
219, 52974.73, 47365.78, 30474.61, 22809.02, 31294.52, 35928.50, 20950.83, 0.00, 0.00, 0.00, 0.00
220, 53017.73, 47367.84, 30516.46, 22837.63, 31406.08, 36224.33, 20916.25, 0.00, 0.08, 0.91, 0.40
221, 53033.04, 47376.31, 30457.83, 22768.74, 31290.07, 36006.29, 20901.54, 0.00, 0.00, 0.00, 0.00
222, 52992.72, 47371.17, 30433.29, 22756.94, 31224.45, 35774.21, 20937.79, 0.00, 0.00, 0.00, 0.00
223, 52970.97, 47364.15, 30462.16, 22800.03, 31278.54, 35889.28, 20950.27, 0.00, 0.00, 0.00, 0.00
224, 53014.83, 47372.84, 30517.37, 22840.55, 31401.50, 36203.77, 20927.24, 0.00, 0.00, 0.00, 0.00
225, 53038.25, 47374.14, 30474.68, 22778.64, 31323.55, 36072.50, 20902.48, 0.00, 0.00, 0.00, 0.00
226, 52997.50, 47364.42, 30436.10, 22748.58, 31223.93, 35787.04, 20923.02, 0.00, 0.00, 0.00, 0.00
227, 52969.30, 47358.92, 30456.98, 22786.17, 31260.43, 35848.35, 20942.76, 0.00, 0.00, 0.00, 0.00
228, 52992.72, 47360.02, 30511.54, 22841.78, 31387.91, 36158.64, 20926.11, 0.00, 0.00, 0.00, 0.00
229, 53037.18, 47374.32, 30488.92, 22800.43, 31349.21, 36139.35, 20894.03, 0.00, 0.00, 0.00, 0.00
230, 53007.43, 47376.13, 30434.94, 22760.56, 31226.57, 35815.92, 20925.55, 0.00, 0.08, 0.91, 0.40
231, 52966.86, 47359.39, 30444.33, 22787.58, 31243.56, 35817.06, 20951.03, 0.00, 0.00, 0.00, 0.00
232, 52986.73, 47363.79, 30498.57, 22843.84, 31362.45, 36109.73, 20943.45, 0.00, 0.00, 0.00, 0.00
233, 53037.69, 47375.55, 30497.23, 22816.53, 31380.98, 36201.80, 20911.08, 0.00, 0.00, 0.00, 0.00
234, 53016.53, 47374.14, 30427.41, 22753.92, 31238.24, 35854.84, 20924.43, 0.00, 0.00, 0.00, 0.00
235, 52984.74, 47365.16, 30436.66, 22779.24, 31241.35, 35789.21, 20952.73, 0.00, 0.00, 0.00, 0.00
236, 52987.11, 47357.31, 30490.75, 22832.13, 31348.83, 36041.32, 20946.78, 0.00, 0.00, 0.00, 0.00
237, 53039.93, 47368.33, 30514.69, 22827.52, 31407.96, 36233.43, 20909.79, 0.00, 0.00, 0.00, 0.00
238, 53029.02, 47374.48, 30443.10, 22764.98, 31252.03, 35908.64, 20912.63, 0.00, 0.00, 0.00, 0.00
239, 52990.71, 47367.95, 30440.93, 22781.48, 31229.10, 35783.78, 20947.85, 0.00, 0.00, 0.00, 0.00
240, 52978.21, 47361.63, 30478.77, 22828.78, 31311.35, 35984.47, 20947.96, 0.00, 0.08, 0.91, 0.40
241, 53021.49, 47362.09, 30516.05, 22839.66, 31405.29, 36243.09, 20907.22, 0.00, 0.00, 0.00, 0.00
242, 53030.43, 47373.78, 30453.45, 22773.95, 31275.92, 35970.15, 20908.67, 0.00, 0.00, 0.00, 0.00
243, 52989.23, 47366.27, 30438.96, 22772.43, 31229.81, 35777.16, 20939.43, 0.00, 0.00, 0.00, 0.00
244, 52969.68, 47354.67, 30471.84, 22815.83, 31293.83, 35929.55, 20942.35, 0.00, 0.00, 0.00, 0.00
245, 53015.12, 47362.32, 30523.00, 22852.49, 31415.31, 36239.38, 20915.29, 0.00, 0.00, 0.00, 0.00
246, 53031.50, 47367.39, 30459.53, 22783.11, 31297.40, 36033.87, 20901.32, 0.00, 0.00, 0.00, 0.00
247, 52998.06, 47365.11, 30428.26, 22766.73, 31219.66, 35770.73, 20929.86, 0.00, 0.00, 0.00, 0.00
248, 52970.32, 47353.38, 30453.51, 22808.14, 31270.71, 35870.21, 20947.45, 0.00, 0.00, 0.00, 0.00
249, 53007.34, 47358.88, 30508.88, 22852.51, 31399.04, 36181.24, 20925.66, 0.00, 0.00, 0.00, 0.00
250, 53038.54, 47365.42, 30464.69, 22792.50, 31325.54, 36075.94, 20899.46, 0.00, 0.07, 0.91, 0.39
251, 53005.46, 47365.07, 30419.45, 22761.36, 31223.11, 35772.98, 20925.72, 0.00, 0.00, 0.00, 0.00
252, 52971.93, 47352.30, 30440.37, 22789.75, 31256.75, 35806.73, 20935.72, 0.00, 0.00, 0.00, 0.00
253, 52995.38, 47351.63, 30497.35, 22840.42, 31381.29, 36114.63, 20920.05, 0.00, 0.00, 0.00, 0.00
254, 53037.00, 47361.47, 30481.86, 22803.72, 31353.82, 36117.80, 20888.84, 0.00, 0.00, 0.00, 0.00
255, 53005.77, 47359.61, 30421.01, 22753.61, 31216.62, 35786.66, 20899.73, 0.00, 0.00, 0.00, 0.00
0, 52967.44, 47348.13, 30431.18, 22777.50, 31228.92, 35770.61, 20926.80, 0.00, 0.00, 0.00, 0.00
1, 52980.92, 47347.74, 30486.53, 22831.93, 31350.13, 36050.43, 20933.10, 0.00, 0.00, 0.00, 0.00
2, 53032.26, 47356.64, 30489.70, 22811.54, 31379.23, 36170.55, 20906.26, 0.00, 0.00, 0.00, 0.00
3, 53017.00, 47365.36, 30424.03, 22758.34, 31234.17, 35837.09, 20919.13, 0.00, 0.00, 0.00, 0.00
4, 52980.29, 47357.73, 30431.47, 22781.75, 31233.19, 35761.38, 20950.13, 0.00, 0.08, 0.90, 0.40
5, 52979.60, 47352.26, 30480.25, 22830.36, 31333.08, 36003.27, 20944.79, 0.00, 0.00, 0.00, 0.00
6, 53031.28, 47361.36, 30504.65, 22825.73, 31402.14, 36213.13, 20904.74, 0.00, 0.00, 0.00, 0.00
7, 53027.43, 47370.54, 30434.11, 22759.95, 31256.07, 35895.94, 20912.96, 0.00, 0.00, 0.00, 0.00
8, 52987.22, 47360.44, 30427.65, 22768.71, 31231.29, 35756.57, 20942.11, 0.00, 0.00, 0.00, 0.00
9, 52972.27, 47349.62, 30462.72, 22810.47, 31310.10, 35948.69, 20937.62, 0.00, 0.00, 0.00, 0.00
10, 53024.26, 47358.63, 30506.71, 22828.66, 31417.03, 36223.53, 20911.49, 0.00, 0.00, 0.00, 0.00
11, 53030.34, 47366.61, 30437.93, 22757.34, 31278.99, 35951.33, 20902.70, 0.00, 0.00, 0.00, 0.00
12, 52992.59, 47363.32, 30419.52, 22754.23, 31228.69, 35743.86, 20934.96, 0.00, 0.00, 0.00, 0.00
13, 52969.83, 47351.39, 30450.63, 22790.80, 31289.69, 35881.63, 20934.26, 0.00, 0.08, 0.91, 0.39
14, 53014.36, 47355.59, 30506.40, 22825.02, 31415.44, 36194.25, 20903.75, 0.00, 0.00, 0.00, 0.00
15, 53037.69, 47367.93, 30450.81, 22756.71, 31308.96, 36004.50, 20893.05, 0.00, 0.00, 0.00, 0.00
16, 53001.86, 47367.55, 30415.20, 22738.29, 31222.48, 35732.70, 20926.96, 0.00, 0.00, 0.00, 0.00
17, 52977.07, 47359.52, 30442.31, 22780.88, 31274.87, 35825.06, 20947.47, 0.00, 0.00, 0.00, 0.00
18, 53010.38, 47358.70, 30501.26, 22826.36, 31410.53, 36147.42, 20916.34, 0.00, 0.00, 0.00, 0.00
19, 53043.01, 47369.69, 30459.57, 22769.97, 31331.96, 36062.30, 20883.75, 0.00, 0.00, 0.00, 0.00
20, 53010.91, 47376.78, 30415.16, 22743.48, 31217.90, 35754.65, 20911.33, 0.00, 0.00, 0.00, 0.00
21, 52977.30, 47364.30, 30437.71, 22774.44, 31251.29, 35790.91, 20928.14, 0.00, 0.00, 0.00, 0.00
22, 52992.72, 47355.66, 30488.36, 22819.74, 31378.63, 36101.33, 20922.30, 0.00, 0.00, 0.00, 0.00
23, 53037.40, 47367.35, 30471.64, 22785.46, 31358.89, 36134.30, 20896.15, 0.00, 0.07, 0.91, 0.39
24, 53016.66, 47377.70, 30414.22, 22743.28, 31224.07, 35800.56, 20920.40, 0.00, 0.00, 0.00, 0.00
25, 52978.30, 47367.32, 30428.90, 22771.44, 31241.10, 35781.32, 20939.63, 0.00, 0.00, 0.00, 0.00
26, 52987.11, 47363.19, 30482.12, 22831.05, 31356.68, 36059.33, 20933.73, 0.00, 0.00, 0.00, 0.00
27, 53042.18, 47375.04, 30487.53, 22812.68, 31392.20, 36198.74, 20900.51, 0.00, 0.00, 0.00, 0.00
28, 53027.86, 47385.99, 30417.39, 22754.28, 31238.35, 35850.81, 20917.46, 0.00, 0.00, 0.00, 0.00
29, 52982.68, 47369.63, 30422.29, 22769.14, 31233.46, 35756.78, 20945.46, 0.00, 0.00, 0.00, 0.00
30, 52975.67, 47358.27, 30468.20, 22820.88, 31333.35, 35986.17, 20936.23, 0.00, 0.00, 0.00, 0.00
31, 53025.73, 47362.81, 30497.23, 22819.97, 31409.54, 36216.35, 20898.95, 0.00, 0.00, 0.00, 0.00
32, 53019.61, 47372.78, 30418.96, 22751.84, 31258.58, 35891.40, 20913.95, 0.00, 0.00, 0.00, 0.00
33, 52977.45, 47362.23, 30412.81, 22759.91, 31230.35, 35740.71, 20943.23, 0.00, 0.08, 0.90, 0.40
34, 52963.93, 47351.07, 30450.88, 22801.21, 31313.90, 35923.84, 20941.77, 0.00, 0.00, 0.00, 0.00
35, 53012.99, 47357.29, 30495.40, 22825.00, 31425.46, 36212.60, 20904.31, 0.00, 0.00, 0.00, 0.00
36, 53022.72, 47368.93, 30421.33, 22756.42, 31278.20, 35947.66, 20894.48, 0.00, 0.00, 0.00, 0.00
37, 52983.31, 47368.98, 30404.74, 22753.20, 31219.44, 35726.29, 20926.69, 0.00, 0.00, 0.00, 0.00
38, 52960.76, 47360.17, 30435.63, 22795.58, 31281.96, 35862.68, 20934.38, 0.00, 0.00, 0.00, 0.00
39, 53004.84, 47366.95, 30491.76, 22837.96, 31414.84, 36193.98, 20907.78, 0.00, 0.00, 0.00, 0.00
40, 53027.41, 47378.07, 30433.31, 22774.13, 31305.20, 36023.75, 20895.68, 0.00, 0.00, 0.00, 0.00
41, 52988.56, 47380.42, 30393.70, 22758.95, 31206.12, 35731.90, 20936.30, 0.00, 0.00, 0.00, 0.00
42, 52959.35, 47367.57, 30424.21, 22798.76, 31254.24, 35813.46, 20946.40, 0.00, 0.00, 0.00, 0.00
43, 53008.19, 47355.05, 30521.93, 22853.67, 31467.70, 36246.91, 20899.69, 0.00, 0.08, 0.91, 0.40
44, 53041.07, 47363.03, 30441.64, 22773.61, 31330.75, 36126.14, 20880.37, 0.00, 0.00, 0.00, 0.00
45, 52977.97, 47382.59, 30353.02, 22746.34, 31130.23, 35663.68, 20941.37, 0.00, 0.00, 0.00, 0.00
46, 52953.65, 47367.03, 30415.76, 22794.78, 31245.05, 35780.61, 20953.33, 0.00, 0.00, 0.00, 0.00
47, 52996.50, 47352.75, 30510.38, 22853.83, 31456.19, 36196.48, 20925.79, 0.00, 0.00, 0.00, 0.00
48, 53043.04, 47349.17, 30458.14, 22783.45, 31386.03, 36206.79, 20872.24, 0.00, 0.00, 0.00, 0.00
49, 52976.88, 47372.31, 30335.88, 22734.58, 31118.34, 35679.55, 20921.23, 0.00, 0.00, 0.00, 0.00
50, 52952.93, 47371.50, 30404.00, 22793.84, 31228.27, 35737.60, 20953.24, 0.00, 0.00, 0.00, 0.00
51, 52981.70, 47358.36, 30497.43, 22853.56, 31418.30, 36114.07, 20931.25, 0.00, 0.00, 0.00, 0.00
52, 53047.71, 47356.26, 30494.78, 22810.63, 31443.11, 36290.76, 20862.89, 0.00, 0.08, 0.91, 0.40
53, 52998.18, 47384.54, 30347.30, 22733.47, 31134.77, 35739.52, 20900.36, 0.00, 0.00, 0.00, 0.00
54, 52964.80, 47382.75, 30401.19, 22779.96, 31207.42, 35704.68, 20942.64, 0.00, 0.00, 0.00, 0.00
55, 52967.82, 47351.97, 30479.22, 22832.51, 31368.62, 36022.70, 20926.33, 0.00, 0.00, 0.00, 0.00
56, 53030.83, 47335.38, 30519.63, 22822.58, 31480.91, 36327.55, 20869.89, 0.00, 0.00, 0.00, 0.00
57, 52986.98, 47349.80, 30355.03, 22722.18, 31153.32, 35799.31, 20888.64, 0.00, 0.00, 0.00, 0.00
58, 52940.84, 47353.46, 30390.30, 22768.49, 31184.13, 35672.55, 20945.77, 0.00, 0.00, 0.00, 0.00
59, 52940.95, 47335.09, 30463.06, 22819.54, 31334.04, 35943.26, 20944.95, 0.00, 0.00, 0.00, 0.00
60, 53012.48, 47326.89, 30531.14, 22835.17, 31505.86, 36332.94, 20884.89, 0.00, 0.00, 0.00, 0.00
61, 52992.21, 47341.95, 30372.89, 22727.57, 31200.91, 35896.54, 20879.46, 0.00, 0.00, 0.00, 0.00
62, 52942.92, 47357.46, 30369.94, 22753.83, 31164.54, 35647.75, 20933.37, 0.00, 0.08, 0.90, 0.40
63, 52938.83, 47340.95, 30435.70, 22800.03, 31290.41, 35861.68, 20927.71, 0.00, 0.00, 0.00, 0.00
64, 53007.85, 47332.99, 30530.11, 22839.39, 31492.89, 36295.57, 20876.80, 0.00, 0.00, 0.00, 0.00
65, 53017.60, 47349.91, 30399.73, 22744.11, 31250.31, 35999.50, 20865.78, 0.00, 0.00, 0.00, 0.00
66, 52955.21, 47366.56, 30358.14, 22746.30, 31127.22, 35628.16, 20923.96, 0.00, 0.00, 0.00, 0.00
67, 52942.92, 47352.88, 30426.00, 22797.39, 31256.75, 35794.91, 20938.20, 0.00, 0.00, 0.00, 0.00
68, 52997.13, 47340.84, 30522.22, 22849.16, 31473.74, 36227.10, 20902.99, 0.00, 0.00, 0.00, 0.00
69, 53027.14, 47345.08, 30425.89, 22760.65, 31313.21, 36091.90, 20854.06, 0.00, 0.00, 0.00, 0.00
70, 52959.17, 47361.64, 30339.61, 22731.68, 31110.14, 35620.30, 20906.37, 0.00, 0.00, 0.00, 0.00
71, 52942.79, 47356.95, 30417.01, 22789.12, 31231.89, 35736.50, 20935.02, 0.00, 0.00, 0.00, 0.00
72, 52989.88, 47352.17, 30515.90, 22854.01, 31441.71, 36158.15, 20921.93, 0.00, 0.08, 0.90, 0.40
73, 53035.95, 47347.21, 30462.30, 22785.99, 31379.70, 36198.58, 20856.39, 0.00, 0.00, 0.00, 0.00
74, 52969.90, 47368.11, 30334.89, 22728.73, 31102.54, 35661.31, 20903.57, 0.00, 0.00, 0.00, 0.00
75, 52947.17, 47367.21, 30403.02, 22783.47, 31207.75, 35709.23, 20944.70, 0.00, 0.00, 0.00, 0.00
76, 52969.21, 47350.52, 30490.10, 22844.13, 31392.35, 36068.32, 20921.95, 0.00, 0.00, 0.00, 0.00
77, 53034.45, 47346.78, 30498.06, 22814.00, 31440.16, 36276.16, 20865.87, 0.00, 0.00, 0.00, 0.00
78, 52980.05, 47366.92, 30349.04, 22731.92, 31123.44, 35725.60, 20898.08, 0.00, 0.00, 0.00, 0.00
79, 52941.31, 47363.10, 30405.10, 22774.33, 31192.73, 35671.24, 20933.59, 0.00, 0.00, 0.00, 0.00
80, 52952.58, 47344.88, 30479.80, 22826.18, 31351.52, 35976.11, 20920.76, 0.00, 0.00, 0.00, 0.00
81, 53027.05, 47336.21, 30527.63, 22824.73, 31482.01, 36315.08, 20862.78, 0.00, 0.00, 0.00, 0.00
82, 52989.35, 47354.88, 30362.45, 22720.75, 31150.82, 35796.18, 20866.78, 0.00, 0.08, 0.91, 0.40
83, 52941.13, 47363.08, 30386.50, 22761.21, 31164.10, 35637.38, 20923.38, 0.00, 0.00, 0.00, 0.00
84, 52943.91, 47347.21, 30456.89, 22814.45, 31311.17, 35895.27, 20931.29, 0.00, 0.00, 0.00, 0.00
85, 53018.94, 47339.50, 30534.52, 22835.79, 31500.78, 36307.64, 20876.39, 0.00, 0.00, 0.00, 0.00
86, 53007.79, 47353.67, 30378.23, 22728.77, 31198.88, 35889.79, 20864.84, 0.00, 0.00, 0.00, 0.00
87, 52955.89, 47368.82, 30369.89, 22754.37, 31146.69, 35618.82, 20936.19, 0.00, 0.00, 0.00, 0.00
88, 52948.69, 47354.32, 30440.53, 22805.66, 31283.03, 35834.54, 20940.90, 0.00, 0.00, 0.00, 0.00
89, 53010.71, 47343.54, 30531.99, 22849.85, 31495.33, 36277.06, 20890.34, 0.00, 0.00, 0.00, 0.00
90, 53017.98, 47352.97, 30397.72, 22747.95, 31257.64, 36011.07, 20862.92, 0.00, 0.00, 0.00, 0.00
91, 52959.37, 47376.04, 30345.15, 22749.22, 31120.62, 35625.64, 20925.57, 0.00, 0.00, 0.00, 0.00
92, 52951.19, 47365.07, 30420.25, 22801.60, 31251.11, 35784.27, 20931.96, 0.00, 0.07, 0.91, 0.40
93, 52999.25, 47348.57, 30520.39, 22852.40, 31467.84, 36216.08, 20895.66, 0.00, 0.00, 0.00, 0.00
94, 53033.33, 47350.52, 30435.61, 22767.38, 31330.86, 36121.54, 20860.12, 0.00, 0.00, 0.00, 0.00
95, 52969.41, 47370.25, 30337.37, 22739.17, 31105.87, 35640.01, 20917.72, 0.00, 0.00, 0.00, 0.00
96, 52951.17, 47364.04, 30409.90, 22793.26, 31225.03, 35740.57, 20939.36, 0.00, 0.00, 0.00, 0.00
97, 52987.94, 47352.75, 30505.30, 22856.20, 31431.31, 36147.42, 20914.28, 0.00, 0.00, 0.00, 0.00
98, 53042.68, 47352.66, 30475.69, 22805.08, 31400.82, 36236.25, 20865.26, 0.00, 0.00, 0.00, 0.00
99, 52977.79, 47371.75, 30333.93, 22742.41, 31110.72, 35685.99, 20912.11, 0.00, 0.00, 0.00, 0.00
100, 52951.41, 47367.43, 30392.02, 22796.65, 31206.03, 35707.98, 20945.06, 0.00, 0.00, 0.00, 0.00
101, 52974.86, 47352.66, 30480.51, 22853.36, 31382.61, 36060.43, 20928.79, 0.00, 0.08, 0.91, 0.41
102, 53037.87, 47341.46, 30496.25, 22821.44, 31442.29, 36296.91, 20862.67, 0.00, 0.00, 0.00, 0.00
103, 52985.68, 47360.42, 30336.14, 22729.96, 31115.73, 35738.40, 20888.84, 0.00, 0.00, 0.00, 0.00
104, 52952.27, 47364.55, 30390.79, 22778.80, 31188.19, 35663.30, 20947.99, 0.00, 0.00, 0.00, 0.00
105, 52962.43, 47349.26, 30466.16, 22836.60, 31346.89, 35964.92, 20945.17, 0.00, 0.00, 0.00, 0.00
106, 53035.05, 47338.45, 30516.99, 22836.98, 31483.66, 36320.00, 20875.50, 0.00, 0.00, 0.00, 0.00
107, 53003.94, 47355.72, 30351.88, 22731.39, 31151.49, 35816.25, 20878.94, 0.00, 0.00, 0.00, 0.00
108, 52954.48, 47362.14, 30367.53, 22763.26, 31157.50, 35621.95, 20932.25, 0.00, 0.00, 0.00, 0.00
109, 52952.69, 47346.34, 30436.68, 22815.68, 31298.45, 35867.75, 20930.42, 0.00, 0.00, 0.00, 0.00
110, 53020.55, 47334.24, 30521.28, 22848.22, 31495.71, 36295.92, 20879.55, 0.00, 0.00, 0.00, 0.00
111, 53005.53, 47343.07, 30365.71, 22739.48, 31202.21, 35910.07, 20865.38, 0.00, 0.08, 0.91, 0.40
112, 52951.37, 47362.20, 30347.45, 22758.43, 31130.08, 35601.99, 20927.47, 0.00, 0.00, 0.00, 0.00
113, 52948.13, 47354.94, 30421.15, 22812.75, 31266.98, 35808.70, 20937.57, 0.00, 0.00, 0.00, 0.00
114, 53005.89, 47339.70, 30515.20, 22855.87, 31484.76, 36258.69, 20884.22, 0.00, 0.00, 0.00, 0.00
115, 53021.58, 47346.09, 30393.70, 22753.25, 31267.61, 36026.56, 20844.43, 0.00, 0.00, 0.00, 0.00
116, 52960.56, 47370.68, 30329.91, 22746.39, 31109.96, 35602.59, 20924.36, 0.00, 0.00, 0.00, 0.00
117, 52948.24, 47360.30, 30404.50, 22807.90, 31248.21, 35757.25, 20956.46, 0.00, 0.00, 0.00, 0.00
118, 52997.08, 47345.42, 30505.79, 22863.67, 31468.75, 36192.99, 20914.62, 0.00, 0.00, 0.00, 0.00
119, 53035.30, 47346.54, 30431.25, 22782.93, 31352.03, 36140.16, 20865.67, 0.00, 0.00, 0.00, 0.00
120, 52969.65, 47369.18, 30321.50, 22742.03, 31104.98, 35626.60, 20919.98, 0.00, 0.00, 0.00, 0.00
121, 52949.40, 47362.74, 30395.38, 22793.30, 31217.94, 35711.80, 20942.09, 0.00, 0.07, 0.91, 0.40
122, 52986.33, 47350.27, 30490.04, 22851.39, 31415.69, 36108.79, 20916.54, 0.00, 0.00, 0.00, 0.00
123, 53053.00, 47355.66, 30473.96, 22807.90, 31406.88, 36237.70, 20864.59, 0.00, 0.00, 0.00, 0.00
124, 53002.62, 47392.47, 30336.14, 22752.20, 31101.38, 35691.11, 20912.76, 0.00, 0.00, 0.00, 0.00
125, 52979.87, 47398.06, 30402.91, 22814.74, 31193.56, 35695.94, 20945.64, 0.00, 0.00, 0.00, 0.00
126, 53003.50, 47388.51, 30492.49, 22880.43, 31373.40, 36047.02, 20930.69, 0.00, 0.00, 0.00, 0.00
127, 53075.13, 47382.07, 30518.91, 22862.55, 31465.91, 36325.70, 20867.59, 0.00, 0.00, 0.00, 0.00
128, 53020.93, 47395.29, 30341.73, 22759.53, 31118.77, 35760.96, 20877.04, 0.00, 0.00, 0.00, 0.00
129, 52976.43, 47394.93, 30383.98, 22799.87, 31168.63, 35648.35, 20930.42, 0.00, 0.00, 0.00, 0.00
130, 52979.54, 47372.38, 30453.31, 22849.90, 31323.55, 35935.43, 20921.54, 0.00, 0.00, 0.00, 0.00
131, 53049.07, 47359.21, 30511.00, 22855.93, 31487.44, 36311.77, 20858.49, 0.00, 0.08, 0.91, 0.40
132, 53014.67, 47367.91, 30337.37, 22740.84, 31156.97, 35820.57, 20862.09, 0.00, 0.00, 0.00, 0.00
133, 52958.43, 47372.82, 30347.70, 22769.72, 31136.72, 35596.56, 20916.90, 0.00, 0.00, 0.00, 0.00
134, 52955.46, 47358.67, 30424.59, 22826.67, 31281.29, 35844.35, 20925.50, 0.00, 0.00, 0.00, 0.00
135, 53024.77, 47348.91, 30513.75, 22861.88, 31494.57, 36283.38, 20880.44, 0.00, 0.00, 0.00, 0.00
136, 53021.64, 47357.09, 30364.53, 22752.33, 31215.91, 35924.71, 20858.89, 0.00, 0.00, 0.00, 0.00
137, 52961.92, 47372.22, 30335.79, 22764.00, 31118.07, 35580.98, 20921.48, 0.00, 0.00, 0.00, 0.00
138, 52954.93, 47362.72, 30413.01, 22823.34, 31257.60, 35777.43, 20935.74, 0.00, 0.00, 0.00, 0.00
139, 53007.63, 47341.42, 30507.31, 22864.36, 31477.02, 36230.66, 20888.46, 0.00, 0.00, 0.00, 0.00
140, 53029.04, 47344.05, 30392.54, 22765.61, 31280.01, 36042.10, 20843.58, 0.00, 0.00, 0.00, 0.00
141, 52959.80, 47362.07, 30314.71, 22745.54, 31093.40, 35591.73, 20907.82, 0.00, 0.08, 0.91, 0.40
142, 52942.86, 47350.22, 30388.34, 22798.53, 31223.11, 35723.99, 20925.28, 0.00, 0.00, 0.00, 0.00
143, 52991.67, 47339.61, 30488.54, 22858.61, 31443.14, 36161.07, 20895.01, 0.00, 0.00, 0.00, 0.00
144, 53042.01, 47346.54, 30430.74, 22789.84, 31358.02, 36164.79, 20849.88, 0.00, 0.00, 0.00, 0.00
145, 52973.72, 47367.88, 30307.27, 22740.46, 31091.01, 35632.14, 20904.51, 0.00, 0.00, 0.00, 0.00
146, 52953.27, 47365.87, 30375.42, 22797.86, 31204.96, 35700.16, 20933.15, 0.00, 0.00, 0.00, 0.00
147, 52980.54, 47348.17, 30468.20, 22853.27, 31401.43, 36083.29, 20912.09, 0.00, 0.00, 0.00, 0.00
148, 53036.33, 47337.82, 30458.74, 22804.72, 31415.06, 36245.79, 20849.97, 0.00, 0.00, 0.00, 0.00
149, 52976.11, 47359.03, 30303.73, 22728.04, 31094.85, 35680.29, 20890.81, 0.00, 0.00, 0.00, 0.00
150, 52945.00, 47363.48, 30366.32, 22788.34, 31181.33, 35658.47, 20934.96, 0.00, 0.08, 0.91, 0.39
151, 52961.59, 47348.50, 30450.12, 22844.33, 31354.69, 35991.54, 20924.94, 0.00, 0.00, 0.00, 0.00
152, 53031.77, 47337.75, 30481.25, 22828.48, 31464.01, 36298.20, 20864.19, 0.00, 0.00, 0.00, 0.00
153, 52988.52, 47357.27, 30310.82, 22732.62, 31126.01, 35756.11, 20882.59, 0.00, 0.00, 0.00, 0.00
154, 52947.64, 47361.87, 30348.79, 22776.20, 31160.72, 35628.77, 20933.17, 0.00, 0.00, 0.00, 0.00
155, 52955.17, 47346.43, 30425.53, 22834.00, 31312.42, 35913.30, 20935.13, 0.00, 0.00, 0.00, 0.00
156, 53026.96, 47334.94, 30499.16, 22851.33, 31492.38, 36319.50, 20877.45, 0.00, 0.00, 0.00, 0.00
157, 53006.27, 47350.85, 30332.32, 22742.45, 31174.47, 35861.23, 20871.90, 0.00, 0.00, 0.00, 0.00
158, 52955.28, 47367.28, 30327.94, 22772.04, 31137.97, 35617.19, 20937.64, 0.00, 0.00, 0.00, 0.00
159, 52954.05, 47355.48, 30404.14, 22825.13, 31277.58, 35844.51, 20939.25, 0.00, 0.00, 0.00, 0.00
160, 53024.62, 47344.88, 30504.97, 22865.54, 31496.76, 36296.08, 20886.27, 0.00, 0.08, 0.91, 0.39
161, 53021.06, 47348.39, 30364.62, 22753.27, 31231.24, 35972.25, 20855.83, 0.00, 0.00, 0.00, 0.00
162, 52960.98, 47367.68, 30323.45, 22755.39, 31110.52, 35597.45, 20920.43, 0.00, 0.00, 0.00, 0.00
163, 52952.53, 47355.59, 30396.83, 22807.90, 31249.44, 35771.42, 20928.34, 0.00, 0.00, 0.00, 0.00
164, 53006.27, 47340.25, 30496.92, 22857.09, 31481.43, 36221.34, 20886.47, 0.00, 0.00, 0.00, 0.00
165, 53031.81, 47341.62, 30393.19, 22761.38, 31308.78, 36073.23, 20844.79, 0.00, 0.00, 0.00, 0.00
166, 52971.20, 47369.34, 30307.94, 22744.15, 31098.52, 35597.57, 20905.52, 0.00, 0.00, 0.00, 0.00
167, 52955.28, 47362.12, 30382.23, 22803.43, 31222.44, 35726.07, 20929.05, 0.00, 0.00, 0.00, 0.00
168, 52995.71, 47347.16, 30478.37, 22860.87, 31434.89, 36144.42, 20892.20, 0.00, 0.00, 0.00, 0.00
169, 53046.97, 47344.97, 30431.03, 22791.45, 31370.20, 36178.49, 20832.07, 0.00, 0.00, 0.00, 0.00
170, 52985.46, 47369.11, 30299.64, 22738.74, 31086.18, 35628.99, 20884.22, 0.00, 0.08, 0.92, 0.40
171, 52964.67, 47368.75, 30370.57, 22799.96, 31195.77, 35686.64, 20918.30, 0.00, 0.00, 0.00, 0.00
172, 52992.86, 47354.36, 30461.65, 22859.96, 31386.90, 36065.72, 20901.45, 0.00, 0.00, 0.00, 0.00
173, 53062.08, 47352.04, 30467.35, 22827.37, 31429.19, 36271.61, 20845.37, 0.00, 0.00, 0.00, 0.00
174, 53002.00, 47369.80, 30298.04, 22741.87, 31098.56, 35702.53, 20880.28, 0.00, 0.00, 0.00, 0.00
175, 52966.35, 47370.59, 30346.29, 22796.63, 31164.95, 35654.12, 20924.14, 0.00, 0.00, 0.00, 0.00
176, 52979.22, 47354.56, 30426.27, 22851.19, 31327.98, 35974.42, 20909.34, 0.00, 0.00, 0.00, 0.00
177, 53054.48, 47348.46, 30473.90, 22850.25, 31463.83, 36316.31, 20852.93, 0.00, 0.00, 0.00, 0.00
178, 53011.14, 47364.37, 30300.09, 22743.08, 31120.98, 35791.69, 20863.41, 0.00, 0.00, 0.00, 0.00
179, 52965.12, 47373.25, 30330.78, 22781.88, 31135.91, 35627.25, 20920.29, 0.00, 0.00, 0.00, 0.00
180, 52974.21, 47363.50, 30409.95, 22839.23, 31286.70, 35889.99, 20917.75, 0.00, 0.07, 0.91, 0.40
181, 53045.29, 47350.74, 30488.45, 22864.67, 31478.01, 36314.41, 20856.50, 0.00, 0.00, 0.00, 0.00
182, 53022.56, 47359.50, 30325.59, 22753.54, 31167.79, 35892.27, 20842.29, 0.00, 0.00, 0.00, 0.00
183, 52964.42, 47369.47, 30317.12, 22769.43, 31111.71, 35605.05, 20907.66, 0.00, 0.00, 0.00, 0.00
184, 52961.72, 47360.59, 30393.57, 22824.37, 31255.74, 35822.49, 20925.43, 0.00, 0.00, 0.00, 0.00
185, 53026.00, 47348.73, 30487.51, 22868.43, 31479.88, 36274.02, 20874.92, 0.00, 0.00, 0.00, 0.00
186, 53034.00, 47354.25, 30350.94, 22762.17, 31236.85, 35993.44, 20844.21, 0.00, 0.00, 0.00, 0.00
187, 52971.46, 47375.37, 30297.10, 22761.14, 31095.48, 35597.59, 20914.37, 0.00, 0.00, 0.00, 0.00
188, 52960.24, 47366.86, 30372.46, 22819.59, 31231.58, 35765.56, 20930.80, 0.00, 0.00, 0.00, 0.00
189, 53011.30, 47350.76, 30474.95, 22871.40, 31455.97, 36208.08, 20883.53, 0.00, 0.00, 0.00, 0.00
190, 53047.15, 47354.98, 30388.20, 22782.10, 31308.74, 36104.50, 20833.90, 0.00, 0.07, 0.90, 0.40
191, 52984.56, 47382.41, 30287.60, 22751.35, 31077.71, 35605.52, 20887.62, 0.00, 0.00, 0.00, 0.00
192, 52970.64, 47379.57, 30365.43, 22810.47, 31196.80, 35707.54, 20918.53, 0.00, 0.00, 0.00, 0.00
193, 53006.98, 47361.56, 30464.26, 22868.27, 31405.45, 36113.22, 20888.76, 0.00, 0.00, 0.00, 0.00
194, 53059.66, 47357.51, 30429.87, 22806.06, 31370.76, 36194.71, 20824.52, 0.00, 0.00, 0.00, 0.00
195, 52994.53, 47376.69, 30281.67, 22739.70, 31076.14, 35645.29, 20873.71, 0.00, 0.00, 0.00, 0.00
196, 52972.52, 47382.25, 30347.03, 22804.46, 31180.55, 35681.70, 20925.41, 0.00, 0.00, 0.00, 0.00
197, 52992.34, 47365.89, 30437.62, 22860.34, 31365.06, 36042.66, 20906.44, 0.00, 0.00, 0.00, 0.00
198, 53053.59, 47351.45, 30451.23, 22827.95, 31423.09, 36279.32, 20840.68, 0.00, 0.00, 0.00, 0.00
199, 52998.20, 47371.48, 30283.73, 22739.99, 31083.34, 35719.00, 20868.55, 0.00, 0.07, 0.91, 0.39
200, 52962.57, 47376.11, 30332.10, 22789.79, 31145.39, 35650.09, 20911.58, 0.00, 0.00, 0.00, 0.00
201, 52972.38, 47355.61, 30409.35, 22843.06, 31310.61, 35950.05, 20904.42, 0.00, 0.00, 0.00, 0.00
202, 53051.06, 47350.87, 30474.95, 22853.47, 31465.71, 36306.63, 20851.52, 0.00, 0.00, 0.00, 0.00
203, 53014.65, 47365.89, 30304.67, 22745.00, 31127.62, 35801.66, 20856.99, 0.00, 0.00, 0.00, 0.00
204, 52964.89, 47372.35, 30317.79, 22776.34, 31121.72, 35613.08, 20908.22, 0.00, 0.00, 0.00, 0.00
205, 52967.71, 47358.23, 30395.85, 22831.84, 31273.33, 35870.57, 20908.56, 0.00, 0.00, 0.00, 0.00
206, 53035.01, 47341.86, 30482.03, 22858.32, 31475.37, 36300.77, 20847.29, 0.00, 0.00, 0.00, 0.00
207, 53025.33, 47356.86, 30330.45, 22751.88, 31188.93, 35905.89, 20837.05, 0.00, 0.00, 0.00, 0.00
208, 52964.78, 47368.89, 30308.25, 22765.88, 31117.27, 35592.94, 20903.39, 0.00, 0.00, 0.00, 0.00
209, 52961.94, 47359.28, 30385.43, 22818.36, 31253.28, 35793.28, 20909.77, 0.00, 0.08, 0.91, 0.40
210, 53021.22, 47345.55, 30487.44, 22866.53, 31469.85, 36245.70, 20860.61, 0.00, 0.00, 0.00, 0.00
211, 53033.96, 47351.52, 30367.04, 22766.79, 31254.91, 36011.70, 20827.33, 0.00, 0.00, 0.00, 0.00
212, 52973.88, 47375.21, 30300.36, 22757.29, 31091.23, 35591.73, 20888.87, 0.00, 0.00, 0.00, 0.00
213, 52960.73, 47364.86, 30374.52, 22811.16, 31221.79, 35737.67, 20907.22, 0.00, 0.00, 0.00, 0.00
214, 53006.31, 47352.93, 30476.69, 22872.14, 31444.39, 36175.05, 20873.98, 0.00, 0.00, 0.00, 0.00
215, 53040.60, 47351.52, 30396.83, 22789.79, 31322.71, 36116.53, 20818.88, 0.00, 0.00, 0.00, 0.00
216, 52971.66, 47371.19, 30284.58, 22747.44, 31077.62, 35603.64, 20873.49, 0.00, 0.00, 0.00, 0.00
217, 52948.96, 47362.96, 30353.47, 22803.18, 31189.51, 35685.30, 20902.86, 0.00, 0.00, 0.00, 0.00
218, 52984.05, 47351.48, 30452.66, 22868.70, 31389.11, 36078.29, 20878.61, 0.00, 0.00, 0.00, 0.00
219, 53042.45, 47351.50, 30429.69, 22817.87, 31379.90, 36199.86, 20823.46, 0.00, 0.08, 0.91, 0.40
220, 52979.36, 47370.00, 30281.18, 22744.66, 31071.63, 35642.85, 20863.59, 0.00, 0.00, 0.00, 0.00
221, 52950.97, 47368.78, 30344.21, 22794.24, 31161.86, 35641.51, 20901.54, 0.00, 0.00, 0.00, 0.00
222, 52971.38, 47355.90, 30429.84, 22852.00, 31339.40, 35980.25, 20891.75, 0.00, 0.00, 0.00, 0.00
223, 53041.56, 47349.71, 30452.26, 22832.66, 31427.40, 36248.94, 20834.15, 0.00, 0.00, 0.00, 0.00
224, 52996.34, 47368.78, 30289.36, 22740.53, 31101.42, 35710.93, 20853.04, 0.00, 0.00, 0.00, 0.00
225, 52955.84, 47368.73, 30334.51, 22779.22, 31149.79, 35612.32, 20905.68, 0.00, 0.00, 0.00, 0.00
226, 52957.67, 47347.23, 30412.43, 22823.41, 31301.40, 35892.56, 20902.46, 0.00, 0.00, 0.00, 0.00
227, 53026.76, 47336.39, 30470.17, 22834.47, 31455.32, 36261.30, 20839.63, 0.00, 0.00, 0.00, 0.00
228, 52996.86, 47352.84, 30303.71, 22730.79, 31138.97, 35796.90, 20836.43, 0.00, 0.00, 0.00, 0.00
229, 52951.37, 47367.03, 30312.96, 22763.15, 31124.58, 35594.17, 20895.91, 0.00, 0.08, 0.91, 0.41
230, 52948.75, 47352.15, 30378.68, 22813.96, 31254.53, 35829.73, 20899.33, 0.00, 0.00, 0.00, 0.00
231, 53021.64, 47351.18, 30469.99, 22852.11, 31457.31, 36257.86, 20856.08, 0.00, 0.00, 0.00, 0.00
232, 53021.38, 47368.46, 30334.78, 22750.01, 31201.02, 35920.26, 20843.87, 0.00, 0.00, 0.00, 0.00
233, 52959.68, 47374.72, 30305.30, 22751.15, 31106.83, 35589.77, 20890.61, 0.00, 0.00, 0.00, 0.00
234, 52949.54, 47360.95, 30370.90, 22798.49, 31229.10, 35763.30, 20896.24, 0.00, 0.00, 0.00, 0.00
235, 53004.77, 47350.87, 30464.78, 22849.23, 31436.72, 36189.80, 20857.84, 0.00, 0.00, 0.00, 0.00
236, 53030.72, 47361.64, 30358.50, 22765.61, 31252.50, 36007.12, 20823.64, 0.00, 0.00, 0.00, 0.00
237, 52975.40, 47384.11, 30287.02, 22750.37, 31081.49, 35583.33, 20875.46, 0.00, 0.00, 0.00, 0.00
238, 52966.12, 47379.06, 30356.89, 22806.76, 31198.18, 35715.92, 20893.83, 0.00, 0.08, 0.91, 0.40
239, 53007.32, 47366.43, 30442.79, 22861.54, 31393.74, 36126.95, 20861.22, 0.00, 0.00, 0.00, 0.00
240, 53055.08, 47376.15, 30387.04, 22795.92, 31314.30, 36116.95, 20816.49, 0.00, 0.00, 0.00, 0.00
241, 52991.71, 47394.14, 30282.39, 22750.99, 31081.06, 35622.89, 20877.67, 0.00, 0.00, 0.00, 0.00
242, 52967.51, 47387.33, 30343.70, 22803.74, 31182.76, 35683.91, 20905.54, 0.00, 0.00, 0.00, 0.00
243, 52992.95, 47371.23, 30429.66, 22862.17, 31363.38, 36047.48, 20878.81, 0.00, 0.00, 0.00, 0.00
244, 53051.59, 47368.02, 30419.25, 22822.31, 31377.11, 36194.87, 20829.10, 0.00, 0.00, 0.00, 0.00
245, 52993.64, 47380.87, 30277.85, 22744.17, 31089.62, 35669.61, 20859.29, 0.00, 0.00, 0.00, 0.00
246, 52961.63, 47376.22, 30326.62, 22786.62, 31163.74, 35646.32, 20896.85, 0.00, 0.00, 0.00, 0.00
247, 52973.68, 47360.46, 30404.67, 22840.67, 31318.73, 35957.14, 20890.12, 0.00, 0.00, 0.00, 0.00
248, 53043.95, 47360.51, 30442.61, 22833.45, 31417.16, 36247.55, 20831.96, 0.00, 0.08, 0.92, 0.39
249, 53007.12, 47382.14, 30284.73, 22741.22, 31110.63, 35748.95, 20847.87, 0.00, 0.00, 0.00, 0.00
250, 52963.33, 47382.70, 30317.35, 22776.11, 31142.26, 35627.07, 20891.19, 0.00, 0.00, 0.00, 0.00
251, 52961.65, 47365.87, 30393.21, 22825.98, 31278.92, 35883.91, 20892.24, 0.00, 0.00, 0.00, 0.00
252, 53028.08, 47356.46, 30461.16, 22843.19, 31441.64, 36254.75, 20839.16, 0.00, 0.00, 0.00, 0.00
253, 53003.00, 47363.55, 30302.57, 22737.40, 31150.40, 35828.55, 20831.96, 0.00, 0.00, 0.00, 0.00
254, 52961.07, 47381.76, 30308.12, 22765.50, 31126.75, 35603.60, 20897.09, 0.00, 0.00, 0.00, 0.00
255, 52963.71, 47376.11, 30376.82, 22822.63, 31253.13, 35820.99, 20903.98, 0.00, 0.00, 0.00, 0.00
0, 53025.09, 47366.63, 30459.37, 22857.56, 31448.75, 36231.84, 20851.45, 0.00, 0.00, 0.00, 0.00
1, 53033.36, 47381.58, 30333.60, 22764.09, 31216.62, 35942.23, 20834.13, 0.00, 0.00, 0.00, 0.00
2, 52980.00, 47397.97, 30293.27, 22766.70, 31106.77, 35605.01, 20888.89, 0.00, 0.08, 0.91, 0.39
3, 52963.84, 47382.34, 30355.14, 22816.01, 31226.10, 35766.16, 20900.40, 0.00, 0.00, 0.00, 0.00
4, 53011.70, 47367.75, 30446.54, 22859.29, 31426.91, 36183.16, 20859.59, 0.00, 0.00, 0.00, 0.00
5, 53037.29, 47373.63, 30360.13, 22771.38, 31272.62, 36045.85, 20821.68, 0.00, 0.00, 0.00, 0.00
6, 52980.81, 47393.07, 30285.79, 22750.57, 31092.33, 35616.12, 20879.95, 0.00, 0.00, 0.00, 0.00
7, 52959.93, 47379.33, 30348.21, 22797.13, 31197.96, 35715.36, 20897.85, 0.00, 0.00, 0.00, 0.00
8, 52993.70, 47364.71, 30438.87, 22855.22, 31388.87, 36104.95, 20865.17, 0.00, 0.00, 0.00, 0.00
9, 53038.54, 47364.21, 30398.28, 22797.24, 31332.07, 36146.23, 20817.77, 0.00, 0.00, 0.00, 0.00
10, 52982.82, 47382.86, 30281.81, 22745.89, 31084.44, 35651.68, 20855.03, 0.00, 0.00, 0.00, 0.00
11, 52960.51, 47379.28, 30339.81, 22797.01, 31174.38, 35686.53, 20880.53, 0.00, 0.00, 0.00, 0.00
12, 52981.25, 47365.42, 30419.52, 22850.75, 31344.86, 36029.45, 20874.61, 0.00, 0.08, 0.91, 0.39
13, 53041.16, 47363.03, 30420.14, 22814.27, 31381.67, 36212.95, 20824.65, 0.00, 0.00, 0.00, 0.00
14, 52990.04, 47378.61, 30276.69, 22733.69, 31093.64, 35696.36, 20855.27, 0.00, 0.00, 0.00, 0.00
15, 52955.21, 47377.00, 30321.95, 22774.10, 31154.91, 35649.89, 20886.32, 0.00, 0.00, 0.00, 0.00
16, 52967.91, 47368.42, 30395.46, 22825.02, 31306.14, 35938.09, 20880.06, 0.00, 0.00, 0.00, 0.00
17, 53030.52, 47358.90, 30435.21, 22821.09, 31424.47, 36245.90, 20827.56, 0.00, 0.00, 0.00, 0.00
18, 52996.18, 47372.53, 30288.04, 22732.35, 31124.18, 35763.41, 20848.16, 0.00, 0.00, 0.00, 0.00
19, 52958.10, 47381.23, 30314.13, 22769.95, 31140.90, 35623.43, 20903.53, 0.00, 0.00, 0.00, 0.00
20, 52951.35, 47358.63, 30363.10, 22810.31, 31262.20, 35853.07, 20885.74, 0.00, 0.00, 0.00, 0.00
21, 53026.92, 47358.27, 30438.29, 22840.17, 31433.57, 36237.63, 20840.99, 0.00, 0.00, 0.00, 0.00
22, 53019.43, 47376.18, 30297.41, 22747.01, 31166.31, 35856.69, 20843.98, 0.00, 0.08, 0.91, 0.40
23, 52967.02, 47385.16, 30289.32, 22764.83, 31120.62, 35604.34, 20895.33, 0.00, 0.00, 0.00, 0.00
24, 52955.08, 47367.84, 30350.94, 22806.47, 31232.96, 35786.44, 20893.31, 0.00, 0.00, 0.00, 0.00
25, 53017.06, 47362.65, 30435.68, 22848.56, 31429.30, 36201.38, 20852.12, 0.00, 0.00, 0.00, 0.00
26, 53027.77, 47371.37, 30315.92, 22753.29, 31214.68, 35950.77, 20828.70, 0.00, 0.00, 0.00, 0.00
27, 52965.05, 47378.30, 30268.33, 22738.70, 31088.55, 35590.04, 20873.38, 0.00, 0.00, 0.00, 0.00
28, 52951.48, 47365.09, 30328.14, 22787.11, 31198.77, 35732.17, 20881.69, 0.00, 0.00, 0.00, 0.00
29, 52998.06, 47356.77, 30418.62, 22843.13, 31396.76, 36139.57, 20853.80, 0.00, 0.00, 0.00, 0.00
30, 53029.64, 47362.56, 30340.12, 22769.99, 31267.77, 36041.16, 20810.97, 0.00, 0.00, 0.00, 0.00
31, 52967.62, 47376.93, 30260.86, 22738.56, 31074.09, 35595.96, 20853.84, 0.00, 0.07, 0.91, 0.40
32, 52948.31, 47369.56, 30316.47, 22785.88, 31181.38, 35681.68, 20885.69, 0.00, 0.00, 0.00, 0.00
33, 52977.43, 47354.20, 30393.43, 22841.04, 31362.69, 36049.81, 20861.75, 0.00, 0.00, 0.00, 0.00
34, 53033.82, 47361.04, 30369.92, 22793.06, 31338.51, 36130.07, 20813.72, 0.00, 0.00, 0.00, 0.00
35, 52976.80, 47379.24, 30248.48, 22733.56, 31080.88, 35638.13, 20854.02, 0.00, 0.00, 0.00, 0.00
36, 52950.90, 47376.49, 30304.18, 22784.61, 31165.64, 35660.66, 20894.14, 0.00, 0.00, 0.00, 0.00
37, 52968.87, 47364.42, 30376.78, 22841.22, 31323.04, 35990.13, 20877.94, 0.00, 0.00, 0.00, 0.00
38, 53029.94, 47362.09, 30390.66, 22822.61, 31380.57, 36211.14, 20825.16, 0.00, 0.00, 0.00, 0.00
39, 52985.88, 47379.39, 30256.84, 22745.76, 31093.64, 35711.14, 20850.51, 0.00, 0.00, 0.00, 0.00
40, 52953.83, 47377.54, 30295.02, 22782.78, 31140.87, 35640.04, 20888.78, 0.00, 0.00, 0.00, 0.00
41, 52957.00, 47361.98, 30363.01, 22833.40, 31278.70, 35912.23, 20890.81, 0.00, 0.07, 0.91, 0.40
42, 53019.88, 47355.79, 30413.01, 22842.48, 31413.34, 36239.44, 20839.29, 0.00, 0.00, 0.00, 0.00
43, 52989.97, 47369.25, 30268.04, 22745.78, 31124.40, 35789.23, 20847.02, 0.00, 0.00, 0.00, 0.00
44, 52947.77, 47374.72, 30280.06, 22768.45, 31130.14, 35621.66, 20897.05, 0.00, 0.00, 0.00, 0.00
45, 52936.93, 47352.21, 30335.18, 22811.72, 31253.01, 35847.97, 20891.82, 0.00, 0.00, 0.00, 0.00
46, 53002.27, 47347.74, 30410.40, 22847.77, 31434.53, 36244.78, 20847.38, 0.00, 0.00, 0.00, 0.00
47, 52993.88, 47355.88, 30275.88, 22744.55, 31179.21, 35891.78, 20836.61, 0.00, 0.00, 0.00, 0.00
48, 52943.91, 47364.37, 30264.37, 22751.97, 31117.45, 35615.34, 20888.84, 0.00, 0.00, 0.00, 0.00
49, 52931.93, 47349.89, 30327.85, 22798.22, 31224.78, 35789.43, 20889.27, 0.00, 0.00, 0.00, 0.00
50, 52992.50, 47348.10, 30413.12, 22850.61, 31411.51, 36201.62, 20856.63, 0.00, 0.00, 0.00, 0.00
51, 53011.70, 47357.04, 30306.75, 22759.24, 31220.45, 35987.22, 20822.68, 0.00, 0.08, 0.91, 0.40
52, 52958.10, 47370.74, 30253.58, 22748.00, 31087.56, 35618.71, 20869.38, 0.00, 0.00, 0.00, 0.00
53, 52935.99, 47355.97, 30310.33, 22796.52, 31191.90, 35746.05, 20879.08, 0.00, 0.00, 0.00, 0.00
54, 52980.56, 47354.05, 30400.70, 22855.78, 31383.95, 36137.72, 20852.46, 0.00, 0.00, 0.00, 0.00
55, 53020.26, 47362.63, 30334.91, 22789.03, 31282.63, 36089.41, 20817.77, 0.00, 0.00, 0.00, 0.00
56, 52961.34, 47372.33, 30245.44, 22750.19, 31079.90, 35637.20, 20863.70, 0.00, 0.00, 0.00, 0.00
57, 52945.49, 47367.48, 30308.54, 22800.68, 31179.59, 35705.82, 20891.19, 0.00, 0.00, 0.00, 0.00
58, 52963.98, 47351.75, 30380.47, 22849.38, 31348.28, 36055.62, 20863.47, 0.00, 0.00, 0.00, 0.00
59, 53020.01, 47355.16, 30358.56, 22802.89, 31340.52, 36162.11, 20815.55, 0.00, 0.00, 0.00, 0.00
60, 52970.17, 47371.14, 30239.43, 22738.63, 31086.89, 35678.79, 20855.07, 0.00, 0.00, 0.00, 0.00
61, 52945.49, 47366.74, 30296.85, 22780.32, 31161.26, 35676.40, 20891.88, 0.00, 0.08, 0.92, 0.40
62, 52961.03, 47354.43, 30365.47, 22833.58, 31310.08, 35977.95, 20880.13, 0.00, 0.00, 0.00, 0.00
63, 53023.30, 47356.84, 30388.18, 22826.81, 31383.53, 36227.93, 20821.48, 0.00, 0.00, 0.00, 0.00
64, 52986.69, 47378.57, 30256.46, 22753.54, 31106.72, 35753.20, 20858.67, 0.00, 0.00, 0.00, 0.00
65, 52961.41, 47389.12, 30301.21, 22802.00, 31158.62, 35661.96, 20909.41, 0.00, 0.00, 0.00, 0.00
66, 52974.15, 47385.90, 30369.04, 22861.32, 31289.94, 35923.16, 20901.25, 0.00, 0.00, 0.00, 0.00
67, 53044.78, 47388.40, 30428.48, 22880.72, 31429.21, 36263.60, 20847.43, 0.00, 0.00, 0.00, 0.00
68, 53018.07, 47397.90, 30284.80, 22780.58, 31150.78, 35832.77, 20842.35, 0.00, 0.00, 0.00, 0.00
69, 52964.02, 47390.86, 30284.69, 22791.16, 31135.02, 35628.81, 20880.98, 0.00, 0.00, 0.00, 0.00
70, 52952.20, 47368.89, 30334.76, 22830.85, 31242.28, 35828.32, 20877.00, 0.00, 0.00, 0.00, 0.00
71, 53007.41, 47359.59, 30404.25, 22858.26, 31416.20, 36213.58, 20827.42, 0.00, 0.09, 0.91, 0.40
72, 53008.48, 47376.11, 30283.73, 22769.79, 31187.41, 35899.43, 20812.85, 0.00, 0.00, 0.00, 0.00
73, 52948.29, 47375.15, 30254.61, 22760.11, 31102.09, 35593.59, 20856.55, 0.00, 0.00, 0.00, 0.00
74, 52937.89, 47361.04, 30305.70, 22797.01, 31202.43, 35744.93, 20862.04, 0.00, 0.00, 0.00, 0.00
75, 52993.48, 47360.24, 30395.44, 22849.83, 31398.59, 36155.15, 20834.24, 0.00, 0.00, 0.00, 0.00
76, 53016.41, 47369.56, 30304.03, 22764.83, 31234.24, 35986.89, 20801.83, 0.00, 0.00, 0.00, 0.00
77, 52959.30, 47383.95, 30246.36, 22747.04, 31089.71, 35599.31, 20852.97, 0.00, 0.00, 0.00, 0.00
78, 52936.48, 47369.29, 30302.68, 22791.47, 31185.85, 35713.23, 20862.54, 0.00, 0.00, 0.00, 0.00
79, 52971.20, 47356.44, 30383.46, 22845.02, 31368.57, 36096.90, 20836.43, 0.00, 0.00, 0.00, 0.00
80, 53010.51, 47359.03, 30329.60, 22789.95, 31293.04, 36095.59, 20798.25, 0.00, 0.08, 0.91, 0.40
81, 52955.44, 47375.21, 30235.14, 22749.25, 31075.92, 35638.98, 20843.98, 0.00, 0.00, 0.00, 0.00
82, 52933.13, 47368.24, 30290.50, 22791.36, 31164.34, 35685.74, 20870.00, 0.00, 0.00, 0.00, 0.00
83, 52957.16, 47357.00, 30361.51, 22848.60, 31325.79, 36028.08, 20851.85, 0.00, 0.00, 0.00, 0.00
84, 53012.70, 47357.36, 30347.86, 22810.69, 31333.99, 36176.92, 20799.15, 0.00, 0.00, 0.00, 0.00
85, 52968.40, 47377.94, 30227.80, 22742.21, 31075.27, 35691.76, 20836.92, 0.00, 0.00, 0.00, 0.00
86, 52943.99, 47376.93, 30281.40, 22783.22, 31144.21, 35665.16, 20869.62, 0.00, 0.00, 0.00, 0.00
87, 52952.04, 47362.12, 30350.43, 22832.40, 31283.99, 35951.19, 20856.61, 0.00, 0.00, 0.00, 0.00
88, 53014.94, 47360.30, 30387.04, 22825.96, 31376.86, 36225.23, 20803.80, 0.00, 0.00, 0.00, 0.00
89, 52975.44, 47371.91, 30244.01, 22734.27, 31096.19, 35753.96, 20817.19, 0.00, 0.00, 0.00, 0.00
90, 52938.68, 47378.59, 30276.62, 22772.72, 31132.54, 35647.43, 20875.32, 0.00, 0.08, 0.91, 0.40
91, 52940.51, 47367.10, 30338.18, 22823.79, 31259.43, 35895.40, 20870.56, 0.00, 0.00, 0.00, 0.00
92, 53002.64, 47357.85, 30391.87, 22838.03, 31409.03, 36243.69, 20813.52, 0.00, 0.00, 0.00, 0.00
93, 52984.38, 47369.18, 30256.46, 22741.29, 31143.02, 35847.97, 20820.16, 0.00, 0.00, 0.00, 0.00
94, 52940.21, 47377.00, 30262.00, 22760.71, 31112.11, 35630.38, 20869.67, 0.00, 0.00, 0.00, 0.00
95, 52933.51, 47365.16, 30308.94, 22808.95, 31221.47, 35822.87, 20871.37, 0.00, 0.00, 0.00, 0.00
96, 52995.34, 47364.98, 30391.17, 22855.75, 31402.95, 36229.79, 20835.27, 0.00, 0.00, 0.00, 0.00
97, 53002.36, 47376.62, 30275.39, 22762.44, 31185.00, 35946.88, 20814.57, 0.00, 0.00, 0.00, 0.00
98, 52948.51, 47380.31, 30241.13, 22758.95, 31093.24, 35617.68, 20856.90, 0.00, 0.00, 0.00, 0.00
99, 52933.60, 47363.93, 30296.94, 22804.10, 31195.63, 35760.89, 20866.78, 0.00, 0.00, 0.00, 0.00
100, 52976.63, 47351.41, 30375.48, 22850.48, 31379.26, 36151.40, 20830.64, 0.00, 0.08, 0.91, 0.40
101, 53012.05, 47367.01, 30300.83, 22779.11, 31244.45, 36024.91, 20803.93, 0.00, 0.00, 0.00, 0.00
102, 52957.61, 47380.85, 30231.98, 22756.73, 31084.39, 35615.49, 20850.36, 0.00, 0.00, 0.00, 0.00
103, 52935.07, 47366.38, 30290.44, 22799.40, 31184.10, 35708.05, 20864.21, 0.00, 0.00, 0.00, 0.00
104, 52969.27, 47359.32, 30375.93, 22853.61, 31364.26, 36078.69, 20842.78, 0.00, 0.00, 0.00, 0.00
105, 53013.93, 47361.56, 30330.78, 22798.58, 31309.67, 36114.11, 20792.40, 0.00, 0.00, 0.00, 0.00
106, 52957.47, 47373.74, 30224.01, 22745.74, 31087.43, 35652.35, 20834.31, 0.00, 0.00, 0.00, 0.00
107, 52933.60, 47366.63, 30277.74, 22787.83, 31170.31, 35680.07, 20863.03, 0.00, 0.00, 0.00, 0.00
108, 52951.77, 47353.64, 30352.08, 22841.36, 31326.17, 36002.27, 20851.85, 0.00, 0.00, 0.00, 0.00
109, 53013.80, 47358.07, 30357.67, 22819.30, 31362.51, 36177.19, 20811.35, 0.00, 0.00, 0.00, 0.00
110, 52971.35, 47377.25, 30231.13, 22751.71, 31101.20, 35697.86, 20843.47, 0.00, 0.08, 0.92, 0.40
111, 52939.28, 47372.17, 30272.96, 22787.29, 31157.91, 35653.22, 20876.93, 0.00, 0.00, 0.00, 0.00
112, 52946.34, 47356.89, 30341.66, 22834.83, 31293.09, 35924.46, 20871.03, 0.00, 0.00, 0.00, 0.00
113, 53013.26, 47357.73, 30385.27, 22838.21, 31401.14, 36213.69, 20818.08, 0.00, 0.00, 0.00, 0.00
114, 52983.31, 47370.45, 30249.60, 22749.92, 31123.78, 35763.48, 20825.63, 0.00, 0.00, 0.00, 0.00
115, 52942.88, 47369.74, 30271.82, 22771.58, 31138.97, 35614.91, 20868.08, 0.00, 0.00, 0.00, 0.00
116, 52940.20, 47355.54, 30330.11, 22815.41, 31253.41, 35840.53, 20866.09, 0.00, 0.00, 0.00, 0.00
117, 53002.02, 47347.79, 30395.62, 22836.96, 31407.93, 36202.80, 20815.40, 0.00, 0.00, 0.00, 0.00
118, 52995.74, 47367.50, 30268.91, 22749.85, 31164.63, 35843.95, 20816.98, 0.00, 0.00, 0.00, 0.00
119, 52950.66, 47375.44, 30258.90, 22768.96, 31126.21, 35611.04, 20870.85, 0.00, 0.09, 0.91, 0.40
120, 52942.65, 47363.21, 30314.28, 22819.14, 31229.41, 35793.37, 20875.88, 0.00, 0.00, 0.00, 0.00
121, 52993.97, 47353.20, 30391.35, 22853.23, 31404.24, 36176.48, 20819.62, 0.00, 0.00, 0.00, 0.00
122, 53003.54, 47360.19, 30281.14, 22761.70, 31202.56, 35934.00, 20796.24, 0.00, 0.00, 0.00, 0.00
123, 52953.83, 47373.05, 30243.34, 22754.77, 31095.50, 35606.46, 20851.07, 0.00, 0.00, 0.00, 0.00
124, 52942.25, 47363.99, 30298.01, 22805.84, 31198.83, 35750.56, 20863.19, 0.00, 0.00, 0.00, 0.00
125, 52988.50, 47359.25, 30385.50, 22862.95, 31381.15, 36140.49, 20831.85, 0.00, 0.00, 0.00, 0.00
126, 53016.64, 47361.31, 30310.28, 22789.68, 31259.34, 36049.68, 20792.69, 0.00, 0.00, 0.00, 0.00
127, 52958.16, 47367.97, 30231.16, 22757.61, 31085.29, 35631.50, 20842.22, 0.00, 0.00, 0.00, 0.00
128, 52936.51, 47353.76, 30287.46, 22795.72, 31177.46, 35704.92, 20857.57, 0.00, 0.00, 0.00, 0.00
129, 52969.59, 47347.34, 30370.05, 22850.77, 31348.54, 36050.86, 20839.92, 0.00, 0.08, 0.91, 0.40
130, 53019.70, 47351.92, 30342.31, 22806.78, 31316.80, 36121.22, 20795.86, 0.00, 0.00, 0.00, 0.00
131, 52965.61, 47361.96, 30230.73, 22748.24, 31082.13, 35652.33, 20830.28, 0.00, 0.00, 0.00, 0.00
132, 52938.25, 47350.56, 30278.19, 22783.94, 31161.57, 35660.73, 20862.11, 0.00, 0.00, 0.00, 0.00
133, 52952.49, 47338.33, 30346.38, 22834.38, 31304.18, 35963.71, 20851.12, 0.00, 0.00, 0.00, 0.00
134, 53010.02, 47337.55, 30356.02, 22810.65, 31356.46, 36163.47, 20795.75, 0.00, 0.00, 0.00, 0.00
135, 52965.77, 47349.02, 30222.93, 22735.59, 31089.22, 35693.10, 20806.10, 0.00, 0.00, 0.00, 0.00
136, 52933.78, 47346.47, 30261.40, 22773.21, 31134.82, 35630.09, 20843.63, 0.00, 0.00, 0.00, 0.00
137, 52938.74, 47334.11, 30327.25, 22818.76, 31264.86, 35890.55, 20853.39, 0.00, 0.00, 0.00, 0.00
138, 53000.32, 47330.31, 30372.49, 22826.09, 31387.64, 36196.21, 20801.70, 0.00, 0.00, 0.00, 0.00
139, 52977.45, 47345.75, 30241.22, 22738.90, 31119.51, 35771.24, 20807.89, 0.00, 0.07, 0.91, 0.40
140, 52939.95, 47347.39, 30258.34, 22766.73, 31122.01, 35612.77, 20852.88, 0.00, 0.00, 0.00, 0.00
141, 52934.29, 47331.63, 30307.18, 22811.43, 31230.41, 35817.91, 20849.91, 0.00, 0.00, 0.00, 0.00
142, 52993.70, 47324.59, 30376.60, 22835.64, 31393.65, 36187.92, 20809.25, 0.00, 0.00, 0.00, 0.00
143, 52990.60, 47335.16, 30254.85, 22746.23, 31158.40, 35855.53, 20800.89, 0.00, 0.00, 0.00, 0.00
144, 52941.58, 47342.74, 30240.61, 22759.08, 31103.97, 35602.33, 20845.48, 0.00, 0.00, 0.00, 0.00
145, 52924.10, 47324.36, 30292.29, 22802.98, 31203.50, 35764.78, 20854.33, 0.00, 0.00, 0.00, 0.00
146, 52975.62, 47316.29, 30372.31, 22847.95, 31381.09, 36153.90, 20817.99, 0.00, 0.00, 0.00, 0.00
147, 52992.50, 47324.39, 30274.05, 22762.99, 31203.30, 35956.49, 20799.30, 0.00, 0.00, 0.00, 0.00
148, 52937.69, 47329.95, 30229.04, 22753.49, 31078.91, 35604.79, 20849.48, 0.00, 0.00, 0.00, 0.00
149, 52924.26, 47318.82, 30290.68, 22797.46, 31177.38, 35726.60, 20862.92, 0.00, 0.08, 0.91, 0.40
150, 52964.18, 47307.02, 30369.92, 22842.68, 31355.52, 36106.83, 20834.69, 0.00, 0.00, 0.00, 0.00
151, 52998.49, 47309.79, 30299.00, 22773.12, 31254.22, 36055.11, 20794.14, 0.00, 0.00, 0.00, 0.00
152, 52950.25, 47329.62, 30218.42, 22762.44, 31067.40, 35625.84, 20838.78, 0.00, 0.00, 0.00, 0.00
153, 52921.20, 47311.89, 30265.13, 22785.84, 31146.08, 35682.01, 20846.20, 0.00, 0.00, 0.00, 0.00
154, 52947.30, 47300.34, 30338.89, 22832.84, 31310.41, 36017.33, 20830.19, 0.00, 0.00, 0.00, 0.00
155, 53008.34, 47309.77, 30328.92, 22795.83, 31309.72, 36120.21, 20797.85, 0.00, 0.00, 0.00, 0.00
156, 52962.12, 47327.83, 30217.28, 22736.35, 31067.49, 35653.27, 20831.51, 0.00, 0.00, 0.00, 0.00
157, 52933.98, 47320.61, 30266.36, 22778.60, 31133.41, 35650.02, 20860.50, 0.00, 0.00, 0.00, 0.00
158, 52946.05, 47306.19, 30321.08, 22829.36, 31273.04, 35941.58, 20845.71, 0.00, 0.00, 0.00, 0.00
159, 53011.07, 47309.72, 30342.94, 22819.59, 31351.25, 36174.84, 20795.77, 0.00, 0.08, 0.91, 0.40
160, 52968.43, 47322.46, 30210.19, 22741.04, 31084.39, 35712.59, 20820.25, 0.00, 0.00, 0.00, 0.00
161, 52932.68, 47319.00, 30249.02, 22769.47, 31124.18, 35622.62, 20858.69, 0.00, 0.00, 0.00, 0.00
162, 52935.93, 47307.29, 30314.84, 22816.88, 31248.32, 35865.92, 20857.71, 0.00, 0.00, 0.00, 0.00
163, 53005.86, 47311.09, 30370.90, 22838.43, 31390.74, 36196.86, 20813.97, 0.00, 0.00, 0.00, 0.00
164, 52983.51, 47321.75, 30231.96, 22744.46, 31125.43, 35792.63, 20816.07, 0.00, 0.00, 0.00, 0.00
165, 52936.51, 47319.74, 30243.63, 22762.68, 31111.75, 35604.00, 20864.46, 0.00, 0.00, 0.00, 0.00
166, 52930.83, 47306.86, 30302.28, 22807.96, 31220.20, 35793.25, 20858.89, 0.00, 0.00, 0.00, 0.00
167, 52997.21, 47308.00, 30377.47, 22842.68, 31390.59, 36173.23, 20814.41, 0.00, 0.00, 0.00, 0.00
168, 52996.16, 47319.34, 30258.43, 22748.87, 31164.48, 35869.43, 20796.73, 0.00, 0.08, 0.91, 0.39
169, 52939.84, 47322.98, 30235.18, 22750.86, 31086.11, 35583.75, 20841.88, 0.00, 0.00, 0.00, 0.00
170, 52924.08, 47304.16, 30287.64, 22792.54, 31189.02, 35735.36, 20856.48, 0.00, 0.00, 0.00, 0.00
171, 52973.59, 47299.80, 30371.08, 22845.54, 31384.37, 36124.80, 20829.99, 0.00, 0.00, 0.00, 0.00
172, 52995.67, 47308.89, 30279.53, 22761.43, 31220.54, 35956.09, 20793.87, 0.00, 0.00, 0.00, 0.00
173, 52941.74, 47322.08, 30225.35, 22745.00, 31075.92, 35587.78, 20843.36, 0.00, 0.00, 0.00, 0.00
174, 52922.45, 47309.52, 30275.30, 22789.03, 31168.17, 35698.66, 20859.23, 0.00, 0.00, 0.00, 0.00
175, 52965.45, 47308.00, 30356.44, 22850.28, 31347.81, 36069.75, 20832.92, 0.00, 0.00, 0.00, 0.00
176, 53008.23, 47315.80, 30306.44, 22794.06, 31274.18, 36062.93, 20793.00, 0.00, 0.00, 0.00, 0.00
177, 52953.14, 47328.77, 30210.30, 22750.86, 31064.97, 35618.98, 20829.59, 0.00, 0.00, 0.00, 0.00
178, 52929.84, 47318.35, 30265.20, 22792.54, 31152.92, 35668.11, 20854.56, 0.00, 0.08, 0.91, 0.40
179, 52949.74, 47302.75, 30332.30, 22844.06, 31315.66, 35992.97, 20835.83, 0.00, 0.00, 0.00, 0.00
180, 53005.46, 47304.20, 30323.18, 22811.70, 31327.47, 36126.63, 20784.13, 0.00, 0.00, 0.00, 0.00
181, 52959.84, 47320.99, 30201.77, 22745.49, 31069.84, 35655.77, 20821.05, 0.00, 0.00, 0.00, 0.00
182, 52931.23, 47315.47, 30250.45, 22783.94, 31132.98, 35633.39, 20857.39, 0.00, 0.00, 0.00, 0.00
183, 52938.41, 47299.96, 30319.02, 22834.00, 31269.02, 35916.70, 20851.96, 0.00, 0.00, 0.00, 0.00
184, 52998.53, 47295.20, 30346.67, 22825.78, 31360.46, 36180.50, 20799.42, 0.00, 0.00, 0.00, 0.00
185, 52959.19, 47307.93, 30213.10, 22739.97, 31088.28, 35724.03, 20815.24, 0.00, 0.00, 0.00, 0.00
186, 52922.71, 47309.95, 30248.57, 22771.38, 31123.28, 35614.29, 20855.25, 0.00, 0.00, 0.00, 0.00
187, 52921.24, 47297.05, 30304.34, 22820.13, 31245.03, 35849.63, 20860.03, 0.00, 0.00, 0.00, 0.00
188, 52982.75, 47291.51, 30355.86, 22836.84, 31386.01, 36192.12, 20810.66, 0.00, 0.08, 0.92, 0.40
189, 52970.23, 47308.67, 30224.34, 22747.64, 31118.01, 35803.94, 20808.54, 0.00, 0.00, 0.00, 0.00
190, 52924.10, 47312.38, 30232.74, 22762.77, 31097.76, 35588.71, 20855.88, 0.00, 0.00, 0.00, 0.00
191, 52919.00, 47301.41, 30292.51, 22809.53, 31212.11, 35772.85, 20855.03, 0.00, 0.00, 0.00, 0.00
192, 52982.89, 47303.73, 30371.17, 22851.17, 31388.64, 36156.18, 20810.35, 0.00, 0.00, 0.00, 0.00
193, 52993.26, 47319.96, 30256.97, 22764.49, 31170.36, 35883.63, 20793.22, 0.00, 0.00, 0.00, 0.00
194, 52939.37, 47326.98, 30220.25, 22761.56, 31080.32, 35566.56, 20839.80, 0.00, 0.00, 0.00, 0.00
195, 52917.98, 47308.00, 30270.63, 22798.02, 31176.41, 35701.03, 20838.80, 0.00, 0.00, 0.00, 0.00
196, 52965.74, 47302.91, 30358.41, 22851.04, 31364.26, 36092.61, 20807.75, 0.00, 0.00, 0.00, 0.00
197, 52986.55, 47306.53, 30271.88, 22770.28, 31225.36, 35966.59, 20770.56, 0.00, 0.00, 0.00, 0.00
198, 52928.95, 47316.54, 30197.14, 22742.74, 31060.70, 35571.82, 20816.09, 0.00, 0.08, 0.91, 0.39
199, 52917.38, 47309.79, 30262.12, 22790.93, 31161.37, 35664.80, 20843.85, 0.00, 0.00, 0.00, 0.00
200, 52960.02, 47307.36, 30353.29, 22852.85, 31343.47, 36036.35, 20837.95, 0.00, 0.00, 0.00, 0.00
201, 53006.31, 47311.87, 30307.31, 22798.76, 31285.20, 36066.59, 20796.76, 0.00, 0.00, 0.00, 0.00
202, 52948.82, 47324.23, 30199.35, 22747.06, 31055.31, 35605.79, 20821.92, 0.00, 0.00, 0.00, 0.00
203, 52922.94, 47312.59, 30249.13, 22786.42, 31142.60, 35638.34, 20845.66, 0.00, 0.00, 0.00, 0.00
204, 52938.50, 47296.58, 30319.04, 22832.71, 31297.49, 35955.57, 20832.23, 0.00, 0.00, 0.00, 0.00
205, 52992.92, 47295.60, 30319.13, 22801.95, 31325.28, 36122.12, 20777.69, 0.00, 0.00, 0.00, 0.00
206, 52943.68, 47306.46, 30192.36, 22731.68, 31061.26, 35642.07, 20808.65, 0.00, 0.00, 0.00, 0.00
207, 52913.08, 47303.18, 30236.68, 22769.52, 31121.12, 35596.29, 20847.61, 0.00, 0.00, 0.00, 0.00
208, 52921.64, 47293.14, 30305.75, 22822.16, 31256.66, 35868.47, 20839.56, 0.00, 0.07, 0.91, 0.39
209, 52982.19, 47288.15, 30344.46, 22820.95, 31364.88, 36153.59, 20786.03, 0.00, 0.00, 0.00, 0.00
210, 52945.76, 47297.34, 30201.97, 22730.29, 31085.58, 35707.80, 20800.87, 0.00, 0.00, 0.00, 0.00
211, 52902.75, 47295.64, 30221.61, 22756.89, 31098.34, 35568.42, 20839.11, 0.00, 0.00, 0.00, 0.00
212, 52902.31, 47283.13, 30287.64, 22803.54, 31217.59, 35789.41, 20841.62, 0.00, 0.00, 0.00, 0.00
213, 52969.74, 47282.34, 30357.11, 22826.29, 31378.52, 36151.57, 20794.59, 0.00, 0.00, 0.00, 0.00
214, 52964.20, 47301.95, 30226.87, 22735.41, 31124.27, 35789.54, 20793.18, 0.00, 0.00, 0.00, 0.00
215, 52921.17, 47314.57, 30221.97, 22760.63, 31088.46, 35561.07, 20852.63, 0.00, 0.00, 0.00, 0.00
216, 52905.19, 47295.15, 30268.02, 22799.52, 31192.78, 35738.40, 20848.88, 0.00, 0.00, 0.00, 0.00
217, 52966.39, 47293.07, 30350.07, 22838.47, 31381.98, 36133.85, 20808.49, 0.00, 0.08, 0.91, 0.39
218, 52972.98, 47297.54, 30238.69, 22745.67, 31179.36, 35896.03, 20780.13, 0.00, 0.00, 0.00, 0.00
219, 52916.14, 47306.21, 30194.14, 22740.73, 31068.28, 35566.96, 20835.49, 0.00, 0.00, 0.00, 0.00
220, 52899.63, 47291.82, 30244.97, 22784.99, 31167.18, 35694.57, 20846.26, 0.00, 0.00, 0.00, 0.00
221, 52948.53, 47288.00, 30334.31, 22843.57, 31358.67, 36079.89, 20817.81, 0.00, 0.00, 0.00, 0.00
222, 52982.71, 47297.83, 30266.59, 22772.16, 31242.44, 35991.87, 20788.20, 0.00, 0.00, 0.00, 0.00
223, 52923.72, 47309.61, 30183.97, 22739.10, 31056.32, 35573.76, 20835.42, 0.00, 0.00, 0.00, 0.00
224, 52903.76, 47300.85, 30239.25, 22784.25, 31155.20, 35649.78, 20856.12, 0.00, 0.00, 0.00, 0.00
225, 52937.85, 47294.12, 30322.51, 22841.76, 31334.02, 36003.23, 20836.21, 0.00, 0.00, 0.00, 0.00
226, 52988.38, 47297.09, 30288.71, 22793.73, 31293.58, 36070.86, 20783.97, 0.00, 0.00, 0.00, 0.00
227, 52936.64, 47312.20, 30174.65, 22741.49, 31047.22, 35606.06, 20820.38, 0.00, 0.08, 0.91, 0.40
228, 52916.23, 47311.55, 30227.63, 22790.13, 31122.81, 35625.30, 20845.93, 0.00, 0.00, 0.00, 0.00
229, 52933.98, 47300.74, 30305.46, 22843.68, 31278.14, 35939.84, 20842.22, 0.00, 0.00, 0.00, 0.00
230, 52986.73, 47289.25, 30312.12, 22810.13, 31336.65, 36138.19, 20788.15, 0.00, 0.00, 0.00, 0.00
231, 52943.37, 47306.39, 30174.70, 22733.67, 31058.44, 35654.99, 20808.65, 0.00, 0.00, 0.00, 0.00
232, 52916.95, 47312.74, 30221.44, 22779.58, 31111.95, 35590.19, 20848.03, 0.00, 0.00, 0.00, 0.00
233, 52923.68, 47300.04, 30288.20, 22828.10, 31248.72, 35855.28, 20840.30, 0.00, 0.00, 0.00, 0.00
234, 52988.52, 47297.03, 30339.32, 22830.50, 31378.72, 36176.25, 20794.23, 0.00, 0.00, 0.00, 0.00
235, 52958.19, 47310.73, 30199.33, 22740.69, 31103.66, 35747.32, 20803.48, 0.00, 0.00, 0.00, 0.00
236, 52915.54, 47313.57, 30216.29, 22765.65, 31111.88, 35574.12, 20860.70, 0.00, 0.00, 0.00, 0.00
237, 52910.09, 47298.95, 30266.63, 22801.77, 31221.43, 35779.42, 20848.16, 0.00, 0.08, 0.91, 0.40
238, 52972.27, 47293.83, 30334.85, 22829.36, 31384.93, 36160.29, 20797.52, 0.00, 0.00, 0.00, 0.00
239, 52969.48, 47306.91, 30210.66, 22739.52, 31139.02, 35824.32, 20792.93, 0.00, 0.00, 0.00, 0.00
240, 52925.35, 47318.26, 30199.42, 22756.85, 31087.10, 35562.99, 20844.23, 0.00, 0.00, 0.00, 0.00
241, 52911.63, 47300.80, 30255.86, 22801.82, 31193.38, 35734.22, 20846.58, 0.00, 0.00, 0.00, 0.00
242, 52965.86, 47294.90, 30337.78, 22848.64, 31382.81, 36133.56, 20802.41, 0.00, 0.00, 0.00, 0.00
243, 52982.17, 47306.32, 30238.24, 22764.65, 31196.89, 35931.95, 20776.30, 0.00, 0.00, 0.00, 0.00
244, 52930.18, 47324.09, 30189.36, 22753.72, 31063.98, 35567.19, 20830.95, 0.00, 0.00, 0.00, 0.00
245, 52916.30, 47313.12, 30249.08, 22800.25, 31173.02, 35688.49, 20851.94, 0.00, 0.00, 0.00, 0.00
246, 52953.02, 47296.34, 30330.04, 22846.41, 31358.04, 36069.46, 20811.80, 0.00, 0.00, 0.00, 0.00
247, 52991.83, 47303.18, 30267.79, 22779.42, 31254.38, 36020.26, 20770.89, 0.00, 0.09, 0.91, 0.40
248, 52932.59, 47314.48, 30182.95, 22740.35, 31053.57, 35587.66, 20817.83, 0.00, 0.00, 0.00, 0.00
249, 52910.80, 47305.34, 30240.81, 22787.02, 31142.33, 35653.29, 20844.92, 0.00, 0.00, 0.00, 0.00
250, 52937.49, 47295.46, 30316.03, 22844.00, 31315.17, 35993.93, 20831.38, 0.00, 0.00, 0.00, 0.00
251, 52989.23, 47294.08, 30293.90, 22799.99, 31307.69, 36090.04, 20779.66, 0.00, 0.00, 0.00, 0.00
252, 52937.67, 47308.25, 30175.55, 22735.81, 31059.40, 35606.95, 20813.99, 0.00, 0.00, 0.00, 0.00
253, 52903.67, 47295.42, 30220.47, 22767.51, 31129.12, 35602.66, 20840.83, 0.00, 0.00, 0.00, 0.00
254, 52915.03, 47278.70, 30287.60, 22815.68, 31273.73, 35905.17, 20823.02, 0.00, 0.00, 0.00, 0.00
255, 52975.31, 47276.51, 30312.83, 22800.77, 31350.67, 36139.75, 20763.47, 0.00, 0.00, 0.00, 0.00
0, 52935.95, 47293.68, 30173.92, 22719.25, 31069.26, 35656.13, 20791.62, 0.00, 0.00, 0.00, 0.00
1, 52900.86, 47293.05, 30213.05, 22752.49, 31112.69, 35559.05, 20847.00, 0.00, 0.08, 0.91, 0.40
2, 52905.39, 47281.56, 30277.18, 22800.19, 31244.29, 35808.21, 20841.12, 0.00, 0.00, 0.00, 0.00
3, 52973.95, 47282.75, 30334.76, 22820.10, 31392.31, 36151.80, 20789.76, 0.00, 0.00, 0.00, 0.00
4, 52944.89, 47290.28, 30193.34, 22719.81, 31111.04, 35734.76, 20788.71, 0.00, 0.00, 0.00, 0.00
5, 52901.75, 47294.81, 30205.99, 22740.17, 31094.47, 35549.49, 20835.29, 0.00, 0.00, 0.00, 0.00
6, 52896.86, 47281.34, 30260.33, 22783.04, 31210.10, 35751.93, 20830.33, 0.00, 0.00, 0.00, 0.00
7, 52964.78, 47282.95, 30333.30, 22822.65, 31386.61, 36137.47, 20789.31, 0.00, 0.00, 0.00, 0.00
8, 52971.71, 47303.06, 30212.25, 22730.27, 31155.22, 35829.20, 20783.95, 0.00, 0.00, 0.00, 0.00
9, 52913.42, 47300.49, 30183.97, 22732.06, 31074.60, 35538.87, 20829.99, 0.00, 0.00, 0.00, 0.00
10, 52895.98, 47276.15, 30235.99, 22774.39, 31177.42, 35696.16, 20835.02, 0.00, 0.09, 0.91, 0.40
11, 52939.39, 47262.16, 30314.91, 22817.62, 31366.60, 36092.34, 20793.78, 0.00, 0.00, 0.00, 0.00
12, 52964.98, 47278.50, 30219.49, 22742.70, 31200.51, 35924.35, 20759.58, 0.00, 0.00, 0.00, 0.00
13, 52911.00, 47298.61, 30162.56, 22734.72, 31057.66, 35540.34, 20814.26, 0.00, 0.00, 0.00, 0.00
14, 52889.41, 47283.39, 30219.36, 22776.07, 31158.20, 35655.46, 20830.28, 0.00, 0.00, 0.00, 0.00
15, 52928.95, 47276.08, 30305.30, 22827.63, 31343.83, 36031.86, 20806.37, 0.00, 0.00, 0.00, 0.00
16, 52974.64, 47286.48, 30255.59, 22770.08, 31269.04, 36023.16, 20769.33, 0.00, 0.00, 0.00, 0.00
17, 52922.02, 47306.08, 30164.19, 22731.19, 31051.42, 35571.93, 20809.34, 0.00, 0.00, 0.00, 0.00
18, 52899.76, 47297.70, 30224.86, 22776.45, 31145.46, 35618.91, 20835.65, 0.00, 0.00, 0.00, 0.00
19, 52923.14, 47287.77, 30305.43, 22832.24, 31315.91, 35953.88, 20820.27, 0.00, 0.00, 0.00, 0.00
20, 52983.80, 47291.28, 30298.08, 22798.20, 31327.27, 36103.00, 20771.88, 0.00, 0.08, 0.91, 0.40
21, 52936.44, 47308.98, 30170.74, 22736.57, 31061.35, 35618.53, 20809.61, 0.00, 0.00, 0.00, 0.00
22, 52907.23, 47306.66, 30218.11, 22775.60, 31128.74, 35590.19, 20840.25, 0.00, 0.00, 0.00, 0.00
23, 52919.95, 47296.49, 30288.80, 22825.53, 31272.57, 35879.87, 20821.57, 0.00, 0.00, 0.00, 0.00
24, 52975.67, 47288.54, 30315.65, 22809.13, 31357.17, 36136.62, 20756.63, 0.00, 0.00, 0.00, 0.00
25, 52934.32, 47300.78, 30175.17, 22718.45, 31066.55, 35662.27, 20777.00, 0.00, 0.00, 0.00, 0.00
26, 52895.36, 47299.17, 30208.18, 22750.45, 31099.72, 35549.51, 20823.73, 0.00, 0.00, 0.00, 0.00
27, 52893.99, 47278.92, 30267.41, 22793.71, 31222.73, 35786.01, 20817.65, 0.00, 0.00, 0.00, 0.00
28, 52955.55, 47270.43, 30329.10, 22809.26, 31377.13, 36133.85, 20771.50, 0.00, 0.00, 0.00, 0.00
29, 52929.00, 47277.47, 30180.67, 22711.03, 31101.67, 35736.37, 20765.51, 0.00, 0.00, 0.00, 0.00
30, 52882.26, 47284.96, 30182.52, 22734.45, 31076.23, 35526.40, 20819.24, 0.00, 0.08, 0.91, 0.41
31, 52875.75, 47273.47, 30236.59, 22782.82, 31188.53, 35724.97, 20822.17, 0.00, 0.00, 0.00, 0.00
32, 52936.71, 47269.45, 30319.87, 22819.41, 31375.05, 36122.54, 20773.62, 0.00, 0.00, 0.00, 0.00
33, 52939.48, 47279.88, 30204.60, 22719.52, 31153.32, 35839.37, 20758.09, 0.00, 0.00, 0.00, 0.00
34, 52891.60, 47294.23, 30174.05, 22722.92, 31056.92, 35524.16, 20812.74, 0.00, 0.00, 0.00, 0.00
35, 52879.18, 47281.38, 30228.41, 22766.99, 31162.64, 35667.88, 20823.22, 0.00, 0.00, 0.00, 0.00
36, 52928.37, 47274.95, 30314.93, 22818.36, 31360.03, 36066.57, 20796.35, 0.00, 0.00, 0.00, 0.00
37, 52952.13, 47280.73, 30230.82, 22737.89, 31212.60, 35933.91, 20757.35, 0.00, 0.00, 0.00, 0.00
38, 52892.81, 47292.36, 30161.02, 22713.02, 31042.53, 35525.46, 20799.59, 0.00, 0.00, 0.00, 0.00
39, 52875.11, 47280.82, 30214.93, 22759.55, 31145.57, 35622.11, 20819.84, 0.00, 0.00, 0.00, 0.00
40, 52912.48, 47276.06, 30301.48, 22820.57, 31331.47, 36002.45, 20802.77, 0.00, 0.08, 0.91, 0.40
41, 52961.25, 47285.98, 30258.63, 22769.52, 31274.45, 36033.83, 20759.54, 0.00, 0.00, 0.00, 0.00
42, 52906.93, 47301.52, 30148.79, 22717.60, 31031.75, 35559.64, 20796.26, 0.00, 0.00, 0.00, 0.00
43, 52880.89, 47290.86, 30201.97, 22756.15, 31113.20, 35588.58, 20824.49, 0.00, 0.00, 0.00, 0.00
44, 52902.35, 47277.47, 30279.06, 22808.95, 31279.05, 35920.17, 20803.73, 0.00, 0.00, 0.00, 0.00
45, 52963.48, 47277.71, 30281.94, 22783.83, 31317.83, 36107.16, 20759.38, 0.00, 0.00, 0.00, 0.00
46, 52912.03, 47293.20, 30151.05, 22712.30, 31042.55, 35620.43, 20791.84, 0.00, 0.00, 0.00, 0.00
47, 52879.31, 47291.35, 30197.81, 22745.65, 31106.88, 35573.23, 20825.23, 0.00, 0.00, 0.00, 0.00
48, 52887.13, 47278.36, 30266.70, 22796.74, 31253.53, 35857.05, 20825.12, 0.00, 0.00, 0.00, 0.00
49, 52953.72, 47276.71, 30309.81, 22800.48, 31367.01, 36157.77, 20783.30, 0.00, 0.09, 0.91, 0.40
50, 52917.06, 47286.32, 30160.53, 22707.05, 31071.90, 35693.86, 20787.21, 0.00, 0.00, 0.00, 0.00
51, 52876.69, 47290.10, 30181.31, 22740.57, 31080.50, 35555.48, 20830.51, 0.00, 0.00, 0.00, 0.00
52, 52875.04, 47278.34, 30241.04, 22789.41, 31201.78, 35786.37, 20827.13, 0.00, 0.00, 0.00, 0.00
53, 52939.90, 47274.23, 30311.29, 22811.16, 31370.14, 36151.29, 20780.82, 0.00, 0.00, 0.00, 0.00
54, 52928.71, 47289.74, 30177.34, 22717.08, 31107.82, 35782.17, 20783.28, 0.00, 0.00, 0.00, 0.00
55, 52881.72, 47299.62, 30173.65, 22734.81, 31068.16, 35547.18, 20831.31, 0.00, 0.00, 0.00, 0.00
56, 52876.76, 47288.38, 30233.71, 22783.85, 31182.56, 35727.95, 20834.91, 0.00, 0.00, 0.00, 0.00
57, 52935.68, 47281.70, 30315.87, 22824.28, 31376.95, 36123.93, 20801.00, 0.00, 0.00, 0.00, 0.00
58, 52941.18, 47287.33, 30201.99, 22727.79, 31165.64, 35871.17, 20773.29, 0.00, 0.00, 0.00, 0.00
59, 52885.48, 47296.69, 30162.16, 22720.57, 31056.56, 35533.24, 20823.18, 0.00, 0.09, 0.91, 0.40
60, 52869.36, 47284.29, 30221.88, 22768.36, 31165.82, 35674.34, 20836.65, 0.00, 0.00, 0.00, 0.00
61, 52915.59, 47278.86, 30309.17, 22825.06, 31359.54, 36072.54, 20801.85, 0.00, 0.00, 0.00, 0.00
62, 52946.68, 47284.09, 30227.80, 22751.79, 31231.94, 35985.05, 20756.14, 0.00, 0.00, 0.00, 0.00
63, 52891.56, 47300.83, 30145.44, 22724.75, 31043.49, 35561.76, 20802.52, 0.00, 0.00, 0.00, 0.00
64, 52879.06, 47298.57, 30213.61, 22779.73, 31143.94, 35642.29, 20827.27, 0.00, 0.00, 0.00, 0.00
65, 52913.33, 47292.33, 30297.68, 22837.38, 31322.82, 36002.82, 20805.76, 0.00, 0.00, 0.00, 0.00
66, 52958.52, 47290.86, 30258.96, 22780.18, 31282.67, 36065.57, 20744.85, 0.00, 0.00, 0.00, 0.00
67, 52900.95, 47302.95, 30146.56, 22720.30, 31036.20, 35582.10, 20781.44, 0.00, 0.00, 0.00, 0.00
68, 52876.31, 47299.71, 30204.52, 22766.10, 31122.54, 35596.56, 20822.53, 0.00, 0.00, 0.00, 0.00
69, 52894.26, 47287.66, 30276.49, 22821.24, 31275.48, 35907.88, 20810.12, 0.00, 0.08, 0.91, 0.40
70, 52957.88, 47288.22, 30287.30, 22799.49, 31328.74, 36112.91, 20755.40, 0.00, 0.00, 0.00, 0.00
71, 52917.51, 47310.24, 30154.80, 22724.97, 31046.04, 35629.68, 20779.59, 0.00, 0.00, 0.00, 0.00
72, 52881.66, 47303.69, 30194.28, 22758.86, 31091.81, 35559.03, 20807.95, 0.00, 0.00, 0.00, 0.00
73, 52886.82, 47288.94, 30255.05, 22808.32, 31230.06, 35820.41, 20809.34, 0.00, 0.00, 0.00, 0.00
74, 52955.13, 47288.15, 30301.99, 22818.45, 31362.18, 36138.68, 20774.58, 0.00, 0.00, 0.00, 0.00
75, 52933.02, 47306.48, 30162.07, 22727.66, 31085.13, 35700.52, 20779.92, 0.00, 0.00, 0.00, 0.00
76, 52892.52, 47312.72, 30181.36, 22751.75, 31091.52, 35535.32, 20822.46, 0.00, 0.00, 0.00, 0.00
77, 52889.57, 47297.50, 30243.23, 22795.94, 31211.55, 35750.56, 20826.10, 0.00, 0.00, 0.00, 0.00
78, 52952.49, 47290.57, 30315.42, 22821.71, 31383.77, 36125.67, 20775.01, 0.00, 0.00, 0.00, 0.00
79, 52947.17, 47305.21, 30183.30, 22725.38, 31133.92, 35782.21, 20761.82, 0.00, 0.08, 0.91, 0.40
80, 52897.61, 47315.38, 30169.13, 22737.65, 31076.39, 35515.87, 20812.89, 0.00, 0.00, 0.00, 0.00
81, 52884.96, 47297.92, 30226.60, 22778.75, 31184.37, 35680.49, 20807.91, 0.00, 0.00, 0.00, 0.00
82, 52938.41, 47290.95, 30316.05, 22825.40, 31378.99, 36082.62, 20773.73, 0.00, 0.00, 0.00, 0.00
83, 52950.01, 47299.33, 30207.51, 22738.29, 31192.84, 35872.22, 20752.37, 0.00, 0.00, 0.00, 0.00
84, 52890.08, 47307.53, 30153.24, 22724.53, 31059.51, 35508.00, 20801.90, 0.00, 0.00, 0.00, 0.00
85, 52870.39, 47292.63, 30208.78, 22761.76, 31159.47, 35629.11, 20815.24, 0.00, 0.00, 0.00, 0.00
86, 52916.17, 47287.89, 30295.73, 22822.43, 31354.00, 36023.16, 20793.40, 0.00, 0.00, 0.00, 0.00
87, 52952.06, 47290.05, 30231.61, 22753.83, 31247.25, 35971.09, 20749.97, 0.00, 0.00, 0.00, 0.00
88, 52889.93, 47299.42, 30141.01, 22711.79, 31037.74, 35519.98, 20784.84, 0.00, 0.00, 0.00, 0.00
89, 52869.54, 47291.35, 30201.12, 22753.47, 31130.73, 35586.23, 20800.06, 0.00, 0.07, 0.91, 0.40
90, 52902.96, 47286.19, 30287.37, 22814.83, 31306.54, 35945.70, 20785.74, 0.00, 0.00, 0.00, 0.00
91, 52952.58, 47286.21, 30262.81, 22769.52, 31294.70, 36052.89, 20741.70, 0.00, 0.00, 0.00, 0.00
92, 52901.37, 47305.50, 30137.44, 22713.71, 31036.27, 35573.49, 20778.79, 0.00, 0.00, 0.00, 0.00
93, 52874.59, 47300.31, 30183.37, 22758.59, 31110.86, 35565.71, 20803.64, 0.00, 0.00, 0.00, 0.00
94, 52890.08, 47288.64, 30257.31, 22811.12, 31264.19, 35870.17, 20792.33, 0.00, 0.00, 0.00, 0.00
95, 52958.19, 47291.48, 30282.34, 22798.44, 31344.03, 36110.85, 20751.18, 0.00, 0.00, 0.00, 0.00
96, 52917.69, 47305.52, 30145.53, 22716.70, 31059.96, 35637.31, 20769.15, 0.00, 0.00, 0.00, 0.00
97, 52880.63, 47304.31, 30180.17, 22753.09, 31099.28, 35553.62, 20810.93, 0.00, 0.00, 0.00, 0.00
98, 52885.16, 47291.46, 30244.05, 22803.72, 31231.60, 35812.46, 20809.79, 0.00, 0.07, 0.91, 0.40
99, 52953.27, 47286.43, 30300.02, 22815.16, 31369.78, 36149.61, 20759.43, 0.00, 0.00, 0.00, 0.00
100, 52931.86, 47300.29, 30157.82, 22723.50, 31093.11, 35730.40, 20761.73, 0.00, 0.00, 0.00, 0.00
101, 52883.55, 47301.70, 30164.44, 22742.18, 31077.73, 35535.43, 20805.81, 0.00, 0.00, 0.00, 0.00
102, 52878.23, 47289.05, 30221.75, 22788.25, 31191.39, 35745.54, 20807.71, 0.00, 0.00, 0.00, 0.00
103, 52938.77, 47283.04, 30299.89, 22822.45, 31374.09, 36131.46, 20761.93, 0.00, 0.00, 0.00, 0.00
104, 52933.87, 47292.76, 30178.18, 22728.01, 31136.27, 35819.88, 20751.76, 0.00, 0.00, 0.00, 0.00
105, 52880.74, 47300.89, 30155.83, 22733.69, 31062.89, 35535.27, 20806.81, 0.00, 0.00, 0.00, 0.00
106, 52867.75, 47285.74, 30212.49, 22780.70, 31173.17, 35692.43, 20814.81, 0.00, 0.00, 0.00, 0.00
107, 52917.71, 47278.48, 30299.20, 22826.70, 31368.73, 36091.88, 20773.96, 0.00, 0.00, 0.00, 0.00
108, 52937.54, 47285.32, 30199.89, 22737.45, 31194.23, 35920.35, 20736.14, 0.00, 0.08, 0.91, 0.40
109, 52881.30, 47298.79, 30137.48, 22722.02, 31043.24, 35543.41, 20795.23, 0.00, 0.00, 0.00, 0.00
110, 52868.16, 47292.22, 30195.57, 22772.72, 31147.49, 35657.20, 20808.38, 0.00, 0.00, 0.00, 0.00
111, 52906.49, 47283.53, 30280.51, 22830.61, 31334.60, 36036.44, 20785.87, 0.00, 0.00, 0.00, 0.00
112, 52947.08, 47287.82, 30225.68, 22770.57, 31250.35, 36020.80, 20743.38, 0.00, 0.00, 0.00, 0.00
113, 52894.57, 47305.75, 30128.45, 22730.07, 31029.83, 35565.76, 20788.37, 0.00, 0.00, 0.00, 0.00
114, 52873.12, 47297.25, 30185.90, 22774.04, 31118.39, 35625.62, 20816.36, 0.00, 0.00, 0.00, 0.00
115, 52893.28, 47281.00, 30262.00, 22827.97, 31286.14, 35965.99, 20797.09, 0.00, 0.00, 0.00, 0.00
116, 52947.21, 47282.83, 30256.86, 22791.89, 31302.88, 36101.33, 20753.44, 0.00, 0.00, 0.00, 0.00
117, 52897.05, 47300.13, 30130.22, 22724.88, 31038.77, 35621.77, 20786.88, 0.00, 0.00, 0.00, 0.00
118, 52864.06, 47294.01, 30174.92, 22763.44, 31105.45, 35599.82, 20815.64, 0.00, 0.09, 0.90, 0.39
119, 52879.40, 47286.25, 30246.54, 22817.38, 31251.87, 35885.93, 20805.99, 0.00, 0.00, 0.00, 0.00
120, 52945.09, 47287.15, 30278.28, 22803.54, 31341.46, 36143.02, 20756.95, 0.00, 0.00, 0.00, 0.00
121, 52909.53, 47304.40, 30137.24, 22719.90, 31049.52, 35681.50, 20774.02, 0.00, 0.00, 0.00, 0.00
122, 52871.91, 47304.47, 30170.00, 22752.06, 31078.71, 35575.55, 20815.02, 0.00, 0.00, 0.00, 0.00
123, 52874.70, 47290.72, 30235.76, 22799.94, 31214.21, 35820.30, 20807.53, 0.00, 0.00, 0.00, 0.00
124, 52941.96, 47289.00, 30298.08, 22818.52, 31368.95, 36169.23, 20755.29, 0.00, 0.00, 0.00, 0.00
125, 52923.59, 47304.40, 30154.92, 22725.98, 31093.60, 35766.52, 20755.70, 0.00, 0.00, 0.00, 0.00
126, 52872.13, 47304.98, 30148.10, 22740.91, 31058.87, 35552.21, 20797.09, 0.00, 0.00, 0.00, 0.00
127, 52866.86, 47293.68, 30209.50, 22794.20, 31176.37, 35749.49, 20804.29, 0.00, 0.00, 0.00, 0.00
128, 52929.82, 47290.48, 30292.47, 22837.31, 31367.86, 36140.00, 20764.39, 0.00, 0.08, 0.90, 0.39
129, 52932.66, 47298.61, 30166.72, 22741.36, 31138.35, 35847.50, 20738.39, 0.00, 0.00, 0.00, 0.00
130, 52875.91, 47306.71, 30131.89, 22738.54, 31036.58, 35537.57, 20789.45, 0.00, 0.00, 0.00, 0.00
131, 52865.02, 47296.54, 30193.12, 22786.33, 31146.19, 35688.22, 20803.91, 0.00, 0.00, 0.00, 0.00
132, 52915.45, 47287.89, 30279.30, 22832.51, 31342.38, 36080.39, 20765.69, 0.00, 0.00, 0.00, 0.00
133, 52936.68, 47289.88, 30191.51, 22748.58, 31185.53, 35946.43, 20725.72, 0.00, 0.00, 0.00, 0.00
134, 52882.10, 47310.57, 30128.68, 22733.58, 31021.87, 35553.60, 20795.71, 0.00, 0.00, 0.00, 0.00
135, 52859.32, 47295.53, 30183.10, 22778.01, 31128.63, 35649.64, 20821.28, 0.00, 0.00, 0.00, 0.00
136, 52891.58, 47280.58, 30263.99, 22828.80, 31310.61, 36015.01, 20791.23, 0.00, 0.00, 0.00, 0.00
137, 52936.62, 47284.62, 30221.01, 22772.25, 31254.44, 36031.57, 20742.04, 0.00, 0.00, 0.00, 0.00
138, 52880.74, 47300.63, 30116.61, 22722.58, 31016.51, 35559.34, 20775.74, 0.00, 0.08, 0.90, 0.40
139, 52859.10, 47291.02, 30164.42, 22758.61, 31098.36, 35590.14, 20797.49, 0.00, 0.00, 0.00, 0.00
140, 52890.57, 47287.80, 30234.22, 22814.38, 31266.27, 35915.96, 20787.55, 0.00, 0.00, 0.00, 0.00
141, 52939.86, 47280.31, 30237.28, 22789.86, 31300.89, 36096.03, 20739.94, 0.00, 0.00, 0.00, 0.00
142, 52871.24, 47279.70, 30103.98, 22720.66, 31026.81, 35611.78, 20775.30, 0.00, 0.00, 0.00, 0.00
143, 52825.46, 47263.07, 30146.47, 22754.03, 31083.03, 35563.01, 20810.81, 0.00, 0.00, 0.00, 0.00
144, 52821.37, 47239.00, 30212.58, 22802.44, 31221.32, 35839.81, 20802.12, 0.00, 0.00, 0.00, 0.00
145, 52879.73, 47230.13, 30255.05, 22804.25, 31336.21, 36141.29, 20753.62, 0.00, 0.00, 0.00, 0.00
146, 52839.95, 47238.15, 30107.89, 22720.23, 31047.60, 35688.80, 20766.13, 0.00, 0.00, 0.00, 0.00
147, 52792.38, 47233.55, 30130.91, 22748.13, 31065.10, 35545.17, 20809.36, 0.00, 0.07, 0.91, 0.40
148, 52795.91, 47221.52, 30194.14, 22798.15, 31191.14, 35775.15, 20814.46, 0.00, 0.00, 0.00, 0.00
149, 52866.72, 47220.83, 30265.02, 22819.72, 31355.63, 36147.13, 20762.47, 0.00, 0.00, 0.00, 0.00
150, 52856.51, 47237.13, 30126.37, 22719.52, 31091.32, 35768.78, 20752.68, 0.00, 0.00, 0.00, 0.00
151, 52814.84, 47249.64, 30123.38, 22737.76, 31053.90, 35529.88, 20800.98, 0.00, 0.00, 0.00, 0.00
152, 52812.10, 47242.76, 30181.29, 22782.93, 31165.08, 35705.17, 20800.20, 0.00, 0.00, 0.00, 0.00
153, 52876.25, 47244.21, 30269.80, 22825.58, 31355.90, 36109.13, 20755.90, 0.00, 0.00, 0.00, 0.00
154, 52886.24, 47245.75, 30154.63, 22734.99, 31142.60, 35853.79, 20730.57, 0.00, 0.00, 0.00, 0.00
155, 52833.42, 47258.76, 30110.19, 22728.37, 31027.71, 35506.41, 20781.96, 0.00, 0.00, 0.00, 0.00
156, 52825.20, 47252.66, 30172.87, 22774.62, 31140.25, 35652.86, 20802.32, 0.00, 0.00, 0.00, 0.00
157, 52870.28, 47241.21, 30257.87, 22820.88, 31331.65, 36053.43, 20765.91, 0.00, 0.07, 0.91, 0.40
158, 52904.19, 47249.82, 30179.64, 22748.17, 31201.43, 35954.48, 20733.48, 0.00, 0.00, 0.00, 0.00
159, 52849.09, 47266.07, 30099.21, 22717.22, 31019.32, 35528.63, 20776.93, 0.00, 0.00, 0.00, 0.00
160, 52832.17, 47257.64, 30162.78, 22766.28, 31118.92, 35615.94, 20793.47, 0.00, 0.00, 0.00, 0.00
161, 52867.75, 47249.26, 30246.92, 22822.31, 31296.44, 35982.93, 20774.45, 0.00, 0.00, 0.00, 0.00
162, 52918.34, 47252.61, 30212.09, 22769.23, 31260.43, 36047.62, 20725.01, 0.00, 0.00, 0.00, 0.00
163, 52859.73, 47265.02, 30097.81, 22707.00, 31015.97, 35563.50, 20751.72, 0.00, 0.00, 0.00, 0.00
164, 52831.97, 47258.83, 30143.03, 22746.56, 31090.69, 35571.93, 20773.13, 0.00, 0.00, 0.00, 0.00
165, 52856.46, 47256.19, 30219.31, 22807.25, 31250.51, 35892.25, 20769.71, 0.00, 0.00, 0.00, 0.00
166, 52921.06, 47259.27, 30229.86, 22784.88, 31305.81, 36104.61, 20724.27, 0.00, 0.00, 0.00, 0.00
167, 52877.65, 47278.14, 30092.24, 22707.54, 31024.13, 35615.47, 20748.74, 0.00, 0.07, 0.91, 0.41
168, 52843.75, 47276.31, 30133.15, 22746.52, 31076.32, 35552.55, 20785.60, 0.00, 0.00, 0.00, 0.00
169, 52852.33, 47264.39, 30199.69, 22798.78, 31214.68, 35816.90, 20779.03, 0.00, 0.00, 0.00, 0.00
170, 52919.27, 47261.51, 30247.63, 22803.76, 31338.89, 36132.78, 20726.68, 0.00, 0.00, 0.00, 0.00
171, 52890.39, 47274.74, 30102.19, 22709.91, 31045.03, 35682.23, 20730.46, 0.00, 0.00, 0.00, 0.00
172, 52851.05, 47279.59, 30124.50, 22735.01, 31047.64, 35516.34, 20778.58, 0.00, 0.00, 0.00, 0.00
173, 52852.55, 47269.82, 30188.11, 22784.00, 31174.85, 35738.07, 20787.03, 0.00, 0.00, 0.00, 0.00
174, 52917.86, 47267.34, 30260.42, 22813.04, 31345.93, 36122.25, 20735.87, 0.00, 0.00, 0.00, 0.00
175, 52906.58, 47276.82, 30124.54, 22712.52, 31085.51, 35769.70, 20716.76, 0.00, 0.00, 0.00, 0.00
176, 52856.02, 47285.25, 30110.71, 22723.70, 31029.99, 35493.25, 20772.55, 0.00, 0.00, 0.00, 0.00
177, 52847.95, 47273.54, 30171.32, 22772.76, 31147.38, 35671.46, 20786.07, 0.00, 0.08, 0.91, 0.41
178, 52905.37, 47272.95, 30250.49, 22815.92, 31334.04, 36079.49, 20742.11, 0.00, 0.00, 0.00, 0.00
179, 52922.96, 47286.43, 30145.48, 22730.16, 31146.62, 35858.75, 20722.03, 0.00, 0.00, 0.00, 0.00
180, 52849.29, 47273.45, 30093.58, 22707.43, 31015.93, 35490.43, 20778.65, 0.00, 0.00, 0.00, 0.00
181, 52829.98, 47254.69, 30152.01, 22747.75, 31116.85, 35612.09, 20790.99, 0.00, 0.00, 0.00, 0.00
182, 52879.15, 47252.12, 30239.29, 22798.46, 31304.94, 36010.07, 20750.04, 0.00, 0.00, 0.00, 0.00
183, 52911.63, 47258.65, 30170.29, 22731.57, 31197.36, 35956.87, 20710.39, 0.00, 0.00, 0.00, 0.00
184, 52854.25, 47275.23, 30080.33, 22696.59, 30997.38, 35509.59, 20763.90, 0.00, 0.00, 0.00, 0.00
185, 52833.22, 47266.25, 30135.36, 22740.22, 31093.87, 35582.86, 20786.52, 0.00, 0.00, 0.00, 0.00
186, 52860.22, 47251.27, 30217.84, 22791.47, 31271.01, 35930.70, 20762.94, 0.00, 0.00, 0.00, 0.00
187, 52913.91, 47251.09, 30193.61, 22743.21, 31254.09, 36018.85, 20704.15, 0.00, 0.08, 0.91, 0.41
188, 52868.31, 47275.59, 30075.01, 22683.51, 30999.32, 35532.21, 20739.15, 0.00, 0.00, 0.00, 0.00
189, 52847.66, 47277.04, 30132.70, 22731.46, 31080.50, 35530.53, 20778.00, 0.00, 0.00, 0.00, 0.00
190, 52868.02, 47267.81, 30210.53, 22785.12, 31239.04, 35839.23, 20766.80, 0.00, 0.00, 0.00, 0.00
191, 52930.80, 47265.85, 30231.07, 22767.20, 31306.95, 36067.46, 20703.04, 0.00, 0.00, 0.00, 0.00
192, 52888.99, 47283.75, 30088.53, 22686.55, 31013.76, 35575.88, 20724.07, 0.00, 0.00, 0.00, 0.00
193, 52856.60, 47287.75, 30128.50, 22728.95, 31058.66, 35492.91, 20778.61, 0.00, 0.00, 0.00, 0.00
194, 52859.06, 47273.25, 30194.19, 22780.47, 31193.49, 35748.44, 20770.27, 0.00, 0.00, 0.00, 0.00
195, 52926.05, 47271.01, 30249.91, 22793.44, 31336.29, 36081.30, 20718.57, 0.00, 0.00, 0.00, 0.00
196, 52904.59, 47286.86, 30106.77, 22703.09, 31054.71, 35660.04, 20731.89, 0.00, 0.08, 0.91, 0.41
197, 52863.17, 47293.94, 30117.16, 22731.90, 31042.01, 35474.41, 20776.73, 0.00, 0.00, 0.00, 0.00
198, 52861.34, 47284.11, 30179.46, 22781.95, 31165.10, 35685.88, 20782.54, 0.00, 0.00, 0.00, 0.00
199, 52916.21, 47271.21, 30251.12, 22807.29, 31344.16, 36075.54, 20736.74, 0.00, 0.00, 0.00, 0.00
200, 52913.42, 47281.34, 30120.38, 22710.96, 31093.98, 35752.53, 20712.80, 0.00, 0.00, 0.00, 0.00
201, 52865.14, 47297.50, 30099.15, 22721.40, 31023.21, 35470.41, 20773.87, 0.00, 0.00, 0.00, 0.00
202, 52853.09, 47283.39, 30153.57, 22764.42, 31135.29, 35632.90, 20780.84, 0.00, 0.00, 0.00, 0.00
203, 52904.72, 47273.40, 30240.41, 22807.36, 31332.21, 36027.75, 20738.78, 0.00, 0.00, 0.00, 0.00
