%OpenBCI Raw EEG Data
%
%Sample Rate = 250.0 Hz
%First Column = SampleIndex
%Other Columns = EEG data in microvolts followed by Accel Data (in G) interleaved with Aux Data
0, 45292.37, 50389.28, 22684.81, 37303.90, 27486.81, 39299.39, 25335.79, 0.00, 0.09, 0.49, 0.05
1, 45248.36, 50442.66, 22730.45, 37328.44, 27395.41, 38973.42, 25362.75, 0.00, 0.00, 0.00, 0.00
2, 45253.59, 50441.14, 22801.01, 37399.25, 27548.21, 39268.86, 25412.05, 0.00, 0.00, 0.00, 0.00
3, 45287.83, 50400.30, 22810.54, 37437.70, 27726.04, 39695.63, 25426.09, 0.00, 0.00, 0.00, 0.00
4, 45294.96, 50374.26, 22707.70, 37322.58, 27547.27, 39441.04, 25342.59, 0.00, 0.00, 0.00, 0.00
5, 45243.73, 50431.64, 22713.44, 37314.02, 27372.57, 38966.49, 25351.28, 0.00, 0.00, 0.00, 0.00
6, 45251.69, 50443.17, 22791.27, 37394.54, 27532.81, 39229.10, 25415.30, 0.00, 0.00, 0.00, 0.00
7, 45283.49, 50411.99, 22818.16, 37443.26, 27701.01, 39634.69, 25432.64, 0.00, 0.18, 0.98, 0.10
8, 45306.52, 50373.19, 22736.78, 37351.60, 27619.02, 39561.83, 25362.12, 0.00, 0.00, 0.00, 0.00
9, 45255.98, 50423.97, 22703.74, 37300.07, 27369.11, 38959.69, 25338.03, 0.00, 0.00, 0.00, 0.00
10, 45257.05, 50445.88, 22789.37, 37389.57, 27520.49, 39166.45, 25406.62, 0.00, 0.00, 0.00, 0.00
11, 45275.96, 50414.22, 22816.23, 37433.70, 27671.64, 39537.35, 25424.86, 0.00, 0.00, 0.00, 0.00
12, 45314.34, 50371.26, 22761.18, 37377.14, 27676.73, 39660.64, 25367.75, 0.00, 0.00, 0.00, 0.00
13, 45270.91, 50414.54, 22700.47, 37300.34, 27382.92, 39012.46, 25331.14, 0.00, 0.00, 0.00, 0.00
14, 45256.25, 50446.39, 22786.17, 37387.02, 27503.33, 39120.83, 25405.53, 0.00, 0.00, 0.00, 0.00
15, 45268.56, 50419.81, 22815.54, 37442.61, 27644.90, 39467.50, 25429.00, 0.00, 0.00, 0.00, 0.00
16, 45319.30, 50380.00, 22785.01, 37415.46, 27725.01, 39734.20, 25389.97, 0.00, 0.18, 0.98, 0.11
17, 45283.83, 50405.13, 22695.58, 37297.75, 27411.62, 39092.37, 25334.07, 0.00, 0.00, 0.00, 0.00
18, 45257.23, 50445.83, 22773.28, 37370.46, 27471.54, 39061.15, 25390.42, 0.00, 0.00, 0.00, 0.00
19, 45268.63, 50427.90, 22805.75, 37431.19, 27615.45, 39385.02, 25430.36, 0.00, 0.00, 0.00, 0.00
20, 45310.98, 50380.11, 22796.74, 37435.46, 27748.48, 39754.90, 25411.34, 0.00, 0.00, 0.00, 0.00
21, 45287.38, 50384.65, 22688.81, 37309.04, 27453.51, 39197.52, 25334.45, 0.00, 0.00, 0.00, 0.00
22, 45253.86, 50438.03, 22753.27, 37358.64, 27440.16, 39012.60, 25379.44, 0.00, 0.00, 0.00, 0.00
23, 45258.13, 50424.15, 22802.20, 37418.83, 27588.02, 39317.52, 25422.70, 0.00, 0.00, 0.00, 0.00
24, 45292.77, 50371.02, 22808.32, 37437.90, 27749.22, 39722.34, 25413.08, 0.00, 0.00, 0.00, 0.00
25, 45289.64, 50359.51, 22698.51, 37307.27, 27506.75, 39306.19, 25328.26, 0.00, 0.00, 0.00, 0.00
26, 45242.86, 50415.52, 22733.91, 37331.75, 27410.28, 38961.17, 25361.96, 0.00, 0.17, 0.98, 0.11
27, 45245.47, 50412.41, 22801.10, 37405.55, 27570.05, 39252.10, 25417.33, 0.00, 0.00, 0.00, 0.00
28, 45275.07, 50372.80, 22810.40, 37436.85, 27735.54, 39668.38, 25412.97, 0.00, 0.00, 0.00, 0.00
29, 45292.14, 50348.49, 22712.70, 37330.83, 27578.21, 39452.48, 25339.12, 0.00, 0.00, 0.00, 0.00
30, 45249.56, 50407.99, 22707.27, 37317.67, 27390.43, 38951.45, 25354.50, 0.00, 0.00, 0.00, 0.00
31, 45248.18, 50417.66, 22781.10, 37394.27, 27545.98, 39200.55, 25413.62, 0.00, 0.00, 0.00, 0.00
32, 45263.91, 50376.58, 22805.44, 37435.73, 27706.08, 39609.75, 25425.38, 0.00, 0.00, 0.00, 0.00
33, 45294.80, 50339.17, 22731.25, 37355.82, 27637.51, 39580.98, 25352.26, 0.00, 0.00, 0.00, 0.00
34, 45249.03, 50396.34, 22697.21, 37303.74, 27373.20, 38968.10, 25333.82, 0.00, 0.00, 0.00, 0.00
35, 45244.33, 50418.76, 22783.49, 37383.11, 27516.29, 39148.68, 25399.92, 0.00, 0.00, 0.00, 0.00
36, 45265.88, 50394.46, 22819.21, 37434.66, 27674.61, 39517.70, 25426.09, 0.00, 0.17, 0.98, 0.11
37, 45304.59, 50348.27, 22762.64, 37376.47, 27697.25, 39664.53, 25371.33, 0.00, 0.00, 0.00, 0.00
38, 45256.94, 50385.17, 22694.17, 37280.54, 27390.47, 38996.71, 25323.72, 0.00, 0.00, 0.00, 0.00
39, 45250.90, 50424.06, 22782.08, 37368.29, 27502.14, 39083.12, 25394.91, 0.00, 0.00, 0.00, 0.00
40, 45264.09, 50399.52, 22804.88, 37414.76, 27640.48, 39416.41, 25415.03, 0.00, 0.00, 0.00, 0.00
41, 45300.32, 50345.29, 22781.66, 37394.96, 27731.00, 39702.35, 25382.33, 0.00, 0.00, 0.00, 0.00
42, 45264.41, 50366.28, 22682.86, 37279.09, 27412.96, 39061.06, 25316.50, 0.00, 0.00, 0.00, 0.00
43, 45242.79, 50416.32, 22760.42, 37351.33, 27463.23, 39006.92, 25375.35, 0.00, 0.00, 0.00, 0.00
44, 45257.54, 50404.39, 22798.64, 37407.23, 27607.33, 39338.87, 25415.81, 0.00, 0.00, 0.00, 0.00
45, 45294.00, 50345.25, 22797.95, 37408.82, 27750.45, 39720.81, 25390.60, 0.00, 0.00, 0.00, 0.00
46, 45284.99, 50357.94, 22697.37, 37284.30, 27465.24, 39186.54, 25320.14, 0.00, 0.17, 0.98, 0.12
47, 45267.51, 50431.64, 22756.69, 37340.98, 27437.12, 38974.02, 25370.14, 0.00, 0.00, 0.00, 0.00
48, 45285.84, 50435.08, 22809.17, 37414.88, 27588.11, 39282.59, 25412.90, 0.00, 0.00, 0.00, 0.00
49, 45328.24, 50394.87, 22814.18, 37447.91, 27745.76, 39692.54, 25392.34, 0.00, 0.00, 0.00, 0.00
50, 45329.52, 50389.73, 22705.28, 37312.04, 27521.39, 39314.91, 25317.15, 0.00, 0.00, 0.00, 0.00
51, 45296.05, 50463.53, 22741.45, 37331.79, 27417.23, 38960.30, 25379.76, 0.00, 0.00, 0.00, 0.00
52, 45305.91, 50469.34, 22807.61, 37409.75, 27573.58, 39252.77, 25439.99, 0.00, 0.00, 0.00, 0.00
53, 45343.82, 50428.66, 22834.81, 37451.75, 27745.13, 39672.78, 25445.45, 0.00, 0.00, 0.00, 0.00
54, 45358.86, 50396.12, 22735.39, 37343.64, 27594.93, 39474.41, 25362.23, 0.00, 0.00, 0.00, 0.00
55, 45307.72, 50453.12, 22727.79, 37320.50, 27388.20, 38947.71, 25358.08, 0.00, 0.00, 0.00, 0.00
56, 45308.21, 50467.33, 22806.22, 37398.85, 27546.80, 39191.84, 25420.66, 0.00, 0.17, 0.97, 0.11
57, 45332.55, 50432.48, 22829.04, 37439.08, 27706.35, 39576.18, 25431.46, 0.00, 0.00, 0.00, 0.00
58, 45362.95, 50396.36, 22759.24, 37364.72, 27656.35, 39592.23, 25369.45, 0.00, 0.00, 0.00, 0.00
59, 45312.77, 50446.99, 22717.04, 37307.83, 27389.92, 38977.08, 25349.40, 0.00, 0.00, 0.00, 0.00
60, 45304.32, 50464.09, 22801.53, 37386.15, 27525.97, 39145.04, 25407.92, 0.00, 0.00, 0.00, 0.00
61, 45322.81, 50433.71, 22833.38, 37434.84, 27678.50, 39508.85, 25427.63, 0.00, 0.00, 0.00, 0.00
62, 45361.66, 50387.58, 22785.57, 37391.32, 27713.95, 39693.88, 25388.07, 0.00, 0.00, 0.00, 0.00
63, 45320.24, 50427.41, 22699.00, 37296.63, 27398.19, 39032.87, 25337.69, 0.00, 0.00, 0.00, 0.00
64, 45304.66, 50463.46, 22783.27, 37374.17, 27497.27, 39089.15, 25400.50, 0.00, 0.00, 0.00, 0.00
65, 45319.68, 50445.83, 22823.01, 37427.23, 27648.86, 39431.79, 25436.98, 0.00, 0.17, 0.98, 0.12
66, 45364.27, 50398.45, 22802.44, 37414.27, 27752.71, 39745.18, 25407.09, 0.00, 0.00, 0.00, 0.00
67, 45331.37, 50416.46, 22699.80, 37300.48, 27435.38, 39123.40, 25340.80, 0.00, 0.00, 0.00, 0.00
68, 45307.75, 50467.84, 22780.25, 37367.89, 27470.25, 39049.14, 25397.64, 0.00, 0.00, 0.00, 0.00
69, 45316.84, 50454.28, 22816.39, 37415.50, 27615.94, 39366.76, 25435.12, 0.00, 0.00, 0.00, 0.00
70, 45357.50, 50408.97, 22812.48, 37427.64, 27766.48, 39752.20, 25419.70, 0.00, 0.00, 0.00, 0.00
71, 45346.73, 50414.27, 22704.01, 37304.34, 27488.87, 39245.39, 25340.42, 0.00, 0.00, 0.00, 0.00
72, 45310.09, 50471.15, 22757.12, 37350.01, 27443.34, 39003.93, 25383.94, 0.00, 0.00, 0.00, 0.00
73, 45318.45, 50466.17, 22818.96, 37413.82, 27597.68, 39306.35, 25432.80, 0.00, 0.00, 0.00, 0.00
74, 45356.25, 50425.69, 22829.24, 37446.17, 27768.55, 39727.99, 25434.83, 0.00, 0.00, 0.00, 0.00
75, 45356.56, 50408.64, 22719.61, 37323.07, 27551.41, 39372.35, 25346.25, 0.00, 0.18, 0.98, 0.13
76, 45314.92, 50472.88, 22745.11, 37334.88, 27417.72, 38972.12, 25369.88, 0.00, 0.00, 0.00, 0.00
77, 45318.90, 50476.52, 22815.07, 37414.74, 27579.39, 39255.21, 25429.71, 0.00, 0.00, 0.00, 0.00
78, 45349.39, 50436.04, 22839.97, 37453.41, 27745.46, 39661.43, 25433.24, 0.00, 0.00, 0.00, 0.00
79, 45370.39, 50406.22, 22749.11, 37349.76, 27618.82, 39511.38, 25355.51, 0.00, 0.00, 0.00, 0.00
80, 45319.43, 50464.45, 22735.03, 37322.25, 27400.06, 38966.55, 25350.21, 0.00, 0.00, 0.00, 0.00
81, 45320.33, 50478.60, 22818.61, 37406.94, 27557.22, 39197.29, 25417.69, 0.00, 0.00, 0.00, 0.00
82, 45348.63, 50444.71, 22838.90, 37461.48, 27716.18, 39585.68, 25433.11, 0.00, 0.00, 0.00, 0.00
83, 45381.30, 50402.18, 22772.65, 37391.96, 27685.74, 39623.00, 25378.21, 0.00, 0.00, 0.00, 0.00
84, 45328.18, 50448.91, 22721.06, 37309.53, 27402.70, 39001.69, 25355.84, 0.00, 0.00, 0.00, 0.00
85, 45320.51, 50475.00, 22807.12, 37387.79, 27532.39, 39158.06, 25421.93, 0.00, 0.17, 0.99, 0.14
86, 45331.30, 50443.01, 22835.53, 37436.91, 27685.12, 39508.14, 25445.70, 0.00, 0.00, 0.00, 0.00
87, 45373.59, 50398.84, 22797.42, 37404.55, 27736.75, 39712.99, 25401.59, 0.00, 0.00, 0.00, 0.00
88, 45329.74, 50435.70, 22711.90, 37308.26, 27418.06, 39061.77, 25350.74, 0.00, 0.00, 0.00, 0.00
89, 45307.66, 50471.33, 22794.87, 37384.52, 27505.01, 39099.12, 25413.31, 0.00, 0.00, 0.00, 0.00
90, 45320.13, 50451.33, 22832.53, 37436.55, 27652.79, 39441.57, 25452.29, 0.00, 0.00, 0.00, 0.00
91, 45363.40, 50400.77, 22813.84, 37426.07, 27767.77, 39768.76, 25423.72, 0.00, 0.00, 0.00, 0.00
92, 45330.81, 50412.75, 22705.48, 37298.87, 27445.04, 39155.45, 25345.40, 0.00, 0.00, 0.00, 0.00
93, 45300.57, 50462.48, 22774.71, 37361.75, 27464.28, 39043.38, 25397.48, 0.00, 0.00, 0.00, 0.00
94, 45313.38, 50453.77, 22819.70, 37427.73, 27616.05, 39364.35, 25441.76, 0.00, 0.00, 0.00, 0.00
95, 45358.21, 50409.24, 22821.53, 37443.13, 27771.62, 39766.28, 25434.50, 0.00, 0.17, 0.97, 0.14
96, 45346.75, 50406.49, 22707.47, 37307.43, 27495.91, 39274.32, 25349.65, 0.00, 0.00, 0.00, 0.00
97, 45305.91, 50459.20, 22752.87, 37334.74, 27424.67, 38991.28, 25377.43, 0.00, 0.00, 0.00, 0.00
98, 45314.29, 50463.58, 22815.61, 37407.97, 27584.53, 39302.03, 25439.01, 0.00, 0.00, 0.00, 0.00
99, 45354.23, 50437.11, 22829.40, 37460.05, 27766.12, 39742.83, 25455.13, 0.00, 0.00, 0.00, 0.00
100, 45363.82, 50431.52, 22732.04, 37353.41, 27573.71, 39434.04, 25374.35, 0.00, 0.00, 0.00, 0.00
101, 45318.20, 50496.59, 22742.72, 37356.65, 27415.55, 39007.26, 25386.84, 0.00, 0.00, 0.00, 0.00
102, 45325.16, 50508.05, 22816.59, 37437.74, 27577.45, 39281.69, 25452.29, 0.00, 0.00, 0.00, 0.00
103, 45358.48, 50476.05, 22835.97, 37479.65, 27747.16, 39685.16, 25462.41, 0.00, 0.00, 0.00, 0.00
104, 45383.29, 50450.30, 22740.17, 37389.86, 27640.48, 39565.96, 25395.69, 0.00, 0.17, 0.97, 0.15
105, 45320.53, 50498.58, 22710.67, 37347.39, 27400.55, 39007.70, 25376.87, 0.00, 0.00, 0.00, 0.00
106, 45319.14, 50511.03, 22795.89, 37421.96, 27553.62, 39223.31, 25440.78, 0.00, 0.00, 0.00, 0.00
107, 45343.82, 50479.94, 22835.14, 37466.73, 27722.00, 39604.94, 25463.89, 0.00, 0.00, 0.00, 0.00
108, 45388.25, 50444.22, 22775.49, 37413.15, 27711.51, 39675.82, 25414.22, 0.00, 0.00, 0.00, 0.00
109, 45332.42, 50485.04, 22697.73, 37327.55, 27409.25, 39025.90, 25366.50, 0.00, 0.00, 0.00, 0.00
110, 45319.23, 50512.28, 22787.02, 37402.16, 27530.89, 39160.37, 25436.69, 0.00, 0.00, 0.00, 0.00
111, 45344.63, 50490.33, 22827.79, 37460.88, 27692.42, 39523.23, 25482.98, 0.00, 0.00, 0.00, 0.00
112, 45394.96, 50453.00, 22796.83, 37439.02, 27762.47, 39762.05, 25443.28, 0.00, 0.00, 0.00, 0.00
113, 45348.40, 50483.04, 22698.06, 37348.02, 27433.26, 39117.54, 25376.29, 0.00, 0.00, 0.00, 0.00
114, 45325.58, 50522.85, 22778.21, 37399.07, 27512.00, 39125.30, 25445.70, 0.00, 0.17, 0.98, 0.16
115, 45339.68, 50503.68, 22814.56, 37447.39, 27657.51, 39446.20, 25477.26, 0.00, 0.00, 0.00, 0.00
116, 45389.04, 50456.42, 22813.51, 37453.81, 27787.78, 39793.39, 25459.66, 0.00, 0.00, 0.00, 0.00
117, 45357.81, 50465.14, 22701.46, 37335.08, 27475.10, 39214.41, 25383.62, 0.00, 0.00, 0.00, 0.00
118, 45324.17, 50513.93, 22764.89, 37389.28, 27477.31, 39074.40, 25429.94, 0.00, 0.00, 0.00, 0.00
119, 45335.62, 50507.25, 22805.48, 37446.19, 27623.94, 39381.47, 25468.85, 0.00, 0.00, 0.00, 0.00
120, 45389.64, 50478.02, 22819.65, 37483.00, 27795.85, 39795.09, 25466.26, 0.00, 0.00, 0.00, 0.00
121, 45376.88, 50470.93, 22710.47, 37358.14, 27538.33, 39353.62, 25378.13, 0.00, 0.00, 0.00, 0.00
122, 45324.31, 50517.27, 22743.46, 37377.73, 27451.47, 39041.43, 25401.17, 0.00, 0.00, 0.00, 0.00
123, 45327.55, 50513.89, 22806.18, 37439.89, 27606.50, 39322.42, 25451.10, 0.00, 0.00, 0.00, 0.00
124, 45372.74, 50479.56, 22834.38, 37480.03, 27787.26, 39739.63, 25462.17, 0.00, 0.16, 0.98, 0.17
125, 45382.89, 50460.20, 22729.20, 37371.87, 27607.35, 39485.27, 25391.11, 0.00, 0.00, 0.00, 0.00
126, 45318.47, 50506.27, 22725.78, 37354.10, 27423.76, 39026.95, 25391.00, 0.00, 0.00, 0.00, 0.00
127, 45323.35, 50516.19, 22801.48, 37432.20, 27582.12, 39280.93, 25454.43, 0.00, 0.00, 0.00, 0.00
128, 45360.79, 50481.55, 22835.01, 37489.06, 27757.24, 39682.97, 25472.63, 0.00, 0.00, 0.00, 0.00
129, 45385.06, 50445.43, 22764.80, 37396.30, 27676.24, 39602.46, 25404.63, 0.00, 0.00, 0.00, 0.00
130, 45324.71, 50493.48, 22719.01, 37333.83, 27415.06, 39013.40, 25367.31, 0.00, 0.00, 0.00, 0.00
131, 45315.43, 50510.16, 22784.34, 37403.27, 27547.94, 39201.23, 25425.29, 0.00, 0.00, 0.00, 0.00
132, 45336.71, 50481.84, 22824.10, 37456.58, 27708.90, 39591.00, 25457.54, 0.00, 0.00, 0.00, 0.00
133, 45382.71, 50446.50, 22774.97, 37401.42, 27716.79, 39694.30, 25394.24, 0.00, 0.00, 0.00, 0.00
134, 45321.58, 50482.55, 22691.47, 37316.19, 27402.30, 39060.68, 25350.86, 0.00, 0.17, 0.96, 0.17
135, 45307.97, 50513.40, 22779.78, 37398.56, 27517.52, 39178.09, 25430.00, 0.00, 0.00, 0.00, 0.00
136, 45326.86, 50491.76, 22820.50, 37454.84, 27672.60, 39521.77, 25461.01, 0.00, 0.00, 0.00, 0.00
137, 45380.43, 50455.44, 22799.31, 37435.62, 27762.90, 39780.11, 25432.31, 0.00, 0.00, 0.00, 0.00
138, 45330.18, 50473.95, 22696.50, 37320.71, 27434.62, 39146.08, 25360.76, 0.00, 0.00, 0.00, 0.00
139, 45299.25, 50506.92, 22766.05, 37384.45, 27490.12, 39121.14, 25407.21, 0.00, 0.00, 0.00, 0.00
140, 45319.23, 50495.45, 22811.94, 37442.64, 27641.69, 39447.45, 25449.67, 0.00, 0.00, 0.00, 0.00
141, 45375.92, 50458.59, 22814.92, 37464.47, 27786.93, 39814.16, 25441.51, 0.00, 0.00, 0.00, 0.00
142, 45345.74, 50468.74, 22697.95, 37349.23, 27479.26, 39259.70, 25361.03, 0.00, 0.00, 0.00, 0.00
143, 45301.57, 50514.89, 22751.77, 37368.32, 27459.36, 39079.90, 25406.00, 0.00, 0.00, 0.00, 0.00
144, 45319.14, 50511.10, 22807.56, 37433.71, 27616.61, 39385.32, 25461.74, 0.00, 0.17, 0.94, 0.18
145, 45372.23, 50475.40, 22830.45, 37469.88, 27794.15, 39801.77, 25472.05, 0.00, 0.00, 0.00, 0.00
146, 45370.44, 50471.78, 22723.03, 37350.73, 27538.60, 39393.09, 25377.30, 0.00, 0.00, 0.00, 0.00
147, 45319.61, 50522.43, 22743.95, 37372.63, 27427.80, 39057.59, 25391.76, 0.00, 0.00, 0.00, 0.00
148, 45336.18, 50533.22, 22823.50, 37454.10, 27592.06, 39345.33, 25454.48, 0.00, 0.00, 0.00, 0.00
149, 45380.66, 50502.40, 22847.35, 37494.00, 27771.88, 39761.94, 25466.10, 0.00, 0.00, 0.00, 0.00
150, 45396.21, 50481.46, 22749.38, 37381.26, 27611.53, 39520.57, 25391.38, 0.00, 0.00, 0.00, 0.00
151, 45321.38, 50518.25, 22724.93, 37349.41, 27407.73, 39033.18, 25367.87, 0.00, 0.00, 0.00, 0.00
152, 45309.33, 50514.83, 22788.52, 37418.07, 27559.01, 39278.07, 25429.36, 0.00, 0.00, 0.00, 0.00
153, 45338.23, 50483.00, 22825.11, 37468.96, 27736.75, 39669.90, 25455.60, 0.00, 0.17, 0.95, 0.19
154, 45372.21, 50456.34, 22756.71, 37377.95, 27672.55, 39619.09, 25386.75, 0.00, 0.00, 0.00, 0.00
155, 45301.33, 50495.20, 22700.72, 37312.46, 27396.93, 39027.75, 25347.46, 0.00, 0.00, 0.00, 0.00
156, 45294.54, 50513.44, 22784.54, 37388.68, 27541.21, 39202.12, 25417.53, 0.00, 0.00, 0.00, 0.00
157, 45323.50, 50488.86, 22812.99, 37442.01, 27703.56, 39569.02, 25449.23, 0.00, 0.00, 0.00, 0.00
158, 45375.70, 50456.45, 22765.27, 37405.17, 27725.86, 39713.55, 25403.14, 0.00, 0.00, 0.00, 0.00
159, 45316.91, 50485.95, 22677.05, 37303.92, 27397.67, 39060.14, 25334.20, 0.00, 0.00, 0.00, 0.00
160, 45296.75, 50504.35, 22765.99, 37377.37, 27511.40, 39151.96, 25402.13, 0.00, 0.00, 0.00, 0.00
161, 45311.72, 50479.34, 22807.12, 37429.07, 27665.07, 39493.65, 25440.67, 0.00, 0.00, 0.00, 0.00
162, 45373.91, 50449.34, 22793.06, 37424.98, 27773.49, 39780.32, 25423.57, 0.00, 0.00, 0.00, 0.00
163, 45327.91, 50465.05, 22684.85, 37307.92, 27443.94, 39156.25, 25348.26, 0.00, 0.17, 0.94, 0.19
164, 45293.91, 50502.13, 22755.55, 37374.24, 27486.65, 39106.01, 25395.07, 0.00, 0.00, 0.00, 0.00
165, 45310.16, 50491.00, 22795.07, 37443.82, 27633.53, 39418.55, 25430.23, 0.00, 0.00, 0.00, 0.00
166, 45365.90, 50456.02, 22798.51, 37432.15, 27784.98, 39793.05, 25429.31, 0.00, 0.00, 0.00, 0.00
167, 45340.11, 50463.44, 22683.89, 37301.26, 27495.44, 39273.27, 25361.07, 0.00, 0.00, 0.00, 0.00
168, 45293.89, 50506.69, 22736.06, 37343.04, 27460.35, 39065.17, 25396.72, 0.00, 0.00, 0.00, 0.00
169, 45304.91, 50500.30, 22788.94, 37410.79, 27615.69, 39364.84, 25441.27, 0.00, 0.00, 0.00, 0.00
170, 45352.85, 50465.25, 22812.55, 37449.63, 27789.63, 39777.03, 25445.00, 0.00, 0.00, 0.00, 0.00
171, 45348.80, 50458.93, 22703.40, 37327.37, 27555.99, 39396.36, 25360.45, 0.00, 0.00, 0.00, 0.00
172, 45287.89, 50504.64, 22715.74, 37315.41, 27424.63, 39025.30, 25368.63, 0.00, 0.00, 0.00, 0.00
173, 45297.73, 50504.23, 22783.60, 37387.36, 27585.14, 39295.13, 25425.91, 0.00, 0.17, 0.95, 0.20
174, 45341.43, 50472.70, 22805.95, 37439.57, 27766.48, 39712.70, 25441.56, 0.00, 0.00, 0.00, 0.00
175, 45359.27, 50447.62, 22716.44, 37339.66, 27625.10, 39520.25, 25363.06, 0.00, 0.00, 0.00, 0.00
176, 45295.88, 50495.00, 22703.83, 37310.43, 27415.62, 39014.07, 25360.62, 0.00, 0.00, 0.00, 0.00
177, 45297.80, 50508.59, 22780.76, 37386.75, 27569.65, 39245.04, 25426.20, 0.00, 0.00, 0.00, 0.00
178, 45326.72, 50480.14, 22806.20, 37438.81, 27739.27, 39647.50, 25457.23, 0.00, 0.00, 0.00, 0.00
179, 45363.80, 50452.51, 22739.12, 37369.97, 27685.21, 39648.08, 25400.66, 0.00, 0.00, 0.00, 0.00
180, 45303.50, 50497.48, 22689.88, 37306.49, 27402.99, 39044.65, 25358.59, 0.00, 0.00, 0.00, 0.00
181, 45298.07, 50521.45, 22768.20, 37387.63, 27540.75, 39212.43, 25420.53, 0.00, 0.00, 0.00, 0.00
182, 45322.77, 50492.37, 22800.21, 37432.42, 27697.65, 39566.70, 25447.53, 0.00, 0.00, 0.00, 0.00
183, 45374.84, 50460.52, 22768.96, 37402.60, 27744.35, 39742.72, 25417.15, 0.00, 0.18, 0.95, 0.21
184, 45320.73, 50495.92, 22684.90, 37326.88, 27422.91, 39108.98, 25357.40, 0.00, 0.00, 0.00, 0.00
185, 45304.97, 50523.61, 22756.94, 37382.13, 27513.63, 39167.72, 25413.17, 0.00, 0.00, 0.00, 0.00
186, 45322.74, 50508.30, 22786.40, 37419.48, 27662.76, 39485.47, 25442.01, 0.00, 0.00, 0.00, 0.00
187, 45370.22, 50468.32, 22790.82, 37416.73, 27780.22, 39789.03, 25425.80, 0.00, 0.00, 0.00, 0.00
188, 45323.50, 50479.60, 22683.67, 37303.90, 27454.22, 39190.12, 25348.91, 0.00, 0.00, 0.00, 0.00
189, 45297.48, 50523.73, 22746.65, 37366.55, 27485.00, 39117.14, 25395.47, 0.00, 0.00, 0.00, 0.00
190, 45311.21, 50501.48, 22796.92, 37419.34, 27642.83, 39424.79, 25446.23, 0.00, 0.00, 0.00, 0.00
191, 45363.56, 50461.27, 22814.94, 37446.79, 27809.84, 39817.64, 25452.60, 0.00, 0.00, 0.00, 0.00
192, 45345.30, 50461.81, 22700.47, 37330.95, 27522.62, 39312.31, 25372.94, 0.00, 0.00, 0.00, 0.00
193, 45300.86, 50507.14, 22737.38, 37348.63, 27465.51, 39068.64, 25394.62, 0.00, 0.18, 0.96, 0.21
194, 45319.75, 50506.85, 22796.95, 37416.28, 27619.47, 39359.99, 25441.13, 0.00, 0.00, 0.00, 0.00
195, 45376.95, 50481.82, 22830.43, 37467.07, 27801.66, 39785.75, 25453.00, 0.00, 0.00, 0.00, 0.00
196, 45373.73, 50464.52, 22721.29, 37347.26, 27584.91, 39436.81, 25379.27, 0.00, 0.00, 0.00, 0.00
197, 45309.36, 50507.34, 22720.28, 37335.82, 27437.39, 39038.97, 25388.99, 0.00, 0.00, 0.00, 0.00
198, 45317.98, 50514.52, 22787.11, 37422.25, 27599.98, 39299.48, 25447.35, 0.00, 0.00, 0.00, 0.00
199, 45354.73, 50479.13, 22823.63, 37481.10, 27783.46, 39709.55, 25463.51, 0.00, 0.00, 0.00, 0.00
200, 45376.61, 50450.79, 22731.57, 37372.54, 27652.39, 39550.07, 25397.26, 0.00, 0.00, 0.00, 0.00
201, 45315.21, 50496.43, 22706.94, 37334.09, 27419.82, 39014.07, 25373.61, 0.00, 0.00, 0.00, 0.00
202, 45316.59, 50510.74, 22793.66, 37409.40, 27574.77, 39225.54, 25427.25, 0.00, 0.18, 0.97, 0.21
203, 45345.38, 50479.51, 22819.43, 37461.16, 27742.43, 39608.25, 25446.46, 0.00, 0.00, 0.00, 0.00
204, 45391.14, 50450.43, 22768.45, 37399.09, 27714.29, 39635.83, 25406.29, 0.00, 0.00, 0.00, 0.00
205, 45329.16, 50488.14, 22698.78, 37321.62, 27421.07, 39016.24, 25368.42, 0.00, 0.00, 0.00, 0.00
206, 45315.59, 50509.13, 22785.55, 37402.38, 27545.60, 39159.07, 25421.73, 0.00, 0.00, 0.00, 0.00
207, 45340.54, 50488.72, 22824.46, 37462.15, 27709.86, 39513.12, 25465.16, 0.00, 0.00, 0.00, 0.00
208, 45391.95, 50450.07, 22792.07, 37422.27, 27768.42, 39708.90, 25435.28, 0.00, 0.00, 0.00, 0.00
209, 45332.98, 50476.16, 22697.70, 37318.11, 27440.70, 39075.07, 25368.96, 0.00, 0.00, 0.00, 0.00
210, 45307.63, 50508.37, 22771.91, 37393.51, 27519.94, 39110.19, 25420.28, 0.00, 0.00, 0.00, 0.00
211, 45326.16, 50488.59, 22815.70, 37443.37, 27669.13, 39430.18, 25456.24, 0.00, 0.00, 0.00, 0.00
212, 45378.71, 50444.22, 22803.90, 37438.39, 27792.13, 39745.29, 25439.90, 0.00, 0.17, 0.95, 0.21
213, 45340.13, 50457.68, 22696.50, 37339.28, 27467.52, 39162.47, 25355.71, 0.00, 0.00, 0.00, 0.00
214, 45300.70, 50498.27, 22754.88, 37359.38, 27479.19, 39055.94, 25398.49, 0.00, 0.00, 0.00, 0.00
215, 45324.22, 50496.50, 22801.80, 37410.65, 27635.09, 39354.83, 25447.62, 0.00, 0.00, 0.00, 0.00
216, 45378.22, 50457.63, 22814.16, 37446.03, 27801.50, 39750.12, 25450.86, 0.00, 0.00, 0.00, 0.00
217, 45357.59, 50449.23, 22697.37, 37319.99, 27515.20, 39271.86, 25363.35, 0.00, 0.00, 0.00, 0.00
218, 45304.35, 50491.58, 22736.55, 37350.41, 27443.34, 39009.22, 25383.51, 0.00, 0.00, 0.00, 0.00
219, 45312.64, 50487.56, 22801.30, 37415.84, 27605.70, 39295.73, 25439.21, 0.00, 0.00, 0.00, 0.00
220, 45359.40, 50455.51, 22823.05, 37452.61, 27783.33, 39701.75, 25442.23, 0.00, 0.00, 0.00, 0.00
221, 45366.37, 50442.86, 22716.66, 37336.00, 27578.90, 39386.68, 25358.90, 0.00, 0.00, 0.00, 0.00
222, 45306.18, 50489.48, 22718.22, 37327.19, 27420.54, 38977.66, 25365.14, 0.00, 0.17, 0.96, 0.21
223, 45315.61, 50500.46, 22794.15, 37405.20, 27589.61, 39241.13, 25437.76, 0.00, 0.00, 0.00, 0.00
224, 45353.45, 50461.45, 22827.97, 37448.65, 27767.21, 39642.07, 25457.63, 0.00, 0.00, 0.00, 0.00
225, 45386.38, 50438.86, 22750.37, 37363.40, 27659.70, 39522.82, 25389.88, 0.00, 0.00, 0.00, 0.00
226, 45322.05, 50482.66, 22713.04, 37320.82, 27415.75, 38981.42, 25362.10, 0.00, 0.00, 0.00, 0.00
227, 45318.00, 50498.09, 22785.46, 37394.98, 27563.37, 39198.03, 25429.78, 0.00, 0.00, 0.00, 0.00
228, 45342.79, 50466.37, 22815.16, 37439.15, 27722.51, 39565.92, 25444.31, 0.00, 0.00, 0.00, 0.00
229, 45386.33, 50435.19, 22761.94, 37382.60, 27707.76, 39628.39, 25389.66, 0.00, 0.00, 0.00, 0.00
230, 45328.02, 50474.33, 22698.29, 37305.62, 27412.42, 39012.75, 25340.48, 0.00, 0.00, 0.00, 0.00
231, 45315.34, 50496.63, 22784.79, 37381.55, 27539.72, 39143.83, 25402.60, 0.00, 0.00, 0.00, 0.00
232, 45340.33, 50478.44, 22825.69, 37435.93, 27697.52, 39487.35, 25439.62, 0.00, 0.17, 0.95, 0.20
233, 45395.90, 50446.39, 22801.57, 37409.18, 27769.74, 39705.17, 25413.02, 0.00, 0.00, 0.00, 0.00
234, 45343.15, 50470.15, 22685.57, 37301.26, 27435.60, 39068.12, 25343.88, 0.00, 0.00, 0.00, 0.00
235, 45314.76, 50504.57, 22761.67, 37371.40, 27503.28, 39080.23, 25395.89, 0.00, 0.00, 0.00, 0.00
236, 45338.66, 50489.48, 22804.77, 37428.96, 27653.44, 39403.00, 25433.02, 0.00, 0.00, 0.00, 0.00
237, 45395.39, 50453.45, 22800.48, 37430.66, 27784.60, 39725.82, 25413.91, 0.00, 0.00, 0.00, 0.00
238, 45359.02, 50463.06, 22690.13, 37299.05, 27471.72, 39164.75, 25335.66, 0.00, 0.00, 0.00, 0.00
239, 45311.61, 50498.49, 22753.52, 37349.96, 27472.46, 39043.47, 25388.14, 0.00, 0.00, 0.00, 0.00
240, 45323.08, 50490.49, 22801.66, 37412.84, 27621.01, 39344.86, 25432.84, 0.00, 0.00, 0.00, 0.00
241, 45378.42, 50459.93, 22811.70, 37446.39, 27788.54, 39741.69, 25435.01, 0.00, 0.18, 0.96, 0.21
242, 45369.48, 50464.29, 22696.59, 37326.72, 27520.41, 39295.24, 25357.36, 0.00, 0.00, 0.00, 0.00
243, 45314.88, 50500.34, 22728.42, 37338.77, 27432.23, 39003.75, 25377.25, 0.00, 0.00, 0.00, 0.00
244, 45318.47, 50488.86, 22793.48, 37402.11, 27588.73, 39284.06, 25424.26, 0.00, 0.00, 0.00, 0.00
245, 45362.33, 50452.87, 22825.38, 37444.71, 27771.37, 39700.70, 25437.67, 0.00, 0.00, 0.00, 0.00
246, 45379.16, 50437.36, 22728.04, 37337.89, 27587.55, 39430.55, 25360.09, 0.00, 0.00, 0.00, 0.00
247, 45314.85, 50476.07, 22711.21, 37336.26, 27406.54, 38994.58, 25350.43, 0.00, 0.00, 0.00, 0.00
248, 45313.51, 50485.73, 22778.15, 37403.18, 27564.66, 39245.44, 25412.21, 0.00, 0.00, 0.00, 0.00
249, 45348.80, 50460.71, 22812.88, 37434.34, 27746.47, 39639.21, 25433.54, 0.00, 0.00, 0.00, 0.00
250, 45374.13, 50430.00, 22727.23, 37351.11, 27647.95, 39542.16, 25366.48, 0.00, 0.00, 0.00, 0.00
251, 45310.85, 50474.20, 22687.27, 37297.28, 27395.39, 38984.37, 25339.32, 0.00, 0.18, 0.96, 0.20
252, 45310.11, 50491.38, 22770.64, 37384.23, 27548.61, 39182.61, 25408.34, 0.00, 0.00, 0.00, 0.00
253, 45345.74, 50472.79, 22810.92, 37444.85, 27721.86, 39560.91, 25443.84, 0.00, 0.00, 0.00, 0.00
254, 45394.04, 50440.15, 22765.45, 37396.50, 27726.18, 39660.78, 25402.33, 0.00, 0.00, 0.00, 0.00
255, 45329.76, 50467.67, 22689.77, 37306.00, 27413.14, 39030.50, 25348.96, 0.00, 0.00, 0.00, 0.00
0, 45316.66, 50496.07, 22775.62, 37382.46, 27529.03, 39143.02, 25407.67, 0.00, 0.00, 0.00, 0.00
1, 45340.11, 50478.13, 22809.87, 37433.92, 27685.92, 39484.67, 25434.90, 0.00, 0.00, 0.00, 0.00
2, 45391.88, 50441.52, 22787.92, 37414.05, 27768.44, 39721.75, 25409.55, 0.00, 0.00, 0.00, 0.00
3, 45340.13, 50464.49, 22682.53, 37299.70, 27433.70, 39089.51, 25334.90, 0.00, 0.00, 0.00, 0.00
4, 45308.95, 50497.20, 22748.44, 37368.61, 27490.99, 39089.54, 25393.75, 0.00, 0.00, 0.00, 0.00
5, 45331.04, 50483.76, 22794.93, 37422.32, 27650.13, 39413.90, 25446.37, 0.00, 0.18, 0.96, 0.20
6, 45388.77, 50445.02, 22806.91, 37432.91, 27794.66, 39762.39, 25434.96, 0.00, 0.00, 0.00, 0.00
7, 45351.80, 50449.05, 22689.32, 37312.70, 27476.80, 39199.23, 25342.25, 0.00, 0.00, 0.00, 0.00
8, 45310.92, 50489.28, 22742.25, 37344.27, 27460.21, 39034.39, 25371.75, 0.00, 0.00, 0.00, 0.00
9, 45320.35, 50477.81, 22791.04, 37403.41, 27612.58, 39331.09, 25423.37, 0.00, 0.00, 0.00, 0.00
10, 45366.80, 50440.40, 22808.93, 37442.55, 27784.58, 39726.89, 25426.70, 0.00, 0.00, 0.00, 0.00
11, 45360.36, 50440.49, 22706.27, 37314.71, 27534.08, 39306.91, 25346.01, 0.00, 0.00, 0.00, 0.00
12, 45307.05, 50486.31, 22736.78, 37327.01, 27429.26, 38986.67, 25359.89, 0.00, 0.00, 0.00, 0.00
13, 45314.43, 50485.10, 22790.42, 37398.54, 27589.00, 39270.70, 25418.89, 0.00, 0.00, 0.00, 0.00
14, 45354.79, 50450.48, 22818.18, 37440.49, 27767.66, 39688.40, 25433.02, 0.00, 0.00, 0.00, 0.00
15, 45369.14, 50427.95, 22720.41, 37336.38, 27595.62, 39450.09, 25353.09, 0.00, 0.17, 0.96, 0.20
16, 45305.40, 50473.66, 22706.51, 37316.55, 27401.85, 38993.60, 25345.42, 0.00, 0.00, 0.00, 0.00
17, 45315.50, 50487.63, 22787.45, 37392.97, 27562.74, 39232.41, 25408.95, 0.00, 0.00, 0.00, 0.00
18, 45356.11, 50459.38, 22815.19, 37438.48, 27737.17, 39618.09, 25433.33, 0.00, 0.00, 0.00, 0.00
19, 45386.58, 50432.82, 22738.88, 37363.04, 27664.06, 39564.62, 25369.25, 0.00, 0.00, 0.00, 0.00
20, 45318.54, 50472.61, 22691.58, 37302.24, 27392.35, 38984.91, 25330.72, 0.00, 0.00, 0.00, 0.00
21, 45314.43, 50491.49, 22775.53, 37378.55, 27535.40, 39166.54, 25396.68, 0.00, 0.00, 0.00, 0.00
22, 45345.18, 50468.98, 22814.27, 37433.80, 27704.05, 39535.61, 25433.04, 0.00, 0.00, 0.00, 0.00
23, 45392.88, 50435.21, 22768.74, 37393.51, 27723.25, 39662.05, 25388.38, 0.00, 0.00, 0.00, 0.00
24, 45328.96, 50464.47, 22681.68, 37297.93, 27404.13, 39029.81, 25324.37, 0.00, 0.00, 0.00, 0.00
25, 45316.86, 50496.23, 22765.83, 37365.95, 27510.19, 39118.14, 25386.80, 0.00, 0.17, 0.96, 0.20
26, 45339.59, 50478.98, 22807.07, 37416.21, 27664.55, 39450.78, 25422.94, 0.00, 0.00, 0.00, 0.00
27, 45397.09, 50445.47, 22792.72, 37406.40, 27761.60, 39717.44, 25400.88, 0.00, 0.00, 0.00, 0.00
28, 45348.80, 50462.01, 22686.08, 37292.01, 27429.48, 39105.11, 25325.73, 0.00, 0.00, 0.00, 0.00
29, 45315.05, 50495.34, 22758.34, 37357.12, 27480.11, 39072.61, 25374.77, 0.00, 0.00, 0.00, 0.00
30, 45329.40, 50477.79, 22798.64, 37412.15, 27625.97, 39384.06, 25416.14, 0.00, 0.00, 0.00, 0.00
31, 45383.18, 50442.59, 22807.88, 37428.89, 27770.61, 39745.20, 25410.49, 0.00, 0.00, 0.00, 0.00
32, 45350.46, 50447.64, 22693.97, 37307.96, 27467.68, 39212.07, 25323.70, 0.00, 0.00, 0.00, 0.00
33, 45304.28, 50488.30, 22744.20, 37362.86, 27441.88, 39032.09, 25359.28, 0.00, 0.00, 0.00, 0.00
34, 45321.36, 50485.86, 22802.27, 37412.41, 27603.46, 39333.26, 25426.29, 0.00, 0.17, 0.95, 0.20
35, 45376.30, 50449.36, 22817.89, 37446.68, 27776.09, 39746.34, 25435.57, 0.00, 0.00, 0.00, 0.00
36, 45369.43, 50441.87, 22703.56, 37324.93, 27534.13, 39360.71, 25347.97, 0.00, 0.00, 0.00, 0.00
37, 45312.71, 50494.13, 22724.82, 37328.89, 27418.08, 39011.01, 25351.39, 0.00, 0.00, 0.00, 0.00
38, 45315.46, 50489.48, 22787.22, 37395.68, 27574.52, 39281.04, 25408.26, 0.00, 0.00, 0.00, 0.00
39, 45358.41, 50458.70, 22818.96, 37446.91, 27760.29, 39691.31, 25439.44, 0.00, 0.00, 0.00, 0.00
40, 45380.01, 50440.13, 22729.22, 37348.45, 27608.34, 39478.25, 25367.29, 0.00, 0.00, 0.00, 0.00
41, 45314.50, 50481.01, 22711.00, 37314.74, 27400.89, 38982.25, 25346.27, 0.00, 0.00, 0.00, 0.00
42, 45309.29, 50485.37, 22784.47, 37381.91, 27553.98, 39212.07, 25410.40, 0.00, 0.00, 0.00, 0.00
43, 45344.27, 50457.96, 22820.10, 37430.10, 27727.20, 39602.13, 25438.74, 0.00, 0.00, 0.00, 0.00
44, 45380.01, 50429.09, 22752.49, 37356.98, 27670.03, 39588.43, 25378.82, 0.00, 0.17, 0.96, 0.20
45, 45309.38, 50465.01, 22693.39, 37289.05, 27386.38, 38993.82, 25331.99, 0.00, 0.00, 0.00, 0.00
46, 45303.54, 50486.20, 22778.17, 37372.23, 27528.01, 39166.89, 25398.87, 0.00, 0.00, 0.00, 0.00
47, 45329.52, 50463.33, 22814.36, 37421.87, 27695.13, 39529.48, 25438.34, 0.00, 0.00, 0.00, 0.00
48, 45381.66, 50431.21, 22777.52, 37382.04, 27734.78, 39687.69, 25403.40, 0.00, 0.00, 0.00, 0.00
49, 45323.75, 50459.87, 22687.82, 37285.97, 27410.75, 39050.11, 25343.50, 0.00, 0.00, 0.00, 0.00
50, 45302.92, 50488.23, 22761.50, 37359.06, 27501.54, 39111.91, 25390.53, 0.00, 0.00, 0.00, 0.00
51, 45321.80, 50472.29, 22804.08, 37410.92, 27656.10, 39445.84, 25426.63, 0.00, 0.00, 0.00, 0.00
52, 45376.90, 50431.52, 22795.63, 37403.03, 27767.64, 39733.42, 25411.09, 0.00, 0.00, 0.00, 0.00
53, 45334.21, 50447.21, 22684.85, 37286.11, 27438.15, 39124.07, 25332.95, 0.00, 0.00, 0.00, 0.00
54, 45298.25, 50488.27, 22747.53, 37346.43, 27467.92, 39061.37, 25379.87, 0.00, 0.17, 0.96, 0.20
55, 45326.72, 50489.10, 22792.41, 37409.20, 27620.25, 39373.58, 25417.26, 0.00, 0.00, 0.00, 0.00
56, 45392.17, 50458.05, 22804.54, 37427.17, 27777.99, 39752.98, 25414.25, 0.00, 0.00, 0.00, 0.00
57, 45350.41, 50437.58, 22691.96, 37295.63, 27482.54, 39238.35, 25332.15, 0.00, 0.00, 0.00, 0.00
58, 45289.41, 50471.38, 22735.41, 37335.77, 27437.84, 39022.77, 25369.01, 0.00, 0.00, 0.00, 0.00
59, 45290.22, 50459.42, 22783.69, 37406.96, 27591.57, 39311.89, 25416.06, 0.00, 0.00, 0.00, 0.00
60, 45333.38, 50414.34, 22802.56, 37426.70, 27761.89, 39711.02, 25410.65, 0.00, 0.00, 0.00, 0.00
61, 45321.91, 50393.04, 22697.39, 37300.19, 27541.80, 39352.35, 25338.34, 0.00, 0.00, 0.00, 0.00
62, 45253.52, 50428.28, 22707.09, 37305.91, 27401.79, 38970.45, 25341.98, 0.00, 0.00, 0.00, 0.00
63, 45256.63, 50431.23, 22779.24, 37384.95, 27565.94, 39245.30, 25409.51, 0.00, 0.00, 0.00, 0.00
64, 45292.75, 50398.33, 22814.58, 37423.05, 27751.03, 39652.80, 25433.29, 0.00, 0.17, 0.96, 0.20
65, 45305.46, 50367.06, 22718.71, 37328.17, 27608.70, 39479.24, 25353.74, 0.00, 0.00, 0.00, 0.00
66, 45241.38, 50413.64, 22690.55, 37307.59, 27382.14, 38971.07, 25330.11, 0.00, 0.00, 0.00, 0.00
67, 45251.39, 50431.64, 22764.16, 37358.04, 27537.08, 39191.35, 25396.39, 0.00, 0.00, 0.00, 0.00
68, 45293.80, 50414.00, 22799.56, 37407.97, 27709.68, 39578.25, 25428.66, 0.00, 0.00, 0.00, 0.00
69, 45336.22, 50382.82, 22739.61, 37346.01, 27669.56, 39595.89, 25372.54, 0.00, 0.00, 0.00, 0.00
70, 45275.47, 50421.33, 22675.98, 37272.20, 27378.67, 38983.83, 25324.82, 0.00, 0.00, 0.00, 0.00
71, 45262.64, 50441.27, 22753.58, 37343.66, 27505.23, 39129.23, 25381.43, 0.00, 0.00, 0.00, 0.00
72, 45286.73, 50419.79, 22793.55, 37402.38, 27670.25, 39493.00, 25423.01, 0.00, 0.00, 0.00, 0.00
73, 45340.56, 50384.09, 22762.75, 37368.83, 27721.41, 39683.80, 25385.39, 0.00, 0.17, 0.96, 0.20
74, 45283.80, 50412.75, 22671.64, 37264.31, 27391.19, 39042.75, 25316.72, 0.00, 0.00, 0.00, 0.00
75, 45255.13, 50444.42, 22746.77, 37337.71, 27478.25, 39093.00, 25375.22, 0.00, 0.00, 0.00, 0.00
76, 45277.79, 50431.79, 22788.18, 37399.14, 27633.66, 39430.73, 25420.82, 0.00, 0.00, 0.00, 0.00
77, 45337.45, 50398.73, 22785.61, 37401.46, 27753.00, 39747.08, 25407.63, 0.00, 0.00, 0.00, 0.00
78, 45306.27, 50420.28, 22684.09, 37286.24, 27434.17, 39149.97, 25333.13, 0.00, 0.00, 0.00, 0.00
79, 45274.44, 50462.55, 22750.81, 37341.92, 27456.88, 39050.98, 25378.84, 0.00, 0.00, 0.00, 0.00
80, 45295.05, 50461.52, 22800.75, 37404.37, 27607.33, 39358.34, 25419.77, 0.00, 0.00, 0.00, 0.00
81, 45356.20, 50432.71, 22821.26, 37436.24, 27769.54, 39756.38, 25416.57, 0.00, 0.00, 0.00, 0.00
82, 45334.95, 50427.79, 22705.64, 37312.86, 27483.39, 39269.02, 25326.72, 0.00, 0.00, 0.00, 0.00
83, 45280.57, 50467.76, 22734.88, 37340.06, 27417.28, 39009.22, 25343.97, 0.00, 0.18, 0.97, 0.19
84, 45287.34, 50460.96, 22791.45, 37405.69, 27571.08, 39295.44, 25389.81, 0.00, 0.00, 0.00, 0.00
85, 45333.92, 50423.14, 22815.36, 37425.22, 27751.46, 39703.18, 25404.30, 0.00, 0.00, 0.00, 0.00
86, 45331.30, 50402.04, 22706.38, 37305.55, 27540.84, 39369.78, 25330.00, 0.00, 0.00, 0.00, 0.00
87, 45262.62, 50442.52, 22711.92, 37296.99, 27386.23, 38963.98, 25332.28, 0.00, 0.00, 0.00, 0.00
88, 45264.76, 50439.62, 22779.02, 37361.32, 27546.02, 39215.66, 25388.74, 0.00, 0.00, 0.00, 0.00
89, 45295.00, 50397.28, 22804.66, 37397.77, 27722.13, 39617.30, 25406.76, 0.00, 0.00, 0.00, 0.00
90, 45320.17, 50371.69, 22719.63, 37304.05, 27600.60, 39479.84, 25337.54, 0.00, 0.00, 0.00, 0.00
91, 45258.53, 50418.34, 22687.89, 37260.40, 27366.16, 38939.44, 25314.00, 0.00, 0.00, 0.00, 0.00
92, 45255.55, 50433.11, 22764.85, 37340.89, 27518.19, 39157.39, 25381.95, 0.00, 0.00, 0.00, 0.00
93, 45291.18, 50409.39, 22799.96, 37394.04, 27689.59, 39548.91, 25420.71, 0.00, 0.17, 0.96, 0.20
94, 45332.93, 50377.97, 22739.57, 37331.50, 27670.36, 39602.48, 25377.70, 0.00, 0.00, 0.00, 0.00
95, 45274.08, 50416.23, 22675.31, 37257.88, 27378.94, 38987.34, 25332.66, 0.00, 0.00, 0.00, 0.00
96, 45257.09, 50433.29, 22754.75, 37333.60, 27502.70, 39119.95, 25390.64, 0.00, 0.00, 0.00, 0.00
97, 45279.04, 50411.09, 22794.04, 37387.96, 27657.44, 39472.33, 25419.36, 0.00, 0.00, 0.00, 0.00
98, 45331.19, 50374.86, 22765.59, 37365.39, 27723.72, 39689.10, 25392.88, 0.00, 0.00, 0.00, 0.00
99, 45272.85, 50397.57, 22667.10, 37260.91, 27395.01, 39049.37, 25324.59, 0.00, 0.00, 0.00, 0.00
100, 45256.67, 50439.46, 22753.03, 37332.13, 27481.42, 39071.16, 25388.09, 0.00, 0.00, 0.00, 0.00
101, 45276.63, 50422.00, 22791.98, 37383.49, 27635.67, 39391.73, 25433.85, 0.00, 0.00, 0.00, 0.00
102, 45325.22, 50377.32, 22778.95, 37381.19, 27755.68, 39717.82, 25415.52, 0.00, 0.00, 0.00, 0.00
103, 45290.33, 50390.91, 22674.12, 37263.46, 27447.36, 39147.52, 25346.83, 0.00, 0.17, 0.97, 0.20
104, 45248.29, 50430.68, 22738.05, 37311.05, 27454.27, 39029.21, 25386.80, 0.00, 0.00, 0.00, 0.00
105, 45258.26, 50419.54, 22784.43, 37372.41, 27604.58, 39339.49, 25424.93, 0.00, 0.00, 0.00, 0.00
106, 45308.23, 50380.07, 22793.84, 37395.90, 27766.36, 39734.83, 25421.89, 0.00, 0.00, 0.00, 0.00
107, 45298.63, 50379.38, 22676.11, 37272.00, 27493.70, 39269.24, 25338.52, 0.00, 0.00, 0.00, 0.00
108, 45247.46, 50424.59, 22707.23, 37293.46, 27411.42, 38987.63, 25359.71, 0.00, 0.00, 0.00, 0.00
109, 45259.29, 50426.83, 22765.88, 37362.48, 27568.89, 39268.46, 25412.84, 0.00, 0.00, 0.00, 0.00
110, 45307.25, 50396.01, 22794.60, 37405.46, 27753.54, 39688.40, 25427.43, 0.00, 0.00, 0.00, 0.00
111, 45311.63, 50379.51, 22690.91, 37293.53, 27562.63, 39391.84, 25348.31, 0.00, 0.00, 0.00, 0.00
112, 45250.64, 50427.63, 22694.24, 37283.45, 27397.34, 38959.94, 25355.51, 0.00, 0.00, 0.00, 0.00
113, 45259.02, 50433.13, 22768.80, 37356.71, 27555.50, 39216.56, 25413.42, 0.00, 0.18, 0.96, 0.20
114, 45299.92, 50402.76, 22803.45, 37406.58, 27733.15, 39618.69, 25429.60, 0.00, 0.00, 0.00, 0.00
115, 45326.41, 50379.06, 22722.25, 37318.27, 27634.00, 39519.13, 25362.03, 0.00, 0.00, 0.00, 0.00
116, 45262.04, 50421.60, 22680.16, 37273.05, 27382.38, 38959.80, 25333.60, 0.00, 0.00, 0.00, 0.00
117, 45260.58, 50436.66, 22756.94, 37348.45, 27532.45, 39158.27, 25399.13, 0.00, 0.00, 0.00, 0.00
118, 45288.86, 50410.29, 22789.23, 37384.41, 27693.47, 39533.08, 25420.95, 0.00, 0.00, 0.00, 0.00
119, 45337.72, 50381.03, 22740.73, 37337.87, 27687.64, 39621.26, 25368.65, 0.00, 0.00, 0.00, 0.00
120, 45276.90, 50415.92, 22666.05, 37253.32, 27384.55, 38993.09, 25315.67, 0.00, 0.00, 0.00, 0.00
121, 45256.34, 50438.14, 22743.30, 37325.47, 27501.45, 39106.23, 25375.71, 0.00, 0.00, 0.00, 0.00
122, 45277.17, 50419.79, 22782.86, 37377.41, 27662.47, 39452.19, 25411.16, 0.00, 0.17, 0.96, 0.20
123, 45332.93, 50384.03, 22763.87, 37356.56, 27745.24, 39687.33, 25379.91, 0.00, 0.00, 0.00, 0.00
124, 45286.67, 50410.80, 22664.69, 37250.77, 27419.62, 39062.20, 25308.14, 0.00, 0.00, 0.00, 0.00
125, 45259.46, 50446.61, 22738.50, 37318.76, 27483.99, 39066.20, 25374.04, 0.00, 0.00, 0.00, 0.00
126, 45273.86, 50425.85, 22782.55, 37370.66, 27637.95, 39382.27, 25421.44, 0.00, 0.00, 0.00, 0.00
127, 45328.73, 50385.50, 22780.29, 37381.59, 27774.72, 39728.93, 25413.11, 0.00, 0.00, 0.00, 0.00
128, 45299.74, 50396.30, 22668.87, 37260.65, 27464.91, 39163.14, 25333.09, 0.00, 0.00, 0.00, 0.00
129, 45259.18, 50435.86, 22721.13, 37309.06, 27450.09, 39006.72, 25364.15, 0.00, 0.00, 0.00, 0.00
130, 45274.98, 50430.29, 22777.83, 37379.89, 27606.93, 39309.05, 25416.03, 0.00, 0.00, 0.00, 0.00
131, 45326.63, 50391.47, 22798.13, 37416.59, 27781.52, 39711.09, 25422.11, 0.00, 0.00, 0.00, 0.00
132, 45319.01, 50384.23, 22688.38, 37285.21, 27524.16, 39280.53, 25334.79, 0.00, 0.17, 0.96, 0.20
133, 45261.54, 50426.18, 22713.02, 37278.64, 27424.23, 38961.86, 25348.87, 0.00, 0.00, 0.00, 0.00
134, 45269.75, 50428.24, 22775.60, 37349.76, 27581.02, 39236.03, 25397.53, 0.00, 0.00, 0.00, 0.00
135, 45312.84, 50397.57, 22804.72, 37396.12, 27762.25, 39651.01, 25409.24, 0.00, 0.00, 0.00, 0.00
136, 45324.62, 50379.29, 22700.72, 37299.58, 27585.54, 39398.34, 25336.69, 0.00, 0.00, 0.00, 0.00
137, 45266.98, 50430.68, 22695.78, 37288.25, 27411.64, 38951.07, 25346.10, 0.00, 0.00, 0.00, 0.00
138, 45271.36, 50432.71, 22770.79, 37354.99, 27571.01, 39187.14, 25411.05, 0.00, 0.00, 0.00, 0.00
139, 45305.75, 50400.86, 22804.90, 37403.14, 27741.20, 39584.00, 25429.78, 0.00, 0.00, 0.00, 0.00
140, 45335.41, 50374.77, 22727.50, 37322.56, 27657.15, 39524.88, 25370.30, 0.00, 0.00, 0.00, 0.00
141, 45272.07, 50416.62, 22682.08, 37271.29, 27394.36, 38953.81, 25334.96, 0.00, 0.00, 0.00, 0.00
142, 45263.71, 50432.42, 22767.53, 37351.62, 27544.84, 39144.59, 25406.76, 0.00, 0.17, 0.96, 0.20
143, 45292.93, 50408.34, 22804.32, 37405.15, 27710.11, 39511.27, 25440.26, 0.00, 0.00, 0.00, 0.00
144, 45337.41, 50370.17, 22756.91, 37362.71, 27724.07, 39622.22, 25395.34, 0.00, 0.00, 0.00, 0.00
145, 45276.03, 50402.58, 22670.88, 37268.87, 27404.91, 38987.12, 25332.21, 0.00, 0.00, 0.00, 0.00
146, 45254.73, 50426.27, 22748.02, 37329.16, 27506.99, 39080.08, 25387.89, 0.00, 0.00, 0.00, 0.00
147, 45278.80, 50406.63, 22788.65, 37390.67, 27660.69, 39426.57, 25428.82, 0.00, 0.00, 0.00, 0.00
148, 45336.91, 50367.66, 22772.98, 37376.00, 27748.62, 39688.72, 25402.94, 0.00, 0.00, 0.00, 0.00
149, 45289.91, 50391.47, 22674.14, 37264.29, 27429.70, 39070.38, 25334.56, 0.00, 0.00, 0.00, 0.00
150, 45254.68, 50423.23, 22743.10, 37326.43, 27484.69, 39036.14, 25384.34, 0.00, 0.00, 0.00, 0.00
151, 45267.82, 50407.83, 22787.09, 37381.04, 27634.04, 39347.94, 25425.09, 0.00, 0.00, 0.00, 0.00
152, 45318.99, 50370.08, 22787.71, 37391.00, 27776.82, 39704.86, 25419.72, 0.00, 0.17, 0.95, 0.20
153, 45290.85, 50372.96, 22673.86, 37266.32, 27475.26, 39166.38, 25336.37, 0.00, 0.00, 0.00, 0.00
154, 45244.38, 50411.43, 22722.51, 37303.38, 27445.79, 38982.52, 25366.03, 0.00, 0.00, 0.00, 0.00
155, 45259.22, 50408.25, 22776.74, 37367.20, 27599.13, 39283.77, 25412.52, 0.00, 0.00, 0.00, 0.00
156, 45313.11, 50376.85, 22797.39, 37399.63, 27769.05, 39687.15, 25414.00, 0.00, 0.00, 0.00, 0.00
157, 45310.94, 50372.20, 22687.47, 37286.75, 27530.15, 39299.46, 25338.99, 0.00, 0.00, 0.00, 0.00
158, 45255.91, 50418.14, 22708.86, 37295.67, 27416.49, 38962.35, 25356.67, 0.00, 0.00, 0.00, 0.00
159, 45267.69, 50423.50, 22775.78, 37369.19, 27574.59, 39238.02, 25413.29, 0.00, 0.00, 0.00, 0.00
160, 45311.05, 50393.97, 22805.46, 37419.32, 27755.37, 39649.91, 25425.49, 0.00, 0.00, 0.00, 0.00
161, 45328.00, 50375.11, 22708.12, 37323.01, 27596.87, 39425.26, 25344.84, 0.00, 0.00, 0.00, 0.00
162, 45261.92, 50417.51, 22687.40, 37289.95, 27399.17, 38947.15, 25342.59, 0.00, 0.17, 0.95, 0.20
163, 45258.93, 50425.20, 22754.61, 37380.34, 27550.22, 39185.04, 25406.38, 0.00, 0.00, 0.00, 0.00
164, 45290.76, 50392.72, 22791.98, 37412.04, 27719.38, 39581.68, 25430.90, 0.00, 0.00, 0.00, 0.00
165, 45321.27, 50356.89, 22730.63, 37330.34, 27663.57, 39547.03, 25376.18, 0.00, 0.00, 0.00, 0.00
166, 45264.56, 50407.45, 22680.67, 37275.85, 27404.38, 38956.61, 25345.83, 0.00, 0.00, 0.00, 0.00
167, 45253.43, 50423.43, 22756.44, 37349.76, 27538.46, 39127.42, 25400.01, 0.00, 0.00, 0.00, 0.00
168, 45274.20, 50394.69, 22791.89, 37400.59, 27694.84, 39489.52, 25426.29, 0.00, 0.00, 0.00, 0.00
169, 45327.84, 50360.63, 22750.12, 37359.06, 27722.35, 39639.45, 25384.05, 0.00, 0.00, 0.00, 0.00
170, 45275.40, 50392.09, 22664.47, 37254.32, 27399.97, 38994.05, 25320.48, 0.00, 0.00, 0.00, 0.00
171, 45257.65, 50427.21, 22743.17, 37330.05, 27501.12, 39071.18, 25383.69, 0.00, 0.16, 0.96, 0.20
172, 45274.78, 50408.52, 22786.24, 37391.58, 27658.27, 39412.85, 25426.07, 0.00, 0.00, 0.00, 0.00
173, 45317.07, 50353.52, 22781.72, 37366.28, 27763.97, 39691.18, 25404.68, 0.00, 0.00, 0.00, 0.00
174, 45264.81, 50359.80, 22673.12, 37242.32, 27431.20, 39070.31, 25318.74, 0.00, 0.00, 0.00, 0.00
175, 45219.61, 50382.77, 22724.30, 37298.80, 27467.16, 39015.50, 25365.47, 0.00, 0.00, 0.00, 0.00
176, 45236.18, 50373.77, 22773.61, 37362.62, 27624.72, 39340.05, 25414.49, 0.00, 0.00, 0.00, 0.00
177, 45290.62, 50334.36, 22780.18, 37375.31, 27776.49, 39706.26, 25398.31, 0.00, 0.00, 0.00, 0.00
178, 45270.02, 50339.01, 22662.88, 37247.46, 27476.69, 39178.89, 25315.38, 0.00, 0.00, 0.00, 0.00
179, 45231.75, 50389.39, 22715.54, 37286.08, 27438.08, 38965.39, 25355.19, 0.00, 0.00, 0.00, 0.00
180, 45242.05, 50389.52, 22773.16, 37351.98, 27597.65, 39262.47, 25406.80, 0.00, 0.00, 0.00, 0.00
181, 45290.18, 50356.09, 22793.21, 37388.86, 27775.57, 39677.43, 25419.25, 0.00, 0.16, 0.96, 0.19
182, 45287.25, 50339.68, 22681.90, 37268.45, 27544.37, 39306.01, 25337.06, 0.00, 0.00, 0.00, 0.00
183, 45235.86, 50388.27, 22697.03, 37274.86, 27410.90, 38937.21, 25341.87, 0.00, 0.00, 0.00, 0.00
184, 45241.88, 50393.91, 22765.63, 37348.73, 27573.42, 39213.92, 25404.97, 0.00, 0.00, 0.00, 0.00
185, 45281.17, 50364.40, 22796.83, 37396.95, 27752.46, 39631.39, 25424.91, 0.00, 0.00, 0.00, 0.00
186, 45304.26, 50345.61, 22707.14, 37303.36, 27607.78, 39445.17, 25351.62, 0.00, 0.00, 0.00, 0.00
187, 45237.63, 50389.91, 22682.95, 37264.78, 27389.71, 38934.91, 25330.43, 0.00, 0.00, 0.00, 0.00
188, 45236.09, 50406.29, 22753.81, 37343.46, 27538.53, 39164.37, 25388.07, 0.00, 0.00, 0.00, 0.00
189, 45275.71, 50384.85, 22793.68, 37402.20, 27713.50, 39560.82, 25419.97, 0.00, 0.00, 0.00, 0.00
190, 45319.81, 50354.93, 22731.46, 37343.41, 27674.01, 39579.35, 25371.98, 0.00, 0.00, 0.00, 0.00
191, 45255.20, 50389.77, 22665.43, 37269.97, 27386.00, 38969.75, 25327.52, 0.00, 0.16, 0.96, 0.20
192, 45248.51, 50416.17, 22757.07, 37360.54, 27519.65, 39129.43, 25389.12, 0.00, 0.00, 0.00, 0.00
193, 45279.92, 50398.15, 22795.67, 37402.40, 27681.72, 39488.56, 25421.22, 0.00, 0.00, 0.00, 0.00
194, 45329.52, 50362.23, 22749.81, 37361.12, 27721.39, 39658.88, 25381.23, 0.00, 0.00, 0.00, 0.00
195, 45271.76, 50392.79, 22656.35, 37261.79, 27395.46, 39023.69, 25318.58, 0.00, 0.00, 0.00, 0.00
196, 45246.66, 50422.09, 22734.63, 37335.08, 27479.48, 39078.85, 25369.45, 0.00, 0.00, 0.00, 0.00
197, 45267.54, 50405.26, 22774.08, 37390.91, 27629.97, 39406.97, 25409.24, 0.00, 0.00, 0.00, 0.00
198, 45327.59, 50370.01, 22766.90, 37391.29, 27751.54, 39717.75, 25397.41, 0.00, 0.00, 0.00, 0.00
199, 45288.72, 50384.12, 22660.35, 37266.01, 27430.37, 39110.90, 25308.48, 0.00, 0.00, 0.00, 0.00
200, 45253.99, 50424.02, 22726.34, 37322.20, 27453.82, 39024.94, 25356.18, 0.00, 0.00, 0.00, 0.00
201, 45267.82, 50414.56, 22773.45, 37384.36, 27605.41, 39334.20, 25408.84, 0.00, 0.16, 0.97, 0.19
202, 45323.21, 50379.60, 22784.45, 37413.42, 27767.97, 39719.92, 25411.43, 0.00, 0.00, 0.00, 0.00
203, 45303.88, 50381.14, 22671.26, 37292.32, 27484.35, 39231.31, 25330.09, 0.00, 0.00, 0.00, 0.00
204, 45249.07, 50423.59, 22706.04, 37318.72, 27418.12, 38986.18, 25349.76, 0.00, 0.00, 0.00, 0.00
205, 45264.76, 50425.94, 22762.48, 37386.58, 27571.79, 39277.29, 25400.37, 0.00, 0.00, 0.00, 0.00
206, 45316.73, 50393.59, 22791.02, 37422.77, 27756.02, 39694.17, 25420.53, 0.00, 0.00, 0.00, 0.00
207, 45322.95, 50381.97, 22692.34, 37311.57, 27547.76, 39363.32, 25344.82, 0.00, 0.00, 0.00, 0.00
208, 45255.20, 50420.91, 22693.90, 37302.47, 27386.16, 38967.11, 25331.30, 0.00, 0.00, 0.00, 0.00
209, 45260.85, 50425.64, 22760.65, 37372.27, 27545.46, 39225.21, 25394.89, 0.00, 0.00, 0.00, 0.00
210, 45303.92, 50392.32, 22794.11, 37422.99, 27731.63, 39642.49, 25438.74, 0.00, 0.16, 0.96, 0.20
211, 45325.02, 50366.26, 22706.55, 37328.71, 27611.18, 39493.54, 25368.94, 0.00, 0.00, 0.00, 0.00
212, 45257.09, 50409.42, 22674.06, 37301.28, 27377.38, 38964.57, 25339.43, 0.00, 0.00, 0.00, 0.00
213, 45255.17, 50422.05, 22752.35, 37369.46, 27527.38, 39176.82, 25398.00, 0.00, 0.00, 0.00, 0.00
214, 45281.41, 50391.69, 22785.14, 37401.38, 27691.75, 39558.81, 25418.58, 0.00, 0.00, 0.00, 0.00
215, 45317.54, 50357.76, 22723.32, 37339.39, 27665.58, 39604.63, 25364.63, 0.00, 0.00, 0.00, 0.00
216, 45252.94, 50392.14, 22657.43, 37265.27, 27373.04, 38992.82, 25316.21, 0.00, 0.00, 0.00, 0.00
217, 45237.79, 50411.68, 22739.97, 37343.10, 27504.07, 39127.55, 25393.23, 0.00, 0.00, 0.00, 0.00
218, 45257.77, 50387.18, 22776.94, 37394.98, 27661.09, 39472.11, 25428.33, 0.00, 0.00, 0.00, 0.00
219, 45306.09, 50348.93, 22746.01, 37361.10, 27720.01, 39672.31, 25391.16, 0.00, 0.00, 0.00, 0.00
220, 45249.41, 50364.78, 22655.41, 37257.36, 27398.68, 39040.63, 25324.35, 0.00, 0.16, 0.96, 0.21
221, 45214.07, 50385.99, 22727.99, 37320.80, 27473.78, 39065.91, 25377.41, 0.00, 0.00, 0.00, 0.00
222, 45223.48, 50361.38, 22768.02, 37374.53, 27625.15, 39388.98, 25419.39, 0.00, 0.00, 0.00, 0.00
223, 45265.66, 50308.61, 22761.61, 37372.92, 27751.28, 39709.93, 25403.34, 0.00, 0.00, 0.00, 0.00
224, 45217.38, 50310.11, 22646.03, 37247.80, 27430.19, 39122.39, 25325.67, 0.00, 0.00, 0.00, 0.00
225, 45176.96, 50348.69, 22708.10, 37300.61, 27436.79, 39009.20, 25363.24, 0.00, 0.00, 0.00, 0.00
226, 45173.52, 50321.38, 22754.16, 37353.09, 27580.80, 39312.76, 25401.75, 0.00, 0.00, 0.00, 0.00
227, 45213.62, 50274.84, 22766.50, 37381.08, 27743.48, 39707.40, 25404.43, 0.00, 0.00, 0.00, 0.00
228, 45187.80, 50268.49, 22651.39, 37261.90, 27474.49, 39241.61, 25324.10, 0.00, 0.00, 0.00, 0.00
229, 45131.59, 50311.25, 22681.63, 37282.84, 27402.59, 38968.68, 25346.72, 0.00, 0.00, 0.00, 0.00
230, 45133.02, 50297.55, 22739.52, 37342.30, 27554.51, 39255.05, 25394.04, 0.00, 0.16, 0.95, 0.20
231, 45173.07, 50256.35, 22769.36, 37392.25, 27743.97, 39678.01, 25416.08, 0.00, 0.00, 0.00, 0.00
232, 45176.76, 50243.21, 22670.46, 37280.14, 27550.20, 39377.83, 25347.75, 0.00, 0.00, 0.00, 0.00
233, 45100.86, 50272.91, 22662.16, 37255.84, 27377.71, 38945.86, 25335.16, 0.00, 0.00, 0.00, 0.00
234, 45106.47, 50279.20, 22733.62, 37330.45, 27535.49, 39204.67, 25395.89, 0.00, 0.00, 0.00, 0.00
235, 45144.78, 50251.10, 22769.63, 37388.66, 27716.86, 39615.18, 25427.88, 0.00, 0.00, 0.00, 0.00
236, 45159.86, 50214.04, 22689.32, 37303.47, 27613.81, 39501.70, 25361.70, 0.00, 0.00, 0.00, 0.00
237, 45096.63, 50267.24, 22653.67, 37258.32, 27368.88, 38953.46, 25331.32, 0.00, 0.00, 0.00, 0.00
238, 45085.75, 50282.32, 22729.58, 37334.45, 27516.16, 39156.32, 25394.73, 0.00, 0.00, 0.00, 0.00
239, 45104.84, 50246.23, 22762.59, 37381.46, 27680.44, 39528.37, 25423.32, 0.00, 0.00, 0.00, 0.00
240, 45159.29, 50223.68, 22710.13, 37323.07, 27668.62, 39595.00, 25368.51, 0.00, 0.17, 0.96, 0.21
241, 45103.20, 50253.67, 22648.96, 37242.68, 27376.37, 38976.66, 25320.35, 0.00, 0.00, 0.00, 0.00
242, 45082.89, 50270.21, 22730.23, 37314.65, 27496.24, 39094.92, 25376.63, 0.00, 0.00, 0.00, 0.00
243, 45111.61, 50259.89, 22765.29, 37379.25, 27643.72, 39440.12, 25403.54, 0.00, 0.00, 0.00, 0.00
244, 45172.09, 50231.81, 22753.99, 37355.71, 27727.74, 39683.46, 25394.51, 0.00, 0.00, 0.00, 0.00
245, 45132.60, 50260.80, 22648.93, 37231.23, 27406.90, 39050.26, 25332.35, 0.00, 0.00, 0.00, 0.00
246, 45115.25, 50299.22, 22712.08, 37303.43, 27465.96, 39050.15, 25377.01, 0.00, 0.00, 0.00, 0.00
247, 45131.66, 50287.24, 22756.47, 37356.16, 27611.09, 39368.30, 25411.54, 0.00, 0.00, 0.00, 0.00
248, 45187.96, 50253.67, 22757.74, 37360.63, 27742.52, 39705.17, 25399.67, 0.00, 0.00, 0.00, 0.00
249, 45166.26, 50275.17, 22651.12, 37241.54, 27439.25, 39143.18, 25326.56, 0.00, 0.00, 0.00, 0.00
250, 45131.25, 50315.96, 22705.19, 37286.04, 27433.28, 39000.64, 25360.00, 0.00, 0.16, 0.96, 0.20
251, 45146.54, 50313.44, 22753.65, 37348.07, 27583.10, 39300.98, 25401.95, 0.00, 0.00, 0.00, 0.00
252, 45207.79, 50285.39, 22774.55, 37380.70, 27751.34, 39706.66, 25399.87, 0.00, 0.00, 0.00, 0.00
253, 45205.62, 50288.05, 22665.81, 37264.92, 27488.29, 39269.84, 25310.56, 0.00, 0.00, 0.00, 0.00
254, 45157.12, 50338.05, 22693.12, 37289.93, 27401.47, 38969.84, 25341.42, 0.00, 0.00, 0.00, 0.00
255, 45168.92, 50336.66, 22754.57, 37341.61, 27558.04, 39251.70, 25397.21, 0.00, 0.00, 0.00, 0.00
0, 45213.35, 50306.42, 22781.95, 37387.38, 27736.59, 39660.91, 25412.48, 0.00, 0.00, 0.00, 0.00
1, 45230.52, 50296.30, 22685.28, 37283.25, 27562.79, 39394.01, 25339.52, 0.00, 0.00, 0.00, 0.00
2, 45174.53, 50348.71, 22679.96, 37268.98, 27381.36, 38943.62, 25336.44, 0.00, 0.00, 0.00, 0.00
3, 45180.41, 50358.01, 22747.55, 37343.10, 27531.18, 39193.83, 25391.78, 0.00, 0.16, 0.95, 0.20
4, 45213.29, 50328.21, 22775.51, 37388.61, 27701.90, 39587.71, 25412.17, 0.00, 0.00, 0.00, 0.00
5, 45242.88, 50307.02, 22702.64, 37310.16, 27623.65, 39521.19, 25349.52, 0.00, 0.00, 0.00, 0.00
6, 45181.12, 50348.60, 22654.92, 37253.81, 27359.29, 38940.22, 25311.47, 0.00, 0.00, 0.00, 0.00
7, 45179.22, 50364.89, 22735.03, 37336.11, 27496.24, 39130.13, 25377.59, 0.00, 0.00, 0.00, 0.00
8, 45211.43, 50345.58, 22770.26, 37390.91, 27660.60, 39499.02, 25409.13, 0.00, 0.00, 0.00, 0.00
9, 45266.39, 50317.66, 22728.37, 37349.85, 27683.42, 39630.51, 25369.36, 0.00, 0.00, 0.00, 0.00
10, 45212.21, 50346.48, 22645.24, 37255.37, 27369.91, 39003.82, 25309.26, 0.00, 0.00, 0.00, 0.00
11, 45191.27, 50375.36, 22723.74, 37328.42, 27465.15, 39083.43, 25363.73, 0.00, 0.00, 0.00, 0.00
12, 45213.80, 50362.08, 22761.99, 37381.86, 27612.54, 39418.64, 25397.66, 0.00, 0.00, 0.00, 0.00
13, 45267.49, 50330.52, 22750.07, 37373.30, 27715.47, 39696.50, 25383.94, 0.00, 0.17, 0.96, 0.20
14, 45233.61, 50346.83, 22650.83, 37260.67, 27419.35, 39123.53, 25313.53, 0.00, 0.00, 0.00, 0.00
15, 45195.49, 50380.61, 22706.42, 37308.37, 27429.63, 39017.50, 25358.88, 0.00, 0.00, 0.00, 0.00
16, 45204.97, 50368.27, 22744.13, 37364.58, 27570.88, 39319.49, 25408.52, 0.00, 0.00, 0.00, 0.00
17, 45245.38, 50345.83, 22739.19, 37379.74, 27653.49, 39582.97, 25405.01, 0.00, 0.00, 0.00, 0.00
18, 45250.90, 50351.39, 22686.93, 37297.86, 27500.78, 39261.80, 25347.19, 0.00, 0.00, 0.00, 0.00
19, 45221.40, 50368.89, 22711.21, 37298.87, 27470.05, 39092.93, 25367.35, 0.00, 0.00, 0.00, 0.00
20, 45210.34, 50362.03, 22735.81, 37344.45, 27550.51, 39276.17, 25404.46, 0.00, 0.00, 0.00, 0.00
21, 45246.05, 50355.98, 22749.69, 37381.73, 27654.36, 39562.50, 25416.75, 0.00, 0.00, 0.00, 0.00
22, 45264.83, 50362.97, 22702.08, 37317.18, 27539.45, 39342.24, 25362.66, 0.00, 0.00, 0.00, 0.00
23, 45238.95, 50380.09, 22710.00, 37310.52, 27465.09, 39096.44, 25358.05, 0.00, 0.16, 0.96, 0.21
24, 45232.69, 50384.88, 22743.05, 37362.93, 27533.28, 39251.94, 25392.10, 0.00, 0.00, 0.00, 0.00
25, 45258.79, 50374.21, 22759.39, 37402.43, 27640.30, 39543.09, 25403.40, 0.00, 0.00, 0.00, 0.00
26, 45274.21, 50358.68, 22711.36, 37331.64, 27560.95, 39413.72, 25355.95, 0.00, 0.00, 0.00, 0.00
27, 45234.32, 50367.64, 22694.93, 37300.79, 27446.96, 39092.17, 25341.04, 0.00, 0.00, 0.00, 0.00
28, 45218.20, 50370.84, 22728.84, 37332.82, 27514.77, 39198.77, 25376.78, 0.00, 0.00, 0.00, 0.00
29, 45237.09, 50358.79, 22749.96, 37364.40, 27623.47, 39478.61, 25391.96, 0.00, 0.00, 0.00, 0.00
30, 45265.81, 50349.94, 22713.73, 37326.83, 27601.70, 39478.41, 25366.37, 0.00, 0.00, 0.00, 0.00
31, 45237.85, 50362.82, 22681.25, 37273.79, 27456.23, 39108.36, 25335.97, 0.00, 0.00, 0.00, 0.00
32, 45209.73, 50361.32, 22712.81, 37311.34, 27501.36, 39152.79, 25366.26, 0.00, 0.00, 0.00, 0.00
33, 45218.20, 50348.27, 22736.22, 37353.59, 27600.80, 39409.90, 25392.05, 0.00, 0.16, 0.96, 0.21
34, 45254.12, 50337.71, 22716.99, 37337.87, 27623.85, 39521.88, 25374.53, 0.00, 0.00, 0.00, 0.00
35, 45235.68, 50354.84, 22678.73, 37273.93, 27467.28, 39141.14, 25335.46, 0.00, 0.00, 0.00, 0.00
36, 45204.84, 50359.17, 22709.51, 37300.46, 27488.40, 39118.95, 25360.60, 0.00, 0.00, 0.00, 0.00
37, 45198.87, 50342.23, 22731.57, 37342.45, 27579.57, 39353.38, 25392.68, 0.00, 0.00, 0.00, 0.00
38, 45240.76, 50331.01, 22728.59, 37349.27, 27645.04, 39545.18, 25387.92, 0.00, 0.00, 0.00, 0.00
39, 45238.52, 50348.53, 22678.37, 37273.34, 27490.34, 39196.42, 25345.51, 0.00, 0.00, 0.00, 0.00
40, 45211.32, 50365.56, 22704.01, 37289.39, 27481.38, 39097.74, 25361.56, 0.00, 0.00, 0.00, 0.00
41, 45203.27, 50351.26, 22729.46, 37329.56, 27560.97, 39301.50, 25383.40, 0.00, 0.00, 0.00, 0.00
42, 45238.16, 50335.70, 22732.57, 37352.38, 27644.21, 39555.28, 25376.98, 0.00, 0.00, 0.00, 0.00
43, 45249.32, 50345.80, 22685.66, 37284.25, 27510.24, 39265.38, 25335.50, 0.00, 0.16, 0.96, 0.21
44, 45217.89, 50362.32, 22699.02, 37283.74, 27463.01, 39079.63, 25351.55, 0.00, 0.00, 0.00, 0.00
45, 45208.84, 50355.26, 22727.39, 37329.40, 27541.48, 39257.89, 25386.73, 0.00, 0.00, 0.00, 0.00
46, 45239.06, 50341.63, 22734.94, 37371.22, 27642.36, 39541.15, 25396.72, 0.00, 0.00, 0.00, 0.00
47, 45255.22, 50345.71, 22693.44, 37307.32, 27540.28, 39338.71, 25350.32, 0.00, 0.00, 0.00, 0.00
48, 45224.26, 50360.22, 22695.83, 37290.84, 27458.42, 39071.83, 25348.58, 0.00, 0.00, 0.00, 0.00
49, 45208.82, 50355.35, 22726.36, 37300.25, 27523.36, 39203.19, 25380.65, 0.00, 0.00, 0.00, 0.00
50, 45235.59, 50343.46, 22750.45, 37343.68, 27634.31, 39493.72, 25401.84, 0.00, 0.00, 0.00, 0.00
51, 45259.22, 50337.65, 22705.21, 37304.10, 27575.41, 39410.80, 25370.21, 0.00, 0.00, 0.00, 0.00
52, 45226.99, 50353.54, 22690.02, 37268.31, 27457.96, 39079.83, 25351.59, 0.00, 0.16, 0.96, 0.21
53, 45209.66, 50357.00, 22724.66, 37309.89, 27520.00, 39170.27, 25385.86, 0.00, 0.00, 0.00, 0.00
54, 45224.04, 50349.23, 22747.64, 37363.38, 27624.27, 39454.63, 25415.41, 0.00, 0.00, 0.00, 0.00
55, 45257.05, 50341.83, 22716.93, 37331.32, 27607.00, 39482.21, 25386.35, 0.00, 0.00, 0.00, 0.00
56, 45239.19, 50361.70, 22693.12, 37282.24, 27463.68, 39115.06, 25352.55, 0.00, 0.00, 0.00, 0.00
57, 45219.54, 50365.63, 22728.33, 37312.17, 27503.62, 39142.24, 25384.58, 0.00, 0.00, 0.00, 0.00
58, 45228.30, 50354.50, 22755.04, 37357.21, 27600.38, 39404.85, 25411.43, 0.00, 0.00, 0.00, 0.00
59, 45268.20, 50349.20, 22738.94, 37351.75, 27633.48, 39542.65, 25392.36, 0.00, 0.00, 0.00, 0.00
60, 45250.43, 50363.13, 22693.35, 37280.59, 27473.78, 39160.39, 25342.36, 0.00, 0.00, 0.00, 0.00
61, 45223.10, 50368.94, 22725.38, 37303.07, 27492.51, 39113.05, 25366.05, 0.00, 0.00, 0.00, 0.00
62, 45223.12, 50358.25, 22747.86, 37350.88, 27584.82, 39350.89, 25401.62, 0.00, 0.16, 0.96, 0.20
63, 45254.70, 50343.30, 22738.29, 37351.69, 27648.57, 39566.81, 25394.98, 0.00, 0.00, 0.00, 0.00
64, 45246.43, 50348.18, 22690.10, 37281.55, 27497.21, 39225.05, 25349.29, 0.00, 0.00, 0.00, 0.00
65, 45217.46, 50358.90, 22714.54, 37296.84, 27480.08, 39108.24, 25367.84, 0.00, 0.00, 0.00, 0.00
66, 45214.40, 50352.53, 22740.37, 37346.52, 27561.58, 39308.80, 25396.70, 0.00, 0.00, 0.00, 0.00
67, 45244.98, 50338.83, 22747.15, 37368.45, 27654.38, 39565.43, 25398.20, 0.00, 0.00, 0.00, 0.00
68, 45248.54, 50338.88, 22695.63, 37291.96, 27529.84, 39289.25, 25350.05, 0.00, 0.00, 0.00, 0.00
69, 45223.93, 50359.39, 22707.09, 37293.28, 27475.48, 39088.35, 25351.75, 0.00, 0.00, 0.00, 0.00
70, 45217.24, 50360.00, 22736.55, 37342.97, 27551.81, 39264.68, 25389.23, 0.00, 0.00, 0.00, 0.00
71, 45247.08, 50346.03, 22752.58, 37378.31, 27657.67, 39549.91, 25403.38, 0.00, 0.00, 0.00, 0.00
72, 45264.56, 50345.61, 22709.01, 37315.21, 27559.25, 39364.33, 25351.88, 0.00, 0.16, 0.97, 0.20
73, 45233.87, 50365.14, 22705.17, 37299.74, 27468.08, 39081.55, 25340.39, 0.00, 0.00, 0.00, 0.00
74, 45216.19, 50362.30, 22730.54, 37346.90, 27531.25, 39199.84, 25371.11, 0.00, 0.00, 0.00, 0.00
75, 45237.96, 50350.10, 22751.33, 37379.11, 27641.26, 39489.14, 25394.89, 0.00, 0.00, 0.00, 0.00
76, 45267.46, 50345.94, 22716.81, 37325.51, 27602.57, 39434.24, 25373.88, 0.00, 0.00, 0.00, 0.00
77, 45237.43, 50365.05, 22693.26, 37290.22, 27476.46, 39090.74, 25349.49, 0.00, 0.00, 0.00, 0.00
78, 45216.08, 50361.27, 22724.24, 37324.89, 27527.76, 39161.21, 25379.13, 0.00, 0.00, 0.00, 0.00
79, 45229.94, 50346.43, 22747.12, 37368.61, 27626.71, 39441.08, 25401.42, 0.00, 0.00, 0.00, 0.00
80, 45268.61, 50340.64, 22721.42, 37342.79, 27624.92, 39494.64, 25377.52, 0.00, 0.00, 0.00, 0.00
81, 45246.32, 50357.34, 22690.30, 37293.82, 27476.17, 39124.45, 25343.79, 0.00, 0.00, 0.00, 0.00
82, 45221.33, 50362.30, 22722.47, 37331.82, 27511.67, 39132.05, 25374.37, 0.00, 0.16, 0.97, 0.21
83, 45231.84, 50359.06, 22752.58, 37380.74, 27615.15, 39388.87, 25406.65, 0.00, 0.00, 0.00, 0.00
84, 45265.61, 50343.70, 22736.28, 37370.30, 27651.88, 39545.69, 25391.76, 0.00, 0.00, 0.00, 0.00
85, 45250.32, 50350.79, 22688.21, 37296.41, 27494.50, 39166.38, 25344.06, 0.00, 0.00, 0.00, 0.00
86, 45226.47, 50368.47, 22717.08, 37323.05, 27503.80, 39104.96, 25360.42, 0.00, 0.00, 0.00, 0.00
87, 45225.33, 50360.31, 22739.17, 37371.13, 27588.44, 39335.00, 25392.27, 0.00, 0.00, 0.00, 0.00
88, 45264.61, 50348.89, 22742.43, 37387.83, 27665.78, 39556.95, 25395.45, 0.00, 0.00, 0.00, 0.00
89, 45260.22, 50355.02, 22694.31, 37308.12, 27520.16, 39225.84, 25351.97, 0.00, 0.00, 0.00, 0.00
90, 45228.44, 50363.82, 22711.49, 37316.86, 27495.37, 39089.73, 25366.19, 0.00, 0.00, 0.00, 0.00
91, 45218.94, 50357.23, 22737.83, 37365.39, 27575.64, 39280.62, 25397.26, 0.00, 0.14, 0.97, 0.21
92, 45243.89, 50340.02, 22745.04, 37388.88, 27665.29, 39542.29, 25403.67, 0.00, 0.00, 0.00, 0.00
93, 45250.28, 50338.59, 22697.66, 37316.82, 27538.67, 39286.86, 25354.92, 0.00, 0.00, 0.00, 0.00
94, 45224.26, 50357.16, 22709.33, 37309.26, 27476.84, 39072.68, 25362.48, 0.00, 0.00, 0.00, 0.00
95, 45206.83, 50346.61, 22734.09, 37345.81, 27546.24, 39223.11, 25390.93, 0.00, 0.00, 0.00, 0.00
96, 45233.09, 50336.98, 22745.09, 37382.20, 27650.74, 39504.43, 25402.38, 0.00, 0.00, 0.00, 0.00
97, 45265.79, 50347.73, 22704.41, 37324.93, 27564.64, 39346.45, 25353.98, 0.00, 0.00, 0.00, 0.00
98, 45230.41, 50348.71, 22699.27, 37292.05, 27471.70, 39054.49, 25342.79, 0.00, 0.00, 0.00, 0.00
99, 45216.37, 50344.42, 22735.81, 37335.95, 27535.72, 39178.98, 25380.90, 0.00, 0.00, 0.00, 0.00
100, 45238.12, 50330.52, 22759.57, 37380.92, 27642.94, 39471.91, 25405.73, 0.00, 0.00, 0.00, 0.00
101, 45279.29, 50330.27, 22729.13, 37335.97, 27604.36, 39435.52, 25369.65, 0.00, 0.13, 0.97, 0.20
102, 45262.04, 50347.55, 22712.08, 37293.39, 27476.57, 39086.52, 25339.70, 0.00, 0.00, 0.00, 0.00
103, 45249.79, 50354.43, 22750.90, 37323.79, 27531.29, 39151.11, 25377.28, 0.00, 0.00, 0.00, 0.00
104, 45262.41, 50339.17, 22773.14, 37357.86, 27627.22, 39413.25, 25397.30, 0.00, 0.00, 0.00, 0.00
105, 45302.07, 50332.26, 22753.92, 37330.38, 27632.37, 39473.87, 25369.34, 0.00, 0.00, 0.00, 0.00
106, 45291.88, 50348.96, 22720.50, 37267.58, 27483.06, 39105.25, 25329.96, 0.00, 0.00, 0.00, 0.00
107, 45282.64, 50362.68, 22756.13, 37300.32, 27514.59, 39110.81, 25364.40, 0.00, 0.00, 0.00, 0.00
108, 45295.96, 50360.02, 22781.90, 37366.26, 27606.71, 39368.91, 25396.34, 0.00, 0.00, 0.00, 0.00
109, 45336.76, 50351.53, 22768.18, 37338.95, 27651.90, 39525.71, 25379.15, 0.00, 0.00, 0.00, 0.00
110, 45333.05, 50363.80, 22723.99, 37248.09, 27494.95, 39142.98, 25324.37, 0.00, 0.00, 0.00, 0.00
111, 45327.13, 50393.10, 22754.14, 37278.77, 27500.45, 39074.40, 25347.99, 0.00, 0.13, 0.97, 0.21
112, 45333.61, 50397.95, 22780.72, 37335.17, 27586.68, 39310.82, 25394.33, 0.00, 0.00, 0.00, 0.00
113, 45369.32, 50384.45, 22786.80, 37353.47, 27671.59, 39551.79, 25406.18, 0.00, 0.00, 0.00, 0.00
114, 45371.18, 50388.47, 22734.58, 37274.08, 27527.49, 39215.11, 25347.64, 0.00, 0.00, 0.00, 0.00
115, 45345.52, 50408.39, 22752.58, 37280.38, 27491.93, 39062.69, 25357.67, 0.00, 0.00, 0.00, 0.00
116, 45331.32, 50399.85, 22777.34, 37320.10, 27558.31, 39252.37, 25383.27, 0.00, 0.00, 0.00, 0.00
117, 45365.16, 50388.96, 22786.20, 37352.65, 27662.47, 39536.34, 25402.40, 0.00, 0.00, 0.00, 0.00
118, 45375.80, 50385.48, 22734.25, 37274.41, 27539.67, 39278.74, 25345.60, 0.00, 0.00, 0.00, 0.00
119, 45350.84, 50405.53, 22747.50, 37272.38, 27485.04, 39037.03, 25351.44, 0.00, 0.00, 0.00, 0.00
120, 45340.76, 50403.54, 22782.84, 37337.34, 27552.68, 39197.76, 25400.21, 0.00, 0.00, 0.00, 0.00
121, 45367.02, 50392.65, 22800.05, 37354.43, 27656.35, 39494.04, 25413.06, 0.00, 0.15, 0.96, 0.21
122, 45387.38, 50392.09, 22753.03, 37289.26, 27580.38, 39360.73, 25369.12, 0.00, 0.00, 0.00, 0.00
123, 45361.03, 50410.71, 22749.76, 37268.16, 27479.46, 39061.21, 25356.02, 0.00, 0.00, 0.00, 0.00
124, 45343.77, 50412.10, 22776.72, 37312.13, 27531.16, 39169.22, 25383.06, 0.00, 0.00, 0.00, 0.00
125, 45356.36, 50398.02, 22793.64, 37355.89, 27630.62, 39455.16, 25402.73, 0.00, 0.00, 0.00, 0.00
126, 45381.37, 50386.55, 22759.82, 37312.93, 27599.51, 39431.89, 25370.82, 0.00, 0.00, 0.00, 0.00
127, 45359.98, 50406.80, 22746.01, 37266.93, 27473.49, 39075.72, 25343.70, 0.00, 0.00, 0.00, 0.00
128, 45341.38, 50414.69, 22778.73, 37307.30, 27519.96, 39133.34, 25380.72, 0.00, 0.00, 0.00, 0.00
129, 45347.13, 50402.78, 22791.27, 37351.53, 27609.63, 39396.42, 25404.99, 0.00, 0.00, 0.00, 0.00
130, 45389.86, 50401.02, 22778.01, 37338.57, 27628.92, 39495.29, 25388.59, 0.00, 0.00, 0.00, 0.00
131, 45378.71, 50415.63, 22751.62, 37277.23, 27491.28, 39110.61, 25348.69, 0.00, 0.17, 0.94, 0.21
132, 45355.20, 50423.59, 22776.52, 37320.89, 27510.55, 39101.40, 25374.46, 0.00, 0.00, 0.00, 0.00
133, 45358.53, 50415.77, 22789.53, 37360.89, 27590.10, 39350.27, 25402.33, 0.00, 0.00, 0.00, 0.00
134, 45393.13, 50402.60, 22779.64, 37343.80, 27634.87, 39524.32, 25386.75, 0.00, 0.00, 0.00, 0.00
135, 45387.43, 50414.87, 22740.64, 37271.29, 27490.43, 39152.57, 25339.72, 0.00, 0.00, 0.00, 0.00
136, 45371.11, 50435.84, 22770.19, 37300.23, 27494.61, 39073.82, 25368.13, 0.00, 0.00, 0.00, 0.00
137, 45364.34, 50424.24, 22792.61, 37349.00, 27573.18, 39298.79, 25405.08, 0.00, 0.00, 0.00, 0.00
138, 45403.66, 50414.85, 22792.05, 37368.67, 27640.90, 39547.97, 25399.11, 0.00, 0.00, 0.00, 0.00
139, 45408.19, 50422.14, 22749.16, 37287.98, 27508.83, 39232.09, 25344.20, 0.00, 0.00, 0.00, 0.00
140, 45380.48, 50436.33, 22764.31, 37286.80, 27470.88, 39055.18, 25348.46, 0.00, 0.19, 0.95, 0.21
141, 45370.13, 50429.78, 22787.27, 37332.51, 27542.00, 39236.39, 25380.79, 0.00, 0.00, 0.00, 0.00
142, 45396.50, 50412.19, 22793.91, 37360.98, 27636.68, 39519.29, 25393.35, 0.00, 0.00, 0.00, 0.00
143, 45410.12, 50411.63, 22747.88, 37292.27, 27530.51, 39294.28, 25339.12, 0.00, 0.00, 0.00, 0.00
144, 45381.13, 50427.77, 22750.14, 37290.22, 27458.42, 39047.22, 25336.77, 0.00, 0.00, 0.00, 0.00
145, 45367.94, 50430.14, 22780.05, 37329.96, 27528.03, 39200.18, 25386.75, 0.00, 0.00, 0.00, 0.00
146, 45389.33, 50417.82, 22794.44, 37361.12, 27625.82, 39492.25, 25404.19, 0.00, 0.00, 0.00, 0.00
147, 45411.34, 50409.69, 22749.87, 37300.77, 27550.11, 39363.57, 25354.21, 0.00, 0.00, 0.00, 0.00
148, 45389.66, 50429.02, 22740.44, 37263.26, 27443.76, 39033.05, 25332.10, 0.00, 0.00, 0.00, 0.00
149, 45380.03, 50436.57, 22777.61, 37310.38, 27505.32, 39138.08, 25376.94, 0.00, 0.00, 0.00, 0.00
150, 45399.07, 50429.33, 22803.09, 37360.76, 27607.49, 39428.05, 25406.56, 0.00, 0.20, 0.95, 0.22
151, 45432.36, 50427.12, 22774.48, 37325.22, 27585.61, 39421.39, 25368.31, 0.00, 0.00, 0.00, 0.00
152, 45413.56, 50444.33, 22755.39, 37271.06, 27461.98, 39059.07, 25343.14, 0.00, 0.00, 0.00, 0.00
153, 45392.21, 50449.23, 22789.08, 37311.09, 27504.29, 39112.18, 25377.19, 0.00, 0.00, 0.00, 0.00
154, 45397.62, 50437.92, 22810.38, 37361.61, 27601.86, 39387.04, 25408.81, 0.00, 0.00, 0.00, 0.00
155, 45432.73, 50429.69, 22790.82, 37351.57, 27626.11, 39498.50, 25387.92, 0.00, 0.00, 0.00, 0.00
156, 45414.86, 50437.85, 22757.65, 37293.91, 27482.77, 39108.20, 25349.40, 0.00, 0.00, 0.00, 0.00
157, 45387.29, 50444.78, 22789.21, 37298.55, 27500.65, 39083.61, 25377.79, 0.00, 0.00, 0.00, 0.00
158, 45379.20, 50431.08, 22805.73, 37338.30, 27577.87, 39323.56, 25400.10, 0.00, 0.00, 0.00, 0.00
159, 45404.06, 50410.18, 22789.77, 37341.25, 27626.24, 39518.02, 25378.39, 0.00, 0.00, 0.00, 0.00
160, 45401.44, 50419.61, 22747.48, 37265.12, 27483.17, 39148.86, 25330.25, 0.00, 0.22, 0.95, 0.22
161, 45380.54, 50435.79, 22778.35, 37285.37, 27492.27, 39047.45, 25364.45, 0.00, 0.00, 0.00, 0.00
162, 45377.35, 50432.80, 22806.85, 37342.79, 27574.97, 39263.79, 25405.06, 0.00, 0.00, 0.00, 0.00
163, 45409.40, 50424.77, 22811.47, 37373.64, 27656.39, 39539.45, 25412.48, 0.00, 0.00, 0.00, 0.00
164, 45413.63, 50428.68, 22763.98, 37299.43, 27527.31, 39236.90, 25360.96, 0.00, 0.00, 0.00, 0.00
165, 45382.00, 50434.88, 22775.26, 37294.36, 27482.45, 39041.88, 25361.16, 0.00, 0.00, 0.00, 0.00
166, 45370.87, 50428.37, 22803.16, 37349.23, 27550.94, 39230.24, 25394.51, 0.00, 0.00, 0.00, 0.00
167, 45393.91, 50414.54, 22811.65, 37378.84, 27642.47, 39521.59, 25406.02, 0.00, 0.00, 0.00, 0.00
168, 45404.93, 50410.87, 22770.04, 37302.04, 27547.99, 39302.97, 25358.84, 0.00, 0.00, 0.00, 0.00
169, 45375.83, 50427.63, 22773.14, 37286.62, 27471.86, 39035.91, 25346.12, 0.00, 0.00, 0.00, 0.00
170, 45354.15, 50421.13, 22794.53, 37332.96, 27532.70, 39182.38, 25386.19, 0.00, 0.22, 0.95, 0.21
171, 45367.16, 50407.63, 22806.24, 37378.31, 27632.30, 39489.56, 25416.08, 0.00, 0.00, 0.00, 0.00
172, 45381.06, 50397.68, 22765.36, 37318.49, 27575.08, 39388.54, 25377.12, 0.00, 0.00, 0.00, 0.00
173, 45357.66, 50415.34, 22752.51, 37279.40, 27466.02, 39050.69, 25362.30, 0.00, 0.00, 0.00, 0.00
174, 45343.89, 50422.02, 22783.20, 37329.20, 27513.59, 39152.77, 25405.19, 0.00, 0.00, 0.00, 0.00
175, 45361.72, 50415.81, 22805.39, 37382.20, 27622.42, 39450.74, 25431.39, 0.00, 0.00, 0.00, 0.00
176, 45394.27, 50407.50, 22776.38, 37347.04, 27608.56, 39469.25, 25394.67, 0.00, 0.00, 0.00, 0.00
177, 45366.91, 50413.66, 22749.56, 37277.21, 27472.73, 39071.09, 25345.00, 0.00, 0.00, 0.00, 0.00
178, 45339.98, 50413.60, 22781.70, 37311.34, 27511.89, 39106.50, 25398.31, 0.00, 0.00, 0.00, 0.00
179, 45345.72, 50406.38, 22799.87, 37361.07, 27600.18, 39383.66, 25432.37, 0.00, 0.00, 0.00, 0.00
180, 45380.39, 50393.39, 22782.60, 37343.24, 27633.08, 39513.03, 25414.47, 0.00, 0.23, 0.94, 0.22
181, 45366.60, 50401.55, 22747.79, 37269.39, 27488.04, 39117.09, 25367.35, 0.00, 0.00, 0.00, 0.00
182, 45345.81, 50414.49, 22779.20, 37303.85, 27503.15, 39085.69, 25398.62, 0.00, 0.00, 0.00, 0.00
183, 45339.19, 50403.07, 22798.85, 37354.50, 27583.59, 39335.36, 25433.18, 0.00, 0.00, 0.00, 0.00
184, 45370.66, 50388.23, 22791.87, 37358.13, 27634.62, 39547.54, 25418.74, 0.00, 0.00, 0.00, 0.00
185, 45377.35, 50397.55, 22747.53, 37264.83, 27494.88, 39168.19, 25350.54, 0.00, 0.00, 0.00, 0.00
186, 45355.91, 50425.78, 22769.36, 37287.78, 27482.79, 39051.87, 25369.99, 0.00, 0.00, 0.00, 0.00
187, 45324.26, 50399.41, 22789.86, 37341.27, 27561.67, 39275.88, 25411.36, 0.00, 0.00, 0.00, 0.00
188, 45334.52, 50366.91, 22789.01, 37360.25, 27637.89, 39537.75, 25403.23, 0.00, 0.00, 0.00, 0.00
189, 45328.89, 50359.86, 22734.81, 37279.27, 27511.38, 39235.82, 25346.90, 0.00, 0.22, 0.94, 0.23
190, 45279.76, 50360.73, 22741.69, 37282.91, 27469.38, 39044.76, 25373.03, 0.00, 0.00, 0.00, 0.00
191, 45249.68, 50349.67, 22766.44, 37338.77, 27540.63, 39238.75, 25413.84, 0.00, 0.00, 0.00, 0.00
192, 45252.13, 50325.09, 22776.11, 37377.34, 27635.76, 39541.75, 25429.94, 0.00, 0.00, 0.00, 0.00
193, 45246.19, 50308.61, 22730.18, 37307.99, 27543.70, 39339.92, 25377.99, 0.00, 0.00, 0.00, 0.00
194, 45204.57, 50318.04, 22725.44, 37301.15, 27453.55, 39039.02, 25360.15, 0.00, 0.00, 0.00, 0.00
195, 45162.23, 50301.50, 22740.20, 37329.67, 27509.03, 39184.98, 25396.12, 0.00, 0.00, 0.00, 0.00
196, 45169.66, 50283.51, 22749.69, 37362.41, 27607.29, 39486.81, 25418.69, 0.00, 0.00, 0.00, 0.00
197, 45183.29, 50276.20, 22712.63, 37318.94, 27560.13, 39410.95, 25374.88, 0.00, 0.00, 0.00, 0.00
198, 45150.95, 50287.11, 22700.05, 37283.74, 27449.30, 39062.09, 25356.96, 0.00, 0.00, 0.00, 0.00
199, 45124.01, 50284.29, 22725.38, 37313.91, 27495.46, 39139.07, 25388.21, 0.00, 0.20, 0.95, 0.23
200, 45141.27, 50279.15, 22744.71, 37366.44, 27595.82, 39423.49, 25401.55, 0.00, 0.00, 0.00, 0.00
201, 45187.09, 50280.00, 22716.05, 37337.67, 27586.79, 39465.04, 25372.69, 0.00, 0.00, 0.00, 0.00
202, 45178.15, 50303.00, 22693.57, 37280.45, 27449.71, 39077.96, 25348.29, 0.00, 0.00, 0.00, 0.00
203, 45159.57, 50310.22, 22724.73, 37310.60, 27484.89, 39099.46, 25384.50, 0.00, 0.00, 0.00, 0.00
204, 45176.83, 50311.23, 22746.83, 37366.93, 27576.46, 39370.83, 25416.28, 0.00, 0.00, 0.00, 0.00
205, 45216.88, 50307.14, 22735.41, 37364.56, 27611.67, 39528.93, 25397.75, 0.00, 0.00, 0.00, 0.00
206, 45206.58, 50316.82, 22698.33, 37284.47, 27461.84, 39138.60, 25342.63, 0.00, 0.00, 0.00, 0.00
207, 45179.91, 50323.88, 22723.41, 37298.45, 27471.28, 39078.54, 25370.99, 0.00, 0.00, 0.00, 0.00
208, 45184.25, 50324.41, 22749.02, 37349.03, 27557.69, 39316.27, 25408.03, 0.00, 0.00, 0.00, 0.00
209, 45217.87, 50314.09, 22744.31, 37360.98, 27624.72, 39536.90, 25396.25, 0.00, 0.19, 0.95, 0.22
210, 45217.42, 50320.17, 22698.67, 37286.51, 27484.91, 39196.58, 25351.35, 0.00, 0.00, 0.00, 0.00
211, 45195.88, 50335.64, 22723.47, 37298.87, 27465.40, 39063.88, 25368.31, 0.00, 0.00, 0.00, 0.00
212, 45179.71, 50323.39, 22739.01, 37337.96, 27538.18, 39271.63, 25395.74, 0.00, 0.00, 0.00, 0.00
213, 45215.25, 50314.87, 22742.65, 37363.20, 27632.32, 39546.92, 25396.77, 0.00, 0.00, 0.00, 0.00
214, 45223.21, 50315.32, 22694.28, 37281.08, 27513.90, 39257.62, 25340.91, 0.00, 0.00, 0.00, 0.00
215, 45203.36, 50339.95, 22707.72, 37278.77, 27452.79, 39025.00, 25344.04, 0.00, 0.00, 0.00, 0.00
216, 45201.80, 50347.95, 22740.51, 37331.46, 27525.68, 39202.54, 25385.88, 0.00, 0.00, 0.00, 0.00
217, 45221.73, 50328.97, 22748.22, 37362.93, 27624.30, 39501.75, 25401.26, 0.00, 0.00, 0.00, 0.00
218, 45242.61, 50326.20, 22706.04, 37298.11, 27540.90, 39334.64, 25358.57, 0.00, 0.00, 0.00, 0.00
219, 45223.30, 50349.83, 22703.43, 37276.47, 27446.06, 39036.18, 25343.99, 0.00, 0.18, 0.96, 0.22
220, 45212.53, 50354.03, 22734.88, 37322.52, 27500.04, 39164.59, 25374.21, 0.00, 0.00, 0.00, 0.00
221, 45237.49, 50347.55, 22754.61, 37370.08, 27603.87, 39470.90, 25399.98, 0.00, 0.00, 0.00, 0.00
222, 45267.02, 50342.96, 22715.07, 37326.43, 27570.16, 39411.38, 25359.42, 0.00, 0.00, 0.00, 0.00
223, 45244.24, 50365.00, 22696.14, 37282.38, 27444.77, 39046.64, 25333.91, 0.00, 0.00, 0.00, 0.00
224, 45227.48, 50368.49, 22734.47, 37323.86, 27494.16, 39126.28, 25377.68, 0.00, 0.00, 0.00, 0.00
225, 45240.91, 50359.15, 22754.81, 37378.22, 27588.82, 39415.20, 25399.11, 0.00, 0.00, 0.00, 0.00
226, 45274.98, 50352.60, 22730.90, 37377.86, 27593.32, 39480.15, 25371.98, 0.00, 0.00, 0.00, 0.00
227, 45256.56, 50372.96, 22701.15, 37288.23, 27452.52, 39090.25, 25347.30, 0.00, 0.00, 0.00, 0.00
228, 45237.58, 50385.59, 22732.77, 37320.93, 27483.93, 39113.23, 25386.42, 0.00, 0.17, 0.96, 0.22
229, 45248.82, 50386.44, 22754.54, 37391.54, 27569.45, 39377.58, 25409.66, 0.00, 0.00, 0.00, 0.00
230, 45290.13, 50379.87, 22741.67, 37385.93, 27608.90, 39539.50, 25381.77, 0.00, 0.00, 0.00, 0.00
231, 45283.05, 50392.86, 22704.54, 37309.29, 27463.39, 39156.54, 25342.56, 0.00, 0.00, 0.00, 0.00
232, 45253.03, 50397.66, 22730.20, 37329.36, 27472.06, 39086.34, 25379.42, 0.00, 0.00, 0.00, 0.00
233, 45247.89, 50384.41, 22750.81, 37375.31, 27553.35, 39316.00, 25409.42, 0.00, 0.00, 0.00, 0.00
234, 45278.11, 50366.82, 22747.21, 37382.11, 27623.40, 39551.72, 25402.42, 0.00, 0.00, 0.00, 0.00
235, 45272.09, 50366.95, 22699.74, 37295.70, 27479.81, 39206.43, 25346.38, 0.00, 0.00, 0.00, 0.00
236, 45236.96, 50375.22, 22712.08, 37292.90, 27447.11, 39038.32, 25352.67, 0.00, 0.00, 0.00, 0.00
237, 45229.22, 50367.11, 22735.37, 37339.82, 27525.23, 39236.68, 25393.19, 0.00, 0.00, 0.00, 0.00
238, 45261.03, 50351.95, 22743.86, 37377.10, 27623.36, 39528.30, 25410.85, 0.00, 0.16, 0.95, 0.22
239, 45272.61, 50354.41, 22695.13, 37303.18, 27504.18, 39272.19, 25357.16, 0.00, 0.00, 0.00, 0.00
240, 45245.72, 50375.15, 22702.17, 37294.46, 27442.02, 39041.07, 25361.81, 0.00, 0.00, 0.00, 0.00
241, 45240.18, 50375.71, 22735.99, 37342.93, 27520.72, 39206.93, 25410.49, 0.00, 0.00, 0.00, 0.00
242, 45263.87, 50355.84, 22750.28, 37382.64, 27623.92, 39501.99, 25424.77, 0.00, 0.00, 0.00, 0.00
243, 45284.21, 50353.07, 22707.00, 37321.58, 27550.13, 39359.30, 25382.66, 0.00, 0.00, 0.00, 0.00
244, 45252.76, 50370.23, 22698.26, 37288.25, 27451.58, 39047.85, 25369.63, 0.00, 0.00, 0.00, 0.00
245, 45233.94, 50368.38, 22726.34, 37331.86, 27510.10, 39167.05, 25403.83, 0.00, 0.00, 0.00, 0.00
246, 45251.24, 50350.84, 22745.76, 37375.54, 27614.15, 39457.24, 25421.62, 0.00, 0.00, 0.00, 0.00
247, 45280.48, 50344.64, 22709.66, 37327.19, 27576.24, 39427.40, 25377.99, 0.00, 0.00, 0.00, 0.00
248, 45255.20, 50361.45, 22685.81, 37285.12, 27444.46, 39064.88, 25355.51, 0.00, 0.14, 0.95, 0.22
249, 45235.23, 50366.88, 22721.20, 37327.59, 27498.77, 39126.70, 25397.01, 0.00, 0.00, 0.00, 0.00
250, 45239.17, 50353.54, 22745.76, 37352.74, 27595.04, 39402.88, 25424.95, 0.00, 0.00, 0.00, 0.00
251, 45270.73, 50336.42, 22720.26, 37333.36, 27603.98, 39492.49, 25395.22, 0.00, 0.00, 0.00, 0.00
252, 45252.96, 50349.38, 22684.74, 37259.66, 27458.63, 39102.52, 25364.04, 0.00, 0.00, 0.00, 0.00
253, 45224.26, 50354.52, 22708.21, 37289.04, 27482.90, 39090.76, 25389.95, 0.00, 0.00, 0.00, 0.00
254, 45225.22, 50345.71, 22732.35, 37338.14, 27574.59, 39335.80, 25415.74, 0.00, 0.00, 0.00, 0.00
255, 45261.81, 50334.88, 22729.13, 37341.25, 27628.63, 39510.04, 25402.31, 0.00, 0.00, 0.00, 0.00
0, 45247.66, 50340.93, 22676.54, 37258.79, 27470.54, 39133.90, 25350.28, 0.00, 0.00, 0.00, 0.00
1, 45226.70, 50356.04, 22704.37, 37273.90, 27470.05, 39051.87, 25373.68, 0.00, 0.00, 0.00, 0.00
2, 45222.25, 50348.06, 22731.92, 37321.06, 27553.49, 39266.83, 25397.15, 0.00, 0.13, 0.95, 0.23
3, 45259.02, 50334.32, 22735.12, 37340.36, 27637.82, 39513.17, 25396.05, 0.00, 0.00, 0.00, 0.00
4, 45258.32, 50338.88, 22680.63, 37265.95, 27494.61, 39199.46, 25340.35, 0.00, 0.00, 0.00, 0.00
5, 45233.38, 50360.73, 22695.02, 37276.09, 27460.62, 39034.32, 25348.93, 0.00, 0.00, 0.00, 0.00
6, 45230.61, 50360.00, 22726.69, 37323.95, 27545.93, 39218.64, 25396.07, 0.00, 0.00, 0.00, 0.00
7, 45259.51, 50347.97, 22737.89, 37360.14, 27645.82, 39506.73, 25412.26, 0.00, 0.00, 0.00, 0.00
8, 45272.36, 50351.71, 22686.39, 37300.34, 27527.96, 39281.58, 25369.70, 0.00, 0.00, 0.00, 0.00
9, 45246.28, 50367.17, 22693.99, 37281.01, 27458.83, 39032.47, 25360.42, 0.00, 0.00, 0.00, 0.00
10, 45235.77, 50364.96, 22728.91, 37330.14, 27535.18, 39188.26, 25399.13, 0.00, 0.00, 0.00, 0.00
11, 45260.14, 50357.59, 22745.47, 37367.33, 27635.99, 39477.61, 25416.53, 0.00, 0.00, 0.00, 0.00
12, 45278.71, 50344.64, 22702.58, 37303.99, 27570.61, 39368.26, 25376.11, 0.00, 0.12, 0.95, 0.24
13, 45238.95, 50349.00, 22688.83, 37264.16, 27458.07, 39042.06, 25350.48, 0.00, 0.00, 0.00, 0.00
14, 45226.61, 50352.53, 22723.36, 37307.96, 27515.44, 39139.49, 25381.21, 0.00, 0.00, 0.00, 0.00
15, 45239.19, 50340.02, 22745.29, 37360.96, 27624.39, 39436.10, 25405.42, 0.00, 0.00, 0.00, 0.00
16, 45269.12, 50334.50, 22711.41, 37322.92, 27600.34, 39430.49, 25372.40, 0.00, 0.00, 0.00, 0.00
17, 45243.84, 50351.95, 22687.29, 37268.87, 27465.89, 39065.64, 25341.27, 0.00, 0.00, 0.00, 0.00
18, 45217.44, 50350.50, 22723.27, 37299.20, 27508.80, 39106.34, 25371.40, 0.00, 0.00, 0.00, 0.00
19, 45220.84, 50335.30, 22740.69, 37342.14, 27610.30, 39365.11, 25405.15, 0.00, 0.00, 0.00, 0.00
20, 45256.76, 50323.12, 22722.43, 37326.94, 27635.32, 39462.54, 25389.77, 0.00, 0.00, 0.00, 0.00
21, 45241.79, 50334.47, 22685.86, 37257.36, 27485.20, 39091.93, 25352.49, 0.00, 0.12, 0.95, 0.24
22, 45218.89, 50344.69, 22726.20, 37288.50, 27510.35, 39066.96, 25382.82, 0.00, 0.00, 0.00, 0.00
23, 45213.20, 50325.78, 22743.08, 37335.82, 27598.55, 39301.43, 25413.40, 0.00, 0.00, 0.00, 0.00
24, 45246.55, 50305.57, 22727.05, 37335.46, 27649.71, 39486.86, 25400.43, 0.00, 0.00, 0.00, 0.00
25, 45247.55, 50322.16, 22684.88, 37258.08, 27494.05, 39130.37, 25356.64, 0.00, 0.00, 0.00, 0.00
26, 45226.14, 50343.52, 22712.90, 37281.39, 27485.78, 39027.69, 25373.16, 0.00, 0.00, 0.00, 0.00
27, 45224.86, 50338.72, 22739.23, 37328.77, 27571.37, 39237.75, 25400.81, 0.00, 0.00, 0.00, 0.00
28, 45259.06, 50323.48, 22738.18, 37344.69, 27651.61, 39483.06, 25398.13, 0.00, 0.00, 0.00, 0.00
29, 45261.23, 50331.46, 22683.51, 37272.52, 27512.18, 39192.17, 25349.89, 0.00, 0.00, 0.00, 0.00
30, 45234.99, 50345.89, 22698.11, 37277.05, 27465.22, 39015.33, 25369.99, 0.00, 0.00, 0.00, 0.00
31, 45224.04, 50337.38, 22722.18, 37322.85, 27539.27, 39193.80, 25403.83, 0.00, 0.12, 0.96, 0.24
32, 45252.20, 50319.68, 22738.00, 37355.75, 27645.08, 39474.68, 25417.82, 0.00, 0.00, 0.00, 0.00
33, 45274.21, 50324.26, 22694.93, 37291.27, 27544.23, 39275.07, 25371.33, 0.00, 0.00, 0.00, 0.00
34, 45251.98, 50349.49, 22699.63, 37277.37, 27463.63, 39018.48, 25364.69, 0.00, 0.00, 0.00, 0.00
35, 45241.16, 50350.12, 22732.13, 37319.90, 27528.47, 39151.92, 25396.63, 0.00, 0.00, 0.00, 0.00
36, 45264.43, 50338.61, 22749.36, 37355.64, 27631.61, 39437.55, 25407.74, 0.00, 0.00, 0.00, 0.00
37, 45287.79, 50333.09, 22708.16, 37304.43, 27567.01, 39336.45, 25353.65, 0.00, 0.00, 0.00, 0.00
38, 45260.14, 50350.63, 22695.98, 37273.30, 27455.07, 39017.41, 25346.07, 0.00, 0.00, 0.00, 0.00
39, 45239.59, 50352.06, 22725.42, 37326.27, 27512.05, 39107.75, 25380.25, 0.00, 0.00, 0.00, 0.00
40, 45253.14, 50336.04, 22743.90, 37346.46, 27610.62, 39376.78, 25391.69, 0.00, 0.00, 0.00, 0.00
41, 45283.25, 50320.64, 22717.24, 37302.40, 27603.73, 39392.45, 25361.65, 0.00, 0.12, 0.96, 0.24
42, 45265.21, 50340.29, 22692.03, 37270.44, 27476.46, 39052.21, 25360.85, 0.00, 0.00, 0.00, 0.00
43, 45242.16, 50347.04, 22724.44, 37309.80, 27513.88, 39085.60, 25394.96, 0.00, 0.00, 0.00, 0.00
44, 45252.29, 50337.54, 22751.79, 37345.90, 27609.05, 39336.99, 25414.80, 0.00, 0.00, 0.00, 0.00
45, 45284.12, 50321.71, 22731.81, 37328.55, 27632.99, 39453.42, 25388.63, 0.00, 0.00, 0.00, 0.00
46, 45269.05, 50336.02, 22688.43, 37266.68, 27467.12, 39080.55, 25345.49, 0.00, 0.00, 0.00, 0.00
47, 45246.46, 50348.33, 22715.18, 37305.20, 27477.42, 39047.00, 25374.13, 0.00, 0.00, 0.00, 0.00
48, 45241.56, 50336.42, 22734.41, 37340.33, 27563.63, 39273.42, 25397.53, 0.00, 0.00, 0.00, 0.00
49, 45279.25, 50328.21, 22737.74, 37349.94, 27635.79, 39482.81, 25394.67, 0.00, 0.00, 0.00, 0.00
50, 45274.98, 50336.55, 22686.64, 37281.93, 27486.12, 39152.12, 25347.50, 0.00, 0.00, 0.00, 0.00
51, 45252.29, 50352.02, 22698.84, 37294.31, 27453.71, 39022.01, 25350.97, 0.00, 0.13, 0.95, 0.24
52, 45241.98, 50341.02, 22732.28, 37339.35, 27538.64, 39231.24, 25382.71, 0.00, 0.00, 0.00, 0.00
53, 45244.22, 50301.62, 22732.91, 37363.15, 27633.37, 39488.78, 25389.64, 0.00, 0.00, 0.00, 0.00
54, 45236.64, 50295.25, 22678.12, 37288.03, 27503.02, 39205.09, 25349.09, 0.00, 0.00, 0.00, 0.00
55, 45202.58, 50306.78, 22696.14, 37288.21, 27457.13, 39008.66, 25365.43, 0.00, 0.00, 0.00, 0.00
56, 45174.55, 50285.12, 22716.28, 37326.65, 27523.45, 39166.69, 25396.41, 0.00, 0.00, 0.00, 0.00
57, 45185.23, 50253.85, 22728.28, 37359.66, 27628.54, 39445.71, 25398.71, 0.00, 0.00, 0.00, 0.00
58, 45199.43, 50252.75, 22680.83, 37296.93, 27538.04, 39258.91, 25358.08, 0.00, 0.00, 0.00, 0.00
59, 45160.27, 50259.15, 22676.71, 37265.50, 27445.10, 38982.94, 25348.98, 0.00, 0.00, 0.00, 0.00
60, 45141.38, 50250.34, 22709.10, 37301.46, 27516.11, 39112.67, 25386.17, 0.00, 0.14, 0.95, 0.24
61, 45169.61, 50244.48, 22736.30, 37352.87, 27630.15, 39405.43, 25408.59, 0.00, 0.00, 0.00, 0.00
62, 45201.80, 50244.29, 22697.88, 37312.26, 27577.29, 39336.03, 25373.34, 0.00, 0.00, 0.00, 0.00
63, 45178.53, 50265.47, 22676.56, 37268.71, 27448.66, 39003.46, 25341.80, 0.00, 0.00, 0.00, 0.00
64, 45156.42, 50265.25, 22704.25, 37301.21, 27494.57, 39075.54, 25366.12, 0.00, 0.00, 0.00, 0.00
65, 45171.62, 50258.72, 22731.77, 37346.93, 27597.88, 39343.56, 25392.05, 0.00, 0.00, 0.00, 0.00
66, 45201.91, 50247.70, 22702.98, 37315.68, 27587.71, 39382.43, 25361.14, 0.00, 0.00, 0.00, 0.00
67, 45191.05, 50276.18, 22673.65, 37269.32, 27446.00, 39029.63, 25341.80, 0.00, 0.00, 0.00, 0.00
68, 45172.89, 50285.81, 22708.07, 37304.70, 27481.09, 39059.31, 25379.49, 0.00, 0.00, 0.00, 0.00
69, 45171.31, 50265.81, 22723.54, 37341.88, 27569.74, 39297.92, 25402.91, 0.00, 0.00, 0.00, 0.00
70, 45213.11, 50258.28, 22710.53, 37336.55, 27608.40, 39433.97, 25385.63, 0.00, 0.15, 0.95, 0.23
71, 45198.98, 50274.23, 22672.22, 37285.97, 27454.98, 39082.83, 25342.54, 0.00, 0.00, 0.00, 0.00
72, 45176.25, 50290.71, 22702.13, 37310.52, 27475.30, 39030.01, 25380.65, 0.00, 0.00, 0.00, 0.00
73, 45175.36, 50276.98, 22722.04, 37347.37, 27558.31, 39247.00, 25399.22, 0.00, 0.00, 0.00, 0.00
74, 45211.50, 50262.41, 22712.52, 37333.83, 27614.95, 39462.20, 25390.69, 0.00, 0.00, 0.00, 0.00
75, 45208.28, 50270.59, 22667.15, 37262.88, 27472.75, 39130.84, 25343.88, 0.00, 0.00, 0.00, 0.00
76, 45181.90, 50288.74, 22689.63, 37286.20, 27448.77, 38998.72, 25364.33, 0.00, 0.00, 0.00, 0.00
77, 45181.50, 50292.09, 22718.83, 37342.81, 27524.16, 39208.71, 25396.56, 0.00, 0.00, 0.00, 0.00
78, 45212.70, 50279.44, 22725.42, 37364.20, 27620.01, 39472.98, 25395.52, 0.00, 0.00, 0.00, 0.00
79, 45217.73, 50281.10, 22672.07, 37287.16, 27491.08, 39206.10, 25331.10, 0.00, 0.00, 0.00, 0.00
80, 45185.30, 50296.45, 22681.74, 37278.46, 27428.21, 38983.70, 25327.86, 0.00, 0.15, 0.95, 0.23
81, 45178.44, 50298.38, 22715.81, 37329.85, 27509.05, 39147.38, 25379.04, 0.00, 0.00, 0.00, 0.00
82, 45209.02, 50292.05, 22733.87, 37369.28, 27621.86, 39445.17, 25409.22, 0.00, 0.00, 0.00, 0.00
83, 45224.48, 50287.82, 22685.70, 37304.17, 27525.12, 39276.73, 25349.09, 0.00, 0.00, 0.00, 0.00
84, 45191.65, 50301.01, 22680.67, 37278.53, 27422.30, 38985.57, 25325.08, 0.00, 0.00, 0.00, 0.00
85, 45175.13, 50297.64, 22711.52, 37320.71, 27486.03, 39107.08, 25368.11, 0.00, 0.00, 0.00, 0.00
86, 45197.82, 50287.89, 22734.18, 37363.44, 27601.86, 39394.59, 25401.62, 0.00, 0.00, 0.00, 0.00
87, 45225.04, 50282.91, 22695.31, 37321.02, 27556.77, 39344.48, 25358.25, 0.00, 0.00, 0.00, 0.00
88, 45197.50, 50302.33, 22671.91, 37282.69, 27425.90, 39013.54, 25334.67, 0.00, 0.00, 0.00, 0.00
89, 45178.13, 50306.04, 22704.52, 37322.70, 27474.72, 39086.25, 25381.10, 0.00, 0.00, 0.00, 0.00
90, 45186.35, 50292.27, 22726.65, 37365.12, 27581.11, 39355.90, 25408.61, 0.00, 0.15, 0.95, 0.23
91, 45220.50, 50283.64, 22696.32, 37338.68, 27580.67, 39410.71, 25376.31, 0.00, 0.00, 0.00, 0.00
92, 45201.84, 50301.53, 22666.10, 37284.86, 27428.07, 39037.28, 25335.81, 0.00, 0.00, 0.00, 0.00
93, 45180.14, 50306.98, 22698.40, 37319.16, 27457.37, 39049.26, 25368.85, 0.00, 0.00, 0.00, 0.00
94, 45183.38, 50291.27, 22719.63, 37364.58, 27551.38, 39296.98, 25399.49, 0.00, 0.00, 0.00, 0.00
95, 45225.64, 50287.54, 22712.79, 37362.57, 27603.24, 39450.87, 25386.06, 0.00, 0.00, 0.00, 0.00
96, 45206.71, 50296.54, 22659.37, 37287.80, 27440.79, 39086.11, 25338.96, 0.00, 0.00, 0.00, 0.00
97, 45178.44, 50305.39, 22684.29, 37311.61, 27447.52, 39021.88, 25370.41, 0.00, 0.00, 0.00, 0.00
98, 45183.22, 50299.58, 22717.44, 37360.09, 27542.73, 39243.87, 25407.03, 0.00, 0.00, 0.00, 0.00
99, 45214.94, 50283.31, 22717.37, 37371.60, 27621.50, 39471.86, 25406.18, 0.00, 0.00, 0.00, 0.00
100, 45213.42, 50291.69, 22663.10, 37301.48, 27470.65, 39145.41, 25347.59, 0.00, 0.15, 0.95, 0.24
101, 45185.70, 50306.15, 22682.68, 37310.71, 27440.34, 38991.75, 25359.44, 0.00, 0.00, 0.00, 0.00
102, 45178.75, 50304.68, 22710.24, 37358.01, 27520.03, 39196.38, 25404.39, 0.00, 0.00, 0.00, 0.00
103, 45214.29, 50292.54, 22726.49, 37386.53, 27632.68, 39473.56, 25410.89, 0.00, 0.00, 0.00, 0.00
104, 45225.36, 50292.99, 22680.47, 37314.70, 27508.25, 39225.99, 25364.92, 0.00, 0.00, 0.00, 0.00
105, 45197.89, 50313.30, 22693.08, 37308.70, 27442.62, 39002.41, 25368.65, 0.00, 0.00, 0.00, 0.00
106, 45184.03, 50305.68, 22717.93, 37352.36, 27508.02, 39152.23, 25396.54, 0.00, 0.00, 0.00, 0.00
107, 45206.91, 50291.63, 22726.87, 37380.25, 27607.67, 39433.97, 25405.39, 0.00, 0.00, 0.00, 0.00
108, 45234.48, 50294.62, 22686.15, 37311.34, 27528.34, 39288.73, 25368.85, 0.00, 0.00, 0.00, 0.00
109, 45202.51, 50308.63, 22676.80, 37291.11, 27424.74, 38994.09, 25355.39, 0.00, 0.16, 0.94, 0.23
110, 45165.14, 50281.90, 22704.90, 37328.55, 27481.54, 39106.14, 25385.66, 0.00, 0.00, 0.00, 0.00
111, 45181.34, 50269.21, 22725.87, 37371.96, 27587.30, 39398.39, 25397.97, 0.00, 0.00, 0.00, 0.00
112, 45214.36, 50271.64, 22693.01, 37336.71, 27550.80, 39374.81, 25361.38, 0.00, 0.00, 0.00, 0.00
113, 45186.48, 50288.36, 22664.65, 37297.04, 27418.30, 39024.76, 25335.01, 0.00, 0.00, 0.00, 0.00
114, 45170.95, 50299.07, 22700.05, 37336.04, 27475.97, 39082.14, 25375.44, 0.00, 0.00, 0.00, 0.00
115, 45178.98, 50283.20, 22724.55, 37376.34, 27588.58, 39360.88, 25428.26, 0.00, 0.00, 0.00, 0.00
116, 45213.53, 50269.79, 22695.76, 37347.21, 27598.12, 39436.34, 25398.33, 0.00, 0.00, 0.00, 0.00
117, 45195.88, 50288.94, 22655.28, 37296.34, 27436.92, 39055.22, 25346.23, 0.00, 0.00, 0.00, 0.00
118, 45175.73, 50298.42, 22691.07, 37329.56, 27461.60, 39052.39, 25368.65, 0.00, 0.00, 0.00, 0.00
119, 45183.36, 50289.93, 22715.67, 37353.47, 27557.82, 39293.25, 25395.13, 0.00, 0.16, 0.94, 0.23
120, 45226.43, 50286.24, 22708.66, 37358.95, 27614.37, 39466.25, 25385.63, 0.00, 0.00, 0.00, 0.00
121, 45219.86, 50298.33, 22664.89, 37297.53, 27460.26, 39112.22, 25344.33, 0.00, 0.00, 0.00, 0.00
122, 45192.57, 50304.48, 22685.52, 37313.13, 27451.72, 39013.80, 25357.18, 0.00, 0.00, 0.00, 0.00
123, 45191.54, 50297.04, 22709.51, 37353.65, 27530.91, 39219.24, 25370.28, 0.00, 0.00, 0.00, 0.00
124, 45229.00, 50282.37, 22714.63, 37372.81, 27616.76, 39473.76, 25370.53, 0.00, 0.00, 0.00, 0.00
125, 45232.08, 50291.16, 22663.89, 37299.65, 27477.91, 39163.23, 25334.94, 0.00, 0.00, 0.00, 0.00
126, 45201.89, 50306.98, 22683.73, 37304.57, 27451.56, 38996.62, 25365.90, 0.00, 0.00, 0.00, 0.00
127, 45194.96, 50301.23, 22717.87, 37348.56, 27534.04, 39179.50, 25400.66, 0.00, 0.00, 0.00, 0.00
128, 45222.59, 50283.96, 22726.67, 37378.04, 27634.85, 39457.00, 25407.14, 0.00, 0.00, 0.00, 0.00
129, 45233.09, 50281.59, 22673.16, 37306.71, 27512.78, 39229.12, 25348.38, 0.00, 0.15, 0.95, 0.23
130, 45197.53, 50291.96, 22673.41, 37287.45, 27435.33, 38988.14, 25335.39, 0.00, 0.00, 0.00, 0.00
131, 45186.48, 50291.82, 22708.19, 37332.17, 27507.58, 39132.63, 25365.45, 0.00, 0.00, 0.00, 0.00
132, 45211.90, 50282.77, 22728.50, 37376.12, 27622.29, 39422.44, 25389.48, 0.00, 0.00, 0.00, 0.00
133, 45232.57, 50282.93, 22684.31, 37332.06, 27555.19, 39312.61, 25359.64, 0.00, 0.00, 0.00, 0.00
134, 45204.52, 50304.77, 22675.53, 37309.96, 27450.33, 39000.35, 25348.33, 0.00, 0.00, 0.00, 0.00
135, 45182.11, 50299.78, 22708.41, 37331.59, 27505.88, 39097.00, 25378.10, 0.00, 0.00, 0.00, 0.00
136, 45198.31, 50285.75, 22728.19, 37371.33, 27613.57, 39389.76, 25401.55, 0.00, 0.00, 0.00, 0.00
137, 45223.32, 50269.27, 22684.03, 37328.80, 27580.11, 39381.14, 25360.27, 0.00, 0.00, 0.00, 0.00
138, 45193.57, 50281.75, 22654.25, 37281.03, 27435.40, 39015.82, 25324.84, 0.00, 0.00, 0.00, 0.00
139, 45177.70, 50292.12, 22690.37, 37318.94, 27483.12, 39070.00, 25364.02, 0.00, 0.13, 0.96, 0.24
140, 45200.30, 50290.26, 22724.97, 37374.04, 27593.43, 39344.66, 25397.17, 0.00, 0.00, 0.00, 0.00
141, 45230.45, 50271.66, 22703.36, 37350.32, 27609.23, 39443.92, 25368.34, 0.00, 0.00, 0.00, 0.00
142, 45202.87, 50274.88, 22653.98, 37279.78, 27442.71, 39059.65, 25325.35, 0.00, 0.00, 0.00, 0.00
143, 45181.68, 50288.47, 22684.38, 37312.35, 27462.04, 39035.64, 25349.13, 0.00, 0.00, 0.00, 0.00
144, 45187.83, 50281.97, 22718.18, 37355.82, 27563.61, 39272.30, 25384.56, 0.00, 0.00, 0.00, 0.00
145, 45222.94, 50267.75, 22710.96, 37353.70, 27616.61, 39463.25, 25379.04, 0.00, 0.00, 0.00, 0.00
146, 45211.88, 50278.41, 22664.20, 37284.54, 27453.95, 39103.28, 25328.55, 0.00, 0.00, 0.00, 0.00
147, 45185.04, 50294.84, 22692.43, 37299.65, 27446.47, 39004.66, 25353.27, 0.00, 0.00, 0.00, 0.00
148, 45184.61, 50288.32, 22724.12, 37346.81, 27534.26, 39218.68, 25384.96, 0.00, 0.00, 0.00, 0.00
149, 45220.28, 50272.71, 22730.05, 37366.33, 27624.05, 39465.27, 25381.59, 0.00, 0.13, 0.97, 0.24
150, 45218.72, 50272.13, 22675.35, 37285.73, 27477.56, 39154.04, 25329.15, 0.00, 0.00, 0.00, 0.00
151, 45189.14, 50289.99, 22693.59, 37291.07, 27430.48, 38986.43, 25343.77, 0.00, 0.00, 0.00, 0.00
152, 45175.36, 50281.84, 22722.20, 37337.43, 27511.49, 39182.14, 25386.69, 0.00, 0.00, 0.00, 0.00
153, 45202.27, 50266.72, 22731.37, 37361.34, 27611.42, 39448.57, 25390.93, 0.00, 0.00, 0.00, 0.00
154, 45223.79, 50275.62, 22689.72, 37300.99, 27506.55, 39235.45, 25340.69, 0.00, 0.00, 0.00, 0.00
155, 45189.44, 50287.18, 22700.50, 37283.96, 27422.04, 38979.90, 25334.27, 0.00, 0.00, 0.00, 0.00
156, 45174.86, 50285.37, 22717.62, 37329.91, 27493.38, 39123.02, 25374.50, 0.00, 0.00, 0.00, 0.00
157, 45196.25, 50269.83, 22722.83, 37367.71, 27602.97, 39421.41, 25398.24, 0.00, 0.00, 0.00, 0.00
158, 45221.40, 50269.36, 22680.31, 37316.73, 27536.77, 39324.56, 25360.00, 0.00, 0.14, 0.97, 0.22
159, 45193.84, 50292.74, 22667.89, 37286.64, 27417.32, 39002.59, 25342.70, 0.00, 0.00, 0.00, 0.00
160, 45178.66, 50295.40, 22700.74, 37329.67, 27475.01, 39091.01, 25377.54, 0.00, 0.00, 0.00, 0.00
161, 45192.03, 50280.20, 22720.48, 37383.25, 27582.19, 39373.00, 25400.07, 0.00, 0.00, 0.00, 0.00
162, 45224.13, 50271.82, 22690.71, 37356.67, 27563.23, 39388.11, 25369.97, 0.00, 0.00, 0.00, 0.00
163, 45202.33, 50291.16, 22661.00, 37301.68, 27411.42, 39019.82, 25336.66, 0.00, 0.00, 0.00, 0.00
164, 45185.70, 50303.79, 22698.73, 37325.64, 27457.96, 39060.66, 25377.92, 0.00, 0.00, 0.00, 0.00
165, 45189.46, 50287.89, 22721.51, 37364.29, 27563.99, 39322.46, 25412.86, 0.00, 0.00, 0.00, 0.00
166, 45225.78, 50273.30, 22698.11, 37350.64, 27586.86, 39440.19, 25386.17, 0.00, 0.00, 0.00, 0.00
167, 45211.07, 50283.67, 22655.01, 37288.03, 27425.79, 39055.43, 25343.35, 0.00, 0.00, 0.00, 0.00
168, 45183.02, 50293.37, 22686.30, 37319.45, 27441.93, 39018.68, 25371.49, 0.00, 0.14, 0.95, 0.22
169, 45182.62, 50284.34, 22713.89, 37361.05, 27536.03, 39252.10, 25392.86, 0.00, 0.00, 0.00, 0.00
170, 45223.05, 50273.07, 22711.49, 37366.37, 27602.91, 39459.63, 25382.17, 0.00, 0.00, 0.00, 0.00
171, 45212.44, 50279.93, 22660.67, 37290.29, 27442.96, 39109.20, 25338.90, 0.00, 0.00, 0.00, 0.00
172, 45186.57, 50300.16, 22690.51, 37308.32, 27433.10, 38998.85, 25356.73, 0.00, 0.00, 0.00, 0.00
173, 45187.25, 50294.53, 22721.22, 37355.04, 27520.61, 39208.85, 25392.05, 0.00, 0.00, 0.00, 0.00
174, 45221.33, 50276.76, 22725.46, 37376.47, 27612.29, 39469.07, 25394.84, 0.00, 0.00, 0.00, 0.00
175, 45223.63, 50280.65, 22669.94, 37302.20, 27472.77, 39191.61, 25340.37, 0.00, 0.00, 0.00, 0.00
176, 45195.81, 50300.25, 22684.49, 37303.85, 27419.93, 38985.00, 25346.10, 0.00, 0.00, 0.00, 0.00
177, 45185.17, 50292.36, 22713.60, 37353.45, 27495.08, 39156.84, 25379.89, 0.00, 0.00, 0.00, 0.00
178, 45209.55, 50273.12, 22718.33, 37383.36, 27600.63, 39441.64, 25388.41, 0.00, 0.16, 0.97, 0.22
179, 45226.27, 50274.19, 22671.55, 37313.73, 27496.33, 39253.82, 25347.68, 0.00, 0.00, 0.00, 0.00
180, 45198.58, 50294.93, 22673.29, 37296.77, 27408.94, 38988.68, 25351.08, 0.00, 0.00, 0.00, 0.00
181, 45180.32, 50290.60, 22705.30, 37338.79, 27488.46, 39118.86, 25380.16, 0.00, 0.00, 0.00, 0.00
182, 45200.59, 50273.48, 22723.83, 37378.98, 27594.17, 39400.96, 25394.75, 0.00, 0.00, 0.00, 0.00
183, 45225.82, 50269.23, 22681.48, 37329.04, 27534.64, 39328.81, 25352.98, 0.00, 0.00, 0.00, 0.00
184, 45187.25, 50279.84, 22654.99, 37287.56, 27403.26, 38985.11, 25333.09, 0.00, 0.00, 0.00, 0.00
185, 45171.49, 50279.02, 22690.10, 37334.21, 27461.44, 39077.24, 25375.49, 0.00, 0.00, 0.00, 0.00
186, 45195.56, 50274.57, 22721.29, 37389.80, 27577.76, 39370.12, 25407.63, 0.00, 0.00, 0.00, 0.00
187, 45228.82, 50266.64, 22696.05, 37356.52, 27567.39, 39403.75, 25370.14, 0.00, 0.00, 0.00, 0.00
188, 45203.25, 50283.82, 22662.79, 37284.79, 27416.65, 39024.33, 25332.59, 0.00, 0.16, 0.97, 0.21
189, 45177.34, 50288.43, 22691.36, 37317.71, 27457.75, 39045.30, 25368.69, 0.00, 0.00, 0.00, 0.00
190, 45183.31, 50278.26, 22715.34, 37360.67, 27561.51, 39301.05, 25394.80, 0.00, 0.00, 0.00, 0.00
191, 45219.10, 50264.40, 22700.56, 37348.11, 27598.05, 39437.44, 25380.16, 0.00, 0.00, 0.00, 0.00
192, 45199.94, 50272.67, 22655.71, 37278.53, 27434.44, 39061.32, 25328.35, 0.00, 0.00, 0.00, 0.00
193, 45179.00, 50288.16, 22685.52, 37307.61, 27449.13, 39020.22, 25356.53, 0.00, 0.00, 0.00, 0.00
194, 45176.85, 50271.51, 22709.19, 37352.89, 27542.02, 39253.15, 25396.43, 0.00, 0.00, 0.00, 0.00
195, 45214.52, 50256.20, 22706.00, 37363.20, 27612.41, 39467.90, 25392.47, 0.00, 0.00, 0.00, 0.00
196, 45216.04, 50271.39, 22657.61, 37289.41, 27457.26, 39133.16, 25347.01, 0.00, 0.00, 0.00, 0.00
197, 45189.77, 50291.45, 22682.19, 37304.70, 27436.12, 39002.96, 25364.76, 0.00, 0.16, 0.97, 0.21
198, 45187.83, 50292.30, 22709.71, 37362.39, 27523.56, 39213.92, 25402.04, 0.00, 0.00, 0.00, 0.00
199, 45231.97, 50287.98, 22722.09, 37398.16, 27618.02, 39494.66, 25403.52, 0.00, 0.00, 0.00, 0.00
200, 45240.24, 50296.86, 22669.27, 37328.17, 27482.68, 39219.55, 25346.45, 0.00, 0.00, 0.00, 0.00
201, 45206.71, 50314.20, 22677.95, 37318.40, 27425.41, 38995.16, 25347.08, 0.00, 0.00, 0.00, 0.00
202, 45192.07, 50301.28, 22701.59, 37361.41, 27500.27, 39159.74, 25373.28, 0.00, 0.00, 0.00, 0.00
203, 45209.53, 50271.80, 22708.66, 37382.38, 27599.96, 39446.45, 25384.45, 0.00, 0.00, 0.00, 0.00
204, 45224.04, 50270.34, 22655.35, 37309.71, 27501.67, 39268.19, 25334.29, 0.00, 0.00, 0.00, 0.00
205, 45191.05, 50286.77, 22654.39, 37282.02, 27414.32, 38977.71, 25327.90, 0.00, 0.00, 0.00, 0.00
206, 45172.20, 50277.07, 22685.90, 37321.40, 27476.62, 39102.83, 25364.07, 0.00, 0.00, 0.00, 0.00
207, 45190.35, 50262.68, 22706.44, 37360.80, 27592.13, 39392.80, 25389.39, 0.00, 0.15, 0.97, 0.21
208, 45219.34, 50259.21, 22667.42, 37314.70, 27545.91, 39340.48, 25352.17, 0.00, 0.00, 0.00, 0.00
209, 45187.80, 50275.87, 22645.96, 37272.61, 27410.68, 38994.47, 25330.76, 0.00, 0.00, 0.00, 0.00
210, 45173.84, 50279.91, 22684.03, 37316.06, 27465.35, 39069.44, 25380.83, 0.00, 0.00, 0.00, 0.00
211, 45188.48, 50268.69, 22710.56, 37362.23, 27575.86, 39345.80, 25402.67, 0.00, 0.00, 0.00, 0.00
212, 45221.02, 50257.58, 22684.65, 37330.61, 27582.92, 39400.67, 25375.91, 0.00, 0.00, 0.00, 0.00
213, 45196.50, 50272.22, 22648.89, 37272.74, 27428.18, 39025.45, 25343.95, 0.00, 0.00, 0.00, 0.00
214, 45168.52, 50275.40, 22677.50, 37303.09, 27455.96, 39036.23, 25374.50, 0.00, 0.00, 0.00, 0.00
215, 45181.21, 50269.59, 22706.11, 37356.49, 27555.88, 39292.11, 25406.73, 0.00, 0.00, 0.00, 0.00
216, 45220.93, 50261.56, 22690.22, 37354.10, 27600.13, 39447.61, 25391.54, 0.00, 0.00, 0.00, 0.00
217, 45205.38, 50275.13, 22649.09, 37279.20, 27438.67, 39077.11, 25348.40, 0.00, 0.15, 0.96, 0.21
218, 45167.18, 50279.51, 22675.71, 37288.45, 27436.72, 39002.92, 25362.17, 0.00, 0.00, 0.00, 0.00
219, 45164.31, 50268.02, 22699.89, 37334.21, 27525.97, 39225.66, 25387.51, 0.00, 0.00, 0.00, 0.00
220, 45200.77, 50250.48, 22705.10, 37347.11, 27603.69, 39467.82, 25389.08, 0.00, 0.00, 0.00, 0.00
221, 45199.20, 50258.14, 22656.33, 37272.09, 27449.33, 39131.27, 25339.59, 0.00, 0.00, 0.00, 0.00
222, 45167.64, 50272.67, 22669.94, 37280.99, 27419.40, 38996.46, 25356.69, 0.00, 0.00, 0.00, 0.00
223, 45162.50, 50269.88, 22701.44, 37330.47, 27506.19, 39201.92, 25394.46, 0.00, 0.00, 0.00, 0.00
224, 45197.59, 50263.15, 22713.24, 37355.89, 27610.06, 39475.10, 25407.47, 0.00, 0.00, 0.00, 0.00
225, 45205.71, 50263.37, 22656.15, 37281.30, 27480.89, 39210.61, 25357.74, 0.00, 0.00, 0.00, 0.00
226, 45171.60, 50275.35, 22660.80, 37273.05, 27410.81, 38975.07, 25350.36, 0.00, 0.00, 0.00, 0.00
227, 45159.78, 50270.59, 22696.16, 37317.80, 27487.53, 39138.02, 25381.28, 0.00, 0.16, 0.96, 0.21
228, 45188.23, 50256.78, 22714.54, 37355.04, 27603.24, 39435.70, 25407.56, 0.00, 0.00, 0.00, 0.00
229, 45209.31, 50254.95, 22666.41, 37295.09, 27520.83, 39284.26, 25365.83, 0.00, 0.00, 0.00, 0.00
230, 45171.40, 50266.23, 22656.60, 37267.62, 27412.80, 38986.27, 25350.14, 0.00, 0.00, 0.00, 0.00
231, 45153.54, 50268.76, 22690.24, 37312.50, 27476.57, 39104.40, 25384.41, 0.00, 0.00, 0.00, 0.00
232, 45166.97, 50253.02, 22711.34, 37354.91, 27588.80, 39395.64, 25406.09, 0.00, 0.00, 0.00, 0.00
233, 45194.42, 50243.61, 22675.24, 37312.35, 27549.53, 39367.10, 25373.95, 0.00, 0.00, 0.00, 0.00
234, 45167.58, 50260.49, 22655.08, 37271.04, 27413.70, 39007.17, 25347.84, 0.00, 0.00, 0.00, 0.00
235, 45147.75, 50263.17, 22688.54, 37309.82, 27465.51, 39065.53, 25378.48, 0.00, 0.00, 0.00, 0.00
236, 45156.58, 50246.34, 22707.52, 37357.81, 27574.27, 39351.90, 25413.55, 0.00, 0.00, 0.00, 0.00
237, 45195.07, 50241.36, 22683.20, 37332.98, 27583.77, 39425.23, 25388.18, 0.00, 0.17, 0.96, 0.20
238, 45171.51, 50255.73, 22646.36, 37267.53, 27422.55, 39037.95, 25341.13, 0.00, 0.00, 0.00, 0.00
239, 45149.14, 50264.47, 22682.06, 37303.77, 27451.05, 39033.61, 25367.08, 0.00, 0.00, 0.00, 0.00
240, 45158.46, 50260.71, 22709.91, 37351.30, 27549.22, 39286.50, 25407.85, 0.00, 0.00, 0.00, 0.00
241, 45195.94, 50248.26, 22695.31, 37346.34, 27598.32, 39459.61, 25389.41, 0.00, 0.00, 0.00, 0.00
242, 45179.00, 50253.83, 22645.87, 37273.34, 27431.58, 39083.52, 25332.59, 0.00, 0.00, 0.00, 0.00
243, 45151.15, 50264.91, 22671.24, 37296.10, 27434.53, 39004.33, 25359.21, 0.00, 0.00, 0.00, 0.00
244, 45150.63, 50257.25, 22695.80, 37349.16, 27527.13, 39229.63, 25393.79, 0.00, 0.00, 0.00, 0.00
245, 45188.27, 50243.68, 22695.56, 37357.36, 27608.74, 39470.61, 25401.35, 0.00, 0.00, 0.00, 0.00
246, 45189.70, 50250.63, 22647.30, 37287.09, 27465.49, 39152.34, 25357.45, 0.00, 0.17, 0.96, 0.20
247, 45157.86, 50264.24, 22663.08, 37288.77, 27429.88, 38985.13, 25364.78, 0.00, 0.00, 0.00, 0.00
248, 45151.10, 50257.34, 22691.45, 37338.39, 27509.14, 39178.83, 25398.13, 0.00, 0.00, 0.00, 0.00
249, 45188.03, 50247.52, 22703.96, 37371.18, 27608.74, 39465.76, 25403.12, 0.00, 0.00, 0.00, 0.00
250, 45198.38, 50244.91, 22654.97, 37301.86, 27490.54, 39235.16, 25355.75, 0.00, 0.00, 0.00, 0.00
251, 45164.98, 50260.58, 22662.92, 37291.71, 27419.35, 38998.94, 25354.46, 0.00, 0.00, 0.00, 0.00
252, 45157.41, 50261.85, 22693.08, 37337.45, 27491.68, 39147.78, 25382.06, 0.00, 0.00, 0.00, 0.00
253, 45187.18, 50250.70, 22710.67, 37379.20, 27600.96, 39439.92, 25407.34, 0.00, 0.00, 0.00, 0.00
254, 45211.95, 50250.72, 22665.76, 37319.34, 27525.41, 39311.09, 25371.82, 0.00, 0.00, 0.00, 0.00
255, 45180.29, 50264.13, 22652.35, 37282.33, 27408.00, 38985.62, 25345.18, 0.00, 0.00, 0.00, 0.00
0, 45165.66, 50264.73, 22686.37, 37323.19, 27472.51, 39087.46, 25379.78, 0.00, 0.17, 0.96, 0.21
1, 45183.80, 50253.22, 22706.49, 37368.38, 27579.32, 39371.21, 25398.76, 0.00, 0.00, 0.00, 0.00
2, 45215.97, 50248.66, 22674.46, 37333.40, 27552.95, 39365.40, 25366.05, 0.00, 0.00, 0.00, 0.00
3, 45184.56, 50261.76, 22647.19, 37287.18, 27411.02, 39002.54, 25340.48, 0.00, 0.00, 0.00, 0.00
4, 45166.53, 50266.97, 22684.63, 37327.19, 27462.00, 39042.02, 25377.63, 0.00, 0.00, 0.00, 0.00
5, 45176.54, 50253.00, 22706.69, 37373.19, 27567.05, 39320.05, 25406.40, 0.00, 0.00, 0.00, 0.00
6, 45215.59, 50247.50, 22687.00, 37351.80, 27583.64, 39420.23, 25385.52, 0.00, 0.00, 0.00, 0.00
7, 45199.83, 50269.43, 22647.59, 37291.65, 27423.67, 39032.87, 25336.42, 0.00, 0.00, 0.00, 0.00
8, 45182.53, 50282.46, 22680.67, 37320.17, 27454.24, 39008.24, 25366.32, 0.00, 0.00, 0.00, 0.00
9, 45184.68, 50267.71, 22701.35, 37372.81, 27550.83, 39255.61, 25407.29, 0.00, 0.00, 0.00, 0.00
10, 45217.11, 50250.16, 22692.00, 37370.46, 27604.92, 39446.16, 25393.21, 0.00, 0.18, 0.96, 0.21
11, 45202.51, 50251.70, 22640.33, 37273.54, 27436.59, 39069.30, 25333.49, 0.00, 0.00, 0.00, 0.00
12, 45171.87, 50262.43, 22662.46, 37289.61, 27424.88, 38964.70, 25341.74, 0.00, 0.00, 0.00, 0.00
13, 45169.61, 50257.71, 22691.80, 37342.25, 27511.82, 39185.89, 25377.21, 0.00, 0.00, 0.00, 0.00
14, 45207.45, 50249.27, 22696.92, 37375.13, 27596.94, 39450.70, 25383.62, 0.00, 0.00, 0.00, 0.00
15, 45210.71, 50259.37, 22651.17, 37290.44, 27466.16, 39145.01, 25341.13, 0.00, 0.00, 0.00, 0.00
16, 45180.00, 50267.53, 22667.08, 37283.27, 27423.98, 38957.12, 25356.13, 0.00, 0.00, 0.00, 0.00
17, 45173.66, 50260.33, 22697.03, 37328.33, 27504.69, 39135.09, 25392.27, 0.00, 0.00, 0.00, 0.00
18, 45202.85, 50248.66, 22709.86, 37361.25, 27613.25, 39426.49, 25403.47, 0.00, 0.00, 0.00, 0.00
19, 45216.55, 50248.71, 22661.38, 37291.45, 27503.20, 39210.79, 25354.68, 0.00, 0.00, 0.00, 0.00
20, 45182.35, 50262.81, 22664.58, 37275.42, 27421.41, 38947.98, 25342.54, 0.00, 0.18, 0.95, 0.21
21, 45162.50, 50251.46, 22694.35, 37312.41, 27489.63, 39080.53, 25366.12, 0.00, 0.00, 0.00, 0.00
22, 45192.19, 50244.91, 22716.59, 37359.02, 27605.39, 39378.86, 25389.93, 0.00, 0.00, 0.00, 0.00
23, 45212.66, 50240.19, 22662.84, 37304.46, 27531.76, 39290.19, 25358.50, 0.00, 0.00, 0.00, 0.00
24, 45179.76, 50252.82, 22646.36, 37266.30, 27408.18, 38960.56, 25334.94, 0.00, 0.00, 0.00, 0.00
25, 45159.75, 50249.76, 22681.83, 37306.58, 27466.47, 39054.55, 25368.07, 0.00, 0.00, 0.00, 0.00
26, 45173.84, 50235.41, 22703.05, 37353.47, 27582.23, 39348.88, 25405.77, 0.00, 0.00, 0.00, 0.00
27, 45211.95, 50231.52, 22672.60, 37322.45, 27566.09, 39361.31, 25375.44, 0.00, 0.00, 0.00, 0.00
28, 45184.99, 50248.78, 22646.90, 37272.05, 27419.51, 38991.12, 25340.87, 0.00, 0.00, 0.00, 0.00
29, 45160.45, 50250.92, 22678.37, 37299.23, 27461.13, 39026.50, 25372.31, 0.00, 0.00, 0.00, 0.00
30, 45175.63, 50240.26, 22707.79, 37348.82, 27567.03, 39288.06, 25402.27, 0.00, 0.18, 0.96, 0.20
31, 45215.36, 50229.31, 22693.84, 37333.43, 27595.33, 39407.09, 25382.30, 0.00, 0.00, 0.00, 0.00
32, 45198.87, 50249.65, 22654.65, 37267.02, 27438.31, 39022.32, 25346.41, 0.00, 0.00, 0.00, 0.00
33, 45175.60, 50260.76, 22682.71, 37293.46, 27453.66, 38999.50, 25378.51, 0.00, 0.00, 0.00, 0.00
34, 45175.09, 50249.13, 22701.86, 37339.71, 27541.84, 39240.25, 25407.36, 0.00, 0.00, 0.00, 0.00
35, 45211.57, 50234.83, 22695.76, 37340.91, 27602.41, 39433.75, 25390.98, 0.00, 0.00, 0.00, 0.00
36, 45204.01, 50245.42, 22649.49, 37268.61, 27441.39, 39079.43, 25339.90, 0.00, 0.00, 0.00, 0.00
37, 45180.45, 50264.40, 22677.21, 37288.50, 27429.77, 38967.11, 25361.65, 0.00, 0.00, 0.00, 0.00
38, 45176.96, 50254.79, 22701.08, 37330.21, 27515.89, 39172.08, 25394.29, 0.00, 0.00, 0.00, 0.00
39, 45214.76, 50243.12, 22707.09, 37350.46, 27607.22, 39425.32, 25391.67, 0.00, 0.18, 0.95, 0.20
40, 45219.41, 50249.16, 22655.79, 37279.85, 27471.68, 39143.69, 25342.09, 0.00, 0.00, 0.00, 0.00
41, 45188.09, 50270.39, 22667.93, 37286.93, 27421.03, 38960.30, 25354.43, 0.00, 0.00, 0.00, 0.00
42, 45180.32, 50269.12, 22696.50, 37332.44, 27497.63, 39137.55, 25388.29, 0.00, 0.00, 0.00, 0.00
43, 45204.77, 50251.05, 22708.61, 37360.02, 27602.48, 39422.02, 25399.20, 0.00, 0.00, 0.00, 0.00
44, 45219.10, 50250.56, 22658.59, 37306.47, 27503.71, 39224.32, 25354.39, 0.00, 0.00, 0.00, 0.00
45, 45187.36, 50271.42, 22656.98, 37287.78, 27417.05, 38956.56, 25352.38, 0.00, 0.00, 0.00, 0.00
46, 45169.39, 50270.05, 22689.10, 37316.08, 27488.38, 39083.72, 25385.41, 0.00, 0.00, 0.00, 0.00
47, 45190.82, 50250.61, 22708.25, 37358.13, 27598.39, 39379.30, 25398.46, 0.00, 0.00, 0.00, 0.00
48, 45215.75, 50242.68, 22665.85, 37304.01, 27538.15, 39304.31, 25357.29, 0.00, 0.00, 0.00, 0.00
49, 45184.41, 50257.05, 22643.99, 37262.77, 27407.31, 38963.80, 25336.37, 0.00, 0.18, 0.96, 0.20
50, 45166.30, 50259.82, 22678.04, 37307.16, 27463.56, 39048.86, 25373.61, 0.00, 0.00, 0.00, 0.00
51, 45187.02, 50256.31, 22708.46, 37362.71, 27573.98, 39336.81, 25394.35, 0.00, 0.00, 0.00, 0.00
52, 45216.46, 50245.04, 22675.31, 37326.59, 27562.03, 39360.71, 25365.85, 0.00, 0.00, 0.00, 0.00
53, 45187.20, 50255.35, 22638.27, 37272.54, 27410.75, 38983.86, 25333.22, 0.00, 0.00, 0.00, 0.00
54, 45167.60, 50262.32, 22671.11, 37311.72, 27451.05, 39014.95, 25369.65, 0.00, 0.00, 0.00, 0.00
55, 45181.88, 50257.96, 22697.86, 37365.84, 27552.53, 39278.18, 25396.79, 0.00, 0.00, 0.00, 0.00
56, 45220.93, 50251.68, 22684.25, 37353.61, 27584.24, 39411.69, 25371.44, 0.00, 0.00, 0.00, 0.00
57, 45203.18, 50265.34, 22642.16, 37284.68, 27423.33, 39034.59, 25331.05, 0.00, 0.00, 0.00, 0.00
58, 45180.32, 50273.74, 22674.97, 37314.38, 27441.73, 38993.00, 25361.14, 0.00, 0.00, 0.00, 0.00
59, 45181.97, 50264.87, 22703.63, 37367.94, 27539.16, 39231.51, 25395.63, 0.00, 0.17, 0.96, 0.20
60, 45212.13, 50245.85, 22694.73, 37370.86, 27606.15, 39445.02, 25385.12, 0.00, 0.00, 0.00, 0.00
61, 45205.48, 50252.80, 22640.77, 37295.47, 27448.92, 39100.11, 25335.90, 0.00, 0.00, 0.00, 0.00
62, 45176.65, 50265.05, 22663.28, 37304.86, 27428.34, 38970.78, 25353.45, 0.00, 0.00, 0.00, 0.00
63, 45174.57, 50254.77, 22694.80, 37345.25, 27514.10, 39171.14, 25387.31, 0.00, 0.00, 0.00, 0.00
64, 45214.85, 50247.75, 22705.66, 37371.40, 27609.66, 39443.50, 25394.51, 0.00, 0.00, 0.00, 0.00
65, 45221.49, 50253.40, 22650.23, 37302.16, 27474.16, 39172.68, 25343.70, 0.00, 0.00, 0.00, 0.00
66, 45190.60, 50268.31, 22656.89, 37297.41, 27412.18, 38954.30, 25342.72, 0.00, 0.00, 0.00, 0.00
67, 45182.08, 50264.07, 22688.18, 37345.14, 27489.34, 39124.56, 25371.64, 0.00, 0.00, 0.00, 0.00
68, 45203.99, 50242.29, 22702.46, 37376.72, 27600.85, 39411.29, 25389.03, 0.00, 0.00, 0.00, 0.00
69, 45214.14, 50239.43, 22652.78, 37299.61, 27506.14, 39231.07, 25348.15, 0.00, 0.17, 0.96, 0.19
70, 45188.07, 50267.30, 22651.84, 37283.65, 27412.69, 38948.18, 25339.95, 0.00, 0.00, 0.00, 0.00
71, 45183.80, 50278.04, 22692.25, 37347.19, 27490.34, 39091.72, 25383.51, 0.00, 0.00, 0.00, 0.00
72, 45196.54, 50249.09, 22700.47, 37375.82, 27594.70, 39380.66, 25403.49, 0.00, 0.00, 0.00, 0.00
73, 45206.09, 50224.34, 22651.53, 37304.50, 27529.26, 39303.66, 25350.88, 0.00, 0.00, 0.00, 0.00
74, 45173.48, 50240.37, 22632.88, 37264.36, 27399.73, 38952.29, 25321.64, 0.00, 0.00, 0.00, 0.00
75, 45152.60, 50239.90, 22668.33, 37306.49, 27458.94, 39033.45, 25364.00, 0.00, 0.00, 0.00, 0.00
76, 45174.98, 50238.02, 22699.25, 37366.93, 27575.21, 39331.13, 25408.32, 0.00, 0.00, 0.00, 0.00
77, 45207.14, 50231.59, 22670.90, 37338.95, 27572.62, 39385.65, 25378.04, 0.00, 0.00, 0.00, 0.00
78, 45175.80, 50243.41, 22633.85, 37282.44, 27414.14, 39003.32, 25334.03, 0.00, 0.17, 0.96, 0.19
79, 45158.70, 50253.94, 22672.51, 37316.26, 27448.46, 39018.75, 25368.94, 0.00, 0.00, 0.00, 0.00
80, 45160.13, 50234.96, 22697.88, 37356.27, 27546.09, 39267.54, 25398.60, 0.00, 0.00, 0.00, 0.00
81, 45199.38, 50222.54, 22689.10, 37350.73, 27589.29, 39428.54, 25380.32, 0.00, 0.00, 0.00, 0.00
82, 45181.93, 50234.56, 22639.70, 37277.93, 27418.19, 39047.58, 25326.78, 0.00, 0.00, 0.00, 0.00
83, 45154.64, 50250.14, 22664.04, 37303.23, 27421.79, 38984.44, 25353.63, 0.00, 0.00, 0.00, 0.00
84, 45151.59, 50238.72, 22686.53, 37349.52, 27513.50, 39214.43, 25387.36, 0.00, 0.00, 0.00, 0.00
85, 45191.96, 50226.36, 22685.66, 37362.55, 27589.85, 39444.41, 25388.38, 0.00, 0.00, 0.00, 0.00
86, 45191.18, 50238.92, 22636.88, 37291.79, 27441.88, 39107.97, 25342.47, 0.00, 0.00, 0.00, 0.00
87, 45144.84, 50239.03, 22647.75, 37292.57, 27412.47, 38962.80, 25351.33, 0.00, 0.00, 0.00, 0.00
88, 45134.63, 50229.69, 22673.36, 37341.25, 27494.46, 39161.73, 25383.78, 0.00, 0.18, 0.96, 0.19
89, 45168.56, 50217.80, 22683.96, 37368.50, 27596.33, 39440.46, 25386.37, 0.00, 0.00, 0.00, 0.00
90, 45176.29, 50226.80, 22630.89, 37301.28, 27469.31, 39186.70, 25340.75, 0.00, 0.00, 0.00, 0.00
91, 45144.29, 50246.92, 22641.67, 37300.32, 27406.57, 38965.53, 25353.43, 0.00, 0.00, 0.00, 0.00
92, 45128.77, 50232.93, 22670.44, 37332.02, 27480.26, 39126.46, 25385.32, 0.00, 0.00, 0.00, 0.00
93, 45158.43, 50219.52, 22687.53, 37371.63, 27589.96, 39422.51, 25407.65, 0.00, 0.00, 0.00, 0.00
94, 45184.03, 50222.76, 22642.52, 37315.10, 27506.48, 39275.72, 25366.97, 0.00, 0.00, 0.00, 0.00
95, 45147.50, 50235.32, 22633.58, 37282.84, 27395.64, 38966.11, 25339.84, 0.00, 0.00, 0.00, 0.00
96, 45126.14, 50235.10, 22662.54, 37322.16, 27457.91, 39068.64, 25365.03, 0.00, 0.00, 0.00, 0.00
97, 45144.87, 50224.61, 22686.30, 37370.98, 27571.46, 39376.06, 25393.14, 0.00, 0.00, 0.00, 0.00
98, 45170.08, 50219.23, 22651.88, 37329.56, 27535.94, 39341.62, 25366.19, 0.00, 0.18, 0.96, 0.19
99, 45138.74, 50235.16, 22627.74, 37282.93, 27397.94, 38978.49, 25335.50, 0.00, 0.00, 0.00, 0.00
100, 45125.33, 50239.32, 22664.00, 37325.64, 27449.24, 39041.86, 25377.79, 0.00, 0.00, 0.00, 0.00
101, 45141.20, 50233.67, 22688.21, 37375.34, 27557.42, 39325.97, 25407.21, 0.00, 0.00, 0.00, 0.00
102, 45179.76, 50232.06, 22663.53, 37356.20, 27563.16, 39401.96, 25387.85, 0.00, 0.00, 0.00, 0.00
103, 45152.51, 50239.10, 22626.11, 37286.93, 27399.42, 39008.42, 25345.18, 0.00, 0.00, 0.00, 0.00
104, 45122.52, 50239.10, 22658.01, 37312.75, 27429.01, 39002.56, 25370.48, 0.00, 0.00, 0.00, 0.00
105, 45131.41, 50231.57, 22687.82, 37365.21, 27530.38, 39262.47, 25409.73, 0.00, 0.00, 0.00, 0.00
106, 45169.54, 50216.99, 22681.86, 37360.38, 27585.92, 39438.98, 25400.41, 0.00, 0.00, 0.00, 0.00
107, 45157.36, 50229.31, 22633.76, 37288.59, 27420.31, 39066.33, 25348.84, 0.00, 0.00, 0.00, 0.00
108, 45130.47, 50241.45, 22663.57, 37307.61, 27419.06, 38986.83, 25365.65, 0.00, 0.18, 0.95, 0.20
109, 45129.91, 50235.88, 22687.15, 37356.09, 27507.42, 39207.28, 25389.97, 0.00, 0.00, 0.00, 0.00
110, 45174.53, 50231.61, 22685.86, 37379.98, 27593.03, 39455.72, 25388.79, 0.00, 0.00, 0.00, 0.00
111, 45166.26, 50228.82, 22626.56, 37298.27, 27436.92, 39139.45, 25331.16, 0.00, 0.00, 0.00, 0.00
112, 45130.27, 50236.50, 22643.37, 37295.07, 27404.09, 38974.69, 25349.20, 0.00, 0.00, 0.00, 0.00
113, 45130.20, 50242.94, 22673.56, 37351.20, 27498.34, 39177.91, 25396.19, 0.00, 0.00, 0.00, 0.00
114, 45165.41, 50235.39, 22687.02, 37384.54, 27604.69, 39467.01, 25396.99, 0.00, 0.00, 0.00, 0.00
115, 45167.73, 50228.93, 22629.71, 37307.23, 27478.81, 39220.83, 25333.00, 0.00, 0.00, 0.00, 0.00
116, 45141.56, 50250.16, 22637.38, 37299.54, 27405.54, 38980.41, 25337.24, 0.00, 0.00, 0.00, 0.00
117, 45130.83, 50244.66, 22671.06, 37340.67, 27480.28, 39135.47, 25377.21, 0.00, 0.00, 0.00, 0.00
118, 45158.50, 50238.70, 22685.70, 37381.66, 27588.71, 39431.14, 25398.42, 0.00, 0.18, 0.96, 0.20
119, 45175.76, 50226.85, 22635.92, 37313.73, 27507.31, 39286.43, 25354.28, 0.00, 0.00, 0.00, 0.00
120, 45147.32, 50246.90, 22629.53, 37288.25, 27395.15, 38972.90, 25340.11, 0.00, 0.00, 0.00, 0.00
121, 45136.35, 50256.18, 22672.02, 37332.20, 27469.09, 39083.81, 25386.91, 0.00, 0.00, 0.00, 0.00
122, 45160.85, 50251.93, 22698.93, 37384.36, 27585.09, 39383.73, 25419.39, 0.00, 0.00, 0.00, 0.00
123, 45188.16, 50238.52, 22659.93, 37337.61, 27545.08, 39365.62, 25378.10, 0.00, 0.00, 0.00, 0.00
124, 45149.41, 50246.32, 22631.01, 37286.75, 27396.15, 39002.56, 25341.13, 0.00, 0.00, 0.00, 0.00
125, 45133.00, 50252.75, 22668.09, 37325.60, 27444.37, 39060.43, 25379.78, 0.00, 0.00, 0.00, 0.00
126, 45148.13, 50245.40, 22699.69, 37370.91, 27558.00, 39330.78, 25412.10, 0.00, 0.00, 0.00, 0.00
127, 45182.29, 50234.92, 22679.29, 37349.52, 27570.52, 39417.23, 25376.72, 0.00, 0.17, 0.96, 0.19
128, 45162.57, 50248.80, 22637.58, 37282.64, 27406.14, 39027.11, 25334.00, 0.00, 0.00, 0.00, 0.00
129, 45147.55, 50273.43, 22674.14, 37321.89, 27432.21, 39017.05, 25367.49, 0.00, 0.00, 0.00, 0.00
130, 45153.07, 50266.66, 22697.37, 37365.84, 27528.36, 39271.32, 25396.99, 0.00, 0.00, 0.00, 0.00
131, 45190.06, 50246.90, 22686.39, 37359.91, 27582.54, 39455.21, 25385.61, 0.00, 0.00, 0.00, 0.00
132, 45173.50, 50249.27, 22635.59, 37280.94, 27419.31, 39076.59, 25340.02, 0.00, 0.00, 0.00, 0.00
133, 45150.30, 50264.96, 22660.31, 37307.72, 27411.96, 38999.10, 25362.34, 0.00, 0.00, 0.00, 0.00
134, 45147.93, 50258.39, 22686.71, 37356.98, 27499.93, 39227.27, 25394.62, 0.00, 0.00, 0.00, 0.00
135, 45186.75, 50249.94, 22693.01, 37378.44, 27587.06, 39475.73, 25394.31, 0.00, 0.00, 0.00, 0.00
136, 45191.67, 50257.14, 22637.49, 37299.05, 27434.40, 39162.65, 25340.57, 0.00, 0.00, 0.00, 0.00
137, 45163.93, 50271.55, 22658.43, 37299.76, 27402.08, 38989.91, 25362.08, 0.00, 0.18, 0.96, 0.20
138, 45149.98, 50259.75, 22684.18, 37338.43, 27487.24, 39174.98, 25394.44, 0.00, 0.00, 0.00, 0.00
139, 45179.71, 50244.35, 22696.36, 37366.04, 27591.66, 39460.46, 25403.67, 0.00, 0.00, 0.00, 0.00
140, 45198.00, 50250.39, 22646.81, 37302.07, 27477.78, 39239.11, 25357.25, 0.00, 0.00, 0.00, 0.00
141, 45169.77, 50272.16, 22650.83, 37291.83, 27399.64, 38987.27, 25356.40, 0.00, 0.00, 0.00, 0.00
142, 45151.75, 50262.32, 22680.38, 37323.12, 27467.07, 39124.38, 25388.63, 0.00, 0.00, 0.00, 0.00
143, 45185.17, 50259.26, 22704.92, 37374.33, 27582.74, 39424.90, 25413.49, 0.00, 0.00, 0.00, 0.00
144, 45213.42, 50261.32, 22662.50, 37325.36, 27521.88, 39324.65, 25382.46, 0.00, 0.00, 0.00, 0.00
145, 45180.45, 50272.56, 22649.00, 37287.00, 27401.18, 38999.30, 25357.63, 0.00, 0.00, 0.00, 0.00
146, 45152.13, 50260.09, 22681.39, 37320.10, 27458.51, 39082.56, 25381.25, 0.00, 0.00, 0.00, 0.00
147, 45165.63, 50247.01, 22704.32, 37364.36, 27567.48, 39365.62, 25399.70, 0.00, 0.18, 0.96, 0.21
148, 45204.01, 50249.69, 22677.43, 37336.51, 27548.08, 39384.80, 25371.96, 0.00, 0.00, 0.00, 0.00
149, 45178.53, 50268.38, 22648.31, 37285.35, 27405.65, 39009.00, 25342.18, 0.00, 0.00, 0.00, 0.00
150, 45156.82, 50268.47, 22683.40, 37313.06, 27452.03, 39045.16, 25372.60, 0.00, 0.00, 0.00, 0.00
151, 45166.14, 50259.41, 22710.24, 37356.58, 27553.98, 39314.28, 25398.93, 0.00, 0.00, 0.00, 0.00
152, 45203.81, 50249.34, 22689.57, 37336.87, 27577.31, 39427.83, 25370.75, 0.00, 0.00, 0.00, 0.00
153, 45189.17, 50268.94, 22650.23, 37277.99, 27420.05, 39045.30, 25324.48, 0.00, 0.00, 0.00, 0.00
154, 45161.41, 50275.84, 22681.57, 37303.50, 27440.97, 39011.48, 25358.34, 0.00, 0.00, 0.00, 0.00
155, 45160.40, 50261.88, 22705.59, 37344.69, 27534.08, 39249.24, 25392.45, 0.00, 0.00, 0.00, 0.00
156, 45202.69, 50260.78, 22703.02, 37361.30, 27601.65, 39465.33, 25388.32, 0.00, 0.00, 0.00, 0.00
157, 45190.55, 50265.41, 22647.64, 37276.32, 27437.53, 39106.48, 25336.75, 0.00, 0.17, 0.95, 0.21
158, 45154.70, 50265.81, 22665.65, 37274.48, 27423.40, 38985.66, 25346.70, 0.00, 0.00, 0.00, 0.00
159, 45160.56, 50270.32, 22700.34, 37334.27, 27520.05, 39210.93, 25391.07, 0.00, 0.00, 0.00, 0.00
160, 45195.52, 50259.86, 22701.10, 37357.09, 27608.87, 39474.05, 25398.42, 0.00, 0.00, 0.00, 0.00
161, 45194.73, 50261.14, 22640.93, 37278.71, 27458.31, 39172.04, 25344.51, 0.00, 0.00, 0.00, 0.00
162, 45177.81, 50287.47, 22666.14, 37283.38, 27418.35, 38983.32, 25354.01, 0.00, 0.00, 0.00, 0.00
163, 45170.62, 50285.54, 22697.86, 37330.63, 27505.25, 39166.29, 25392.72, 0.00, 0.00, 0.00, 0.00
164, 45205.57, 50273.68, 22709.62, 37366.95, 27612.14, 39460.24, 25406.76, 0.00, 0.00, 0.00, 0.00
165, 45229.22, 50283.51, 22666.03, 37306.34, 27507.75, 39272.64, 25368.92, 0.00, 0.00, 0.00, 0.00
166, 45200.61, 50300.45, 22669.47, 37286.44, 27409.00, 38999.16, 25355.44, 0.00, 0.00, 0.00, 0.00
167, 45201.68, 50312.16, 22714.45, 37341.56, 27487.93, 39148.36, 25394.29, 0.00, 0.17, 0.95, 0.21
168, 45226.74, 50305.06, 22732.21, 37386.64, 27596.65, 39443.86, 25416.44, 0.00, 0.00, 0.00, 0.00
169, 45247.77, 50297.14, 22681.83, 37324.93, 27522.57, 39344.93, 25364.45, 0.00, 0.00, 0.00, 0.00
170, 45212.30, 50306.82, 22654.19, 37278.55, 27387.88, 38992.95, 25323.30, 0.00, 0.00, 0.00, 0.00
171, 45191.87, 50301.21, 22692.67, 37316.30, 27447.20, 39068.19, 25356.35, 0.00, 0.00, 0.00, 0.00
172, 45208.01, 50294.33, 22715.61, 37376.50, 27562.34, 39363.10, 25389.77, 0.00, 0.00, 0.00, 0.00
173, 45241.32, 50289.30, 22685.43, 37341.89, 27550.04, 39395.98, 25357.63, 0.00, 0.00, 0.00, 0.00
174, 45215.92, 50303.14, 22656.53, 37273.75, 27399.97, 39007.79, 25322.38, 0.00, 0.00, 0.00, 0.00
175, 45180.79, 50292.72, 22685.88, 37296.10, 27433.50, 39025.59, 25351.35, 0.00, 0.00, 0.00, 0.00
176, 45186.53, 50281.45, 22706.91, 37346.72, 27535.25, 39295.30, 25391.11, 0.00, 0.16, 0.96, 0.21
177, 45227.34, 50276.25, 22686.44, 37347.64, 27573.13, 39443.30, 25379.64, 0.00, 0.00, 0.00, 0.00
178, 45205.98, 50281.95, 22640.60, 37273.97, 27405.41, 39058.87, 25324.93, 0.00, 0.00, 0.00, 0.00
179, 45180.43, 50288.96, 22673.79, 37298.49, 27429.52, 39009.25, 25363.22, 0.00, 0.00, 0.00, 0.00
180, 45191.67, 50297.59, 22705.10, 37357.34, 27538.46, 39258.51, 25414.13, 0.00, 0.00, 0.00, 0.00
181, 45222.63, 50278.86, 22693.70, 37363.82, 27604.98, 39484.60, 25404.77, 0.00, 0.00, 0.00, 0.00
182, 45213.75, 50280.49, 22641.73, 37279.04, 27437.57, 39122.95, 25338.61, 0.00, 0.00, 0.00, 0.00
183, 45190.40, 50304.01, 22676.07, 37297.71, 27420.40, 38998.12, 25355.24, 0.00, 0.00, 0.00, 0.00
184, 45192.14, 50308.52, 22710.96, 37357.32, 27519.96, 39213.36, 25409.17, 0.00, 0.00, 0.00, 0.00
185, 45221.76, 50286.64, 22704.88, 37370.80, 27612.92, 39478.75, 25410.49, 0.00, 0.00, 0.00, 0.00
186, 45223.70, 50278.53, 22647.81, 37280.34, 27463.19, 39183.75, 25342.99, 0.00, 0.17, 0.96, 0.21
187, 45198.29, 50296.96, 22663.64, 37278.15, 27406.97, 38971.65, 25347.15, 0.00, 0.00, 0.00, 0.00
188, 45191.58, 50301.66, 22697.55, 37333.20, 27489.54, 39148.39, 25391.04, 0.00, 0.00, 0.00, 0.00
189, 45223.25, 50289.05, 22713.89, 37357.68, 27594.66, 39438.60, 25400.16, 0.00, 0.00, 0.00, 0.00
190, 45238.72, 50287.64, 22664.09, 37288.99, 27495.93, 39255.61, 25349.52, 0.00, 0.00, 0.00, 0.00
191, 45197.13, 50300.57, 22657.31, 37267.96, 27401.70, 38970.13, 25341.65, 0.00, 0.00, 0.00, 0.00
192, 45183.51, 50301.91, 22692.47, 37310.38, 27473.89, 39097.09, 25378.37, 0.00, 0.00, 0.00, 0.00
193, 45210.38, 50293.05, 22712.26, 37353.41, 27585.11, 39398.77, 25403.20, 0.00, 0.00, 0.00, 0.00
194, 45228.17, 50274.57, 22664.67, 37291.18, 27522.24, 39321.90, 25351.75, 0.00, 0.00, 0.00, 0.00
195, 45202.91, 50295.89, 22653.40, 37258.93, 27399.19, 38987.25, 25331.63, 0.00, 0.00, 0.00, 0.00
196, 45191.83, 50315.05, 22684.20, 37318.40, 27463.50, 39081.44, 25379.15, 0.00, 0.17, 0.95, 0.21
197, 45206.49, 50299.13, 22704.63, 37355.39, 27568.39, 39358.16, 25403.40, 0.00, 0.00, 0.00, 0.00
198, 45232.75, 50278.91, 22672.42, 37318.32, 27558.31, 39403.80, 25369.32, 0.00, 0.00, 0.00, 0.00
199, 45214.45, 50306.36, 22641.29, 37273.23, 27407.51, 39028.63, 25338.67, 0.00, 0.00, 0.00, 0.00
200, 45196.37, 50322.47, 22676.04, 37316.08, 27444.70, 39045.57, 25378.57, 0.00, 0.00, 0.00, 0.00
201, 45203.85, 50314.91, 22698.62, 37363.15, 27543.52, 39313.34, 25408.52, 0.00, 0.00, 0.00, 0.00
202, 45247.89, 50308.39, 22683.62, 37351.53, 27586.25, 39457.80, 25391.78, 0.00, 0.00, 0.00, 0.00
203, 45232.24, 50314.09, 22639.30, 37278.82, 27430.04, 39075.77, 25351.15, 0.00, 0.00, 0.00, 0.00
