%OpenBCI Raw EEG Data
%
%Sample Rate = 250.0 Hz
%First Column = SampleIndex
%Other Columns = EEG data in microvolts followed by Accel Data (in G) interleaved with Aux Data
0, 57945.73, 48366.85, 29200.34, 38991.48, 44839.54, 54062.70, 16702.16, 0.00, 0.04, 0.49, 0.15
1, 58007.83, 48334.93, 29180.18, 38937.95, 44956.82, 54426.90, 16668.75, 0.00, 0.00, 0.00, 0.00
2, 58242.95, 48351.34, 29129.57, 38901.55, 45042.21, 54810.99, 16624.73, 0.00, 0.00, 0.00, 0.00
3, 58166.25, 48390.27, 29158.01, 38930.05, 44864.18, 54318.16, 16679.47, 0.00, 0.00, 0.00, 0.00
4, 58006.38, 48379.48, 29215.92, 38979.52, 44836.12, 54032.57, 16724.58, 0.00, 0.00, 0.00, 0.00
5, 58036.37, 48359.70, 29220.01, 38970.55, 44947.19, 54340.57, 16688.13, 0.00, 0.00, 0.00, 0.00
6, 58275.27, 48377.76, 29175.73, 38964.25, 45069.56, 54811.28, 16607.28, 0.00, 0.00, 0.00, 0.00
7, 58256.55, 48407.37, 29171.84, 38957.66, 44884.94, 54419.99, 16639.53, 0.00, 0.08, 0.93, 0.28
8, 58072.00, 48415.60, 29211.83, 38963.92, 44798.46, 54017.53, 16692.37, 0.00, 0.00, 0.00, 0.00
9, 58048.68, 48394.90, 29249.09, 38997.60, 44906.96, 54240.20, 16678.40, 0.00, 0.00, 0.00, 0.00
10, 58258.90, 48398.99, 29210.91, 38969.89, 45066.88, 54771.27, 16610.27, 0.00, 0.00, 0.00, 0.00
11, 58297.15, 48418.53, 29176.83, 38918.57, 44921.89, 54521.60, 16617.09, 0.00, 0.00, 0.00, 0.00
12, 58098.86, 48413.23, 29230.11, 38972.52, 44801.66, 54037.11, 16676.28, 0.00, 0.00, 0.00, 0.00
13, 58060.64, 48389.69, 29237.94, 39033.39, 44872.71, 54181.92, 16678.45, 0.00, 0.00, 0.00, 0.00
14, 58240.26, 48380.50, 29194.57, 38919.44, 45002.91, 54686.74, 16600.06, 0.00, 0.00, 0.00, 0.00
15, 58308.05, 48388.42, 29167.84, 38872.25, 44949.40, 54611.19, 16586.49, 0.00, 0.00, 0.00, 0.00
16, 58119.72, 48408.96, 29227.50, 38934.86, 44808.88, 54073.32, 16668.61, 0.00, 0.08, 0.94, 0.29
17, 58048.55, 48391.30, 29246.16, 38948.98, 44855.50, 54097.48, 16668.95, 0.00, 0.00, 0.00, 0.00
18, 58198.44, 48385.73, 29214.20, 38974.82, 45000.12, 54589.71, 16605.13, 0.00, 0.00, 0.00, 0.00
19, 58338.30, 48400.44, 29164.53, 38917.96, 44981.23, 54687.39, 16562.04, 0.00, 0.00, 0.00, 0.00
20, 58174.55, 48415.26, 29201.86, 38897.96, 44795.46, 54111.74, 16621.05, 0.00, 0.00, 0.00, 0.00
21, 58065.70, 48404.22, 29233.85, 38959.89, 44822.46, 54054.88, 16656.97, 0.00, 0.00, 0.00, 0.00
22, 58157.20, 48387.37, 29223.63, 38958.57, 44995.25, 54490.55, 16660.81, 0.00, 0.00, 0.00, 0.00
23, 58349.63, 48399.80, 29180.07, 38923.53, 45039.12, 54781.62, 16601.24, 0.00, 0.00, 0.00, 0.00
24, 58216.17, 48427.69, 29198.31, 38937.65, 44812.00, 54215.03, 16628.56, 0.00, 0.00, 0.00, 0.00
25, 58083.98, 48447.67, 29247.68, 38938.37, 44813.70, 54020.81, 16664.23, 0.00, 0.00, 0.00, 0.00
26, 58152.00, 48435.20, 29226.49, 38946.55, 44940.82, 54384.74, 16623.80, 0.00, 0.09, 0.92, 0.28
27, 58382.87, 48437.77, 29174.70, 38910.81, 45027.72, 54805.98, 16563.04, 0.00, 0.00, 0.00, 0.00
28, 58308.03, 48462.89, 29184.63, 38912.39, 44841.09, 54335.30, 16586.42, 0.00, 0.00, 0.00, 0.00
29, 58187.96, 48454.64, 29222.09, 38931.21, 44826.45, 54093.75, 16644.27, 0.00, 0.00, 0.00, 0.00
30, 58161.88, 48429.59, 29226.45, 38964.34, 44929.44, 54307.27, 16655.51, 0.00, 0.00, 0.00, 0.00
31, 58254.57, 48398.21, 29175.64, 38942.39, 44996.45, 54660.43, 16565.06, 0.00, 0.00, 0.00, 0.00
32, 58275.51, 48417.41, 29180.36, 38865.50, 44866.01, 54367.11, 16551.64, 0.00, 0.00, 0.00, 0.00
33, 58209.93, 48433.50, 29223.29, 38918.21, 44806.20, 54066.16, 16598.90, 0.00, 0.00, 0.00, 0.00
34, 58162.99, 48415.91, 29235.41, 38963.11, 44858.96, 54176.11, 16640.74, 0.00, 0.00, 0.00, 0.00
35, 58351.53, 48420.87, 29196.83, 38945.50, 45024.21, 54706.09, 16554.89, 0.00, 0.00, 0.00, 0.00
36, 58393.73, 48444.07, 29171.24, 38905.98, 44907.36, 54499.45, 16513.04, 0.00, 0.09, 0.91, 0.28
37, 58196.77, 48434.02, 29209.19, 38944.54, 44755.48, 54007.27, 16546.68, 0.00, 0.00, 0.00, 0.00
38, 58144.33, 48429.81, 29218.40, 38920.46, 44820.57, 54089.75, 16563.25, 0.00, 0.00, 0.00, 0.00
39, 58328.51, 48415.02, 29179.40, 38898.92, 44994.02, 54614.34, 16526.19, 0.00, 0.00, 0.00, 0.00
40, 58436.31, 48427.58, 29158.81, 38875.02, 44932.53, 54633.05, 16571.45, 0.00, 0.00, 0.00, 0.00
41, 58264.00, 48447.98, 29206.96, 38920.38, 44783.24, 54105.82, 16644.09, 0.00, 0.00, 0.00, 0.00
42, 58187.24, 48423.27, 29230.89, 38940.40, 44835.99, 54092.43, 16685.78, 0.00, 0.00, 0.00, 0.00
43, 58300.81, 48405.45, 29199.89, 38905.87, 44973.63, 54528.09, 16597.09, 0.00, 0.00, 0.00, 0.00
44, 58456.58, 48424.02, 29149.89, 38867.87, 44944.37, 54689.84, 16534.72, 0.00, 0.00, 0.00, 0.00
45, 58307.92, 48434.98, 29168.24, 38873.77, 44779.57, 54118.55, 16564.41, 0.00, 0.00, 0.00, 0.00
46, 58194.75, 48416.29, 29208.03, 38921.09, 44814.73, 54031.94, 16598.16, 0.00, 0.08, 0.91, 0.30
47, 58267.29, 48394.23, 29192.92, 38925.43, 44930.22, 54455.42, 16552.36, 0.00, 0.00, 0.00, 0.00
48, 58460.65, 48389.83, 29139.59, 38859.49, 44993.61, 54751.73, 16476.37, 0.00, 0.00, 0.00, 0.00
49, 58349.47, 48424.23, 29163.73, 38917.61, 44793.79, 54226.07, 16559.87, 0.00, 0.00, 0.00, 0.00
50, 58203.58, 48425.97, 29212.14, 38891.32, 44782.28, 53994.17, 16599.68, 0.00, 0.00, 0.00, 0.00
51, 58251.08, 48401.36, 29192.18, 38893.82, 44895.36, 54332.24, 16547.33, 0.00, 0.00, 0.00, 0.00
52, 58482.91, 48411.57, 29148.08, 38888.10, 44998.22, 54775.25, 16492.01, 0.00, 0.00, 0.00, 0.00
53, 58390.98, 48431.18, 29144.48, 38900.24, 44800.23, 54318.74, 16540.85, 0.00, 0.00, 0.00, 0.00
54, 58211.20, 48416.29, 29182.97, 38829.32, 44753.91, 53985.70, 16601.85, 0.00, 0.00, 0.00, 0.00
55, 58227.01, 48373.18, 29187.38, 38858.80, 44859.91, 54239.55, 16589.69, 0.00, 0.00, 0.00, 0.00
56, 58430.79, 48376.50, 29140.01, 38836.80, 44995.16, 54746.86, 16519.91, 0.00, 0.08, 0.93, 0.32
57, 58440.29, 48412.38, 29133.51, 38823.73, 44840.57, 54430.83, 16508.42, 0.00, 0.00, 0.00, 0.00
58, 58266.44, 48437.48, 29183.91, 38863.74, 44739.41, 53998.93, 16544.56, 0.00, 0.00, 0.00, 0.00
59, 58241.92, 48422.84, 29188.67, 38886.25, 44817.91, 54183.89, 16573.19, 0.00, 0.00, 0.00, 0.00
60, 58421.20, 48412.96, 29129.82, 38867.25, 44954.72, 54696.77, 16528.64, 0.00, 0.00, 0.00, 0.00
61, 58462.08, 48403.04, 29090.12, 38803.32, 44860.62, 54521.07, 16500.97, 0.00, 0.00, 0.00, 0.00
62, 58279.51, 48399.95, 29165.31, 38821.63, 44724.01, 54027.41, 16570.69, 0.00, 0.00, 0.00, 0.00
63, 58216.39, 48388.29, 29188.92, 38858.98, 44811.29, 54131.52, 16597.64, 0.00, 0.00, 0.00, 0.00
64, 58373.79, 48385.98, 29143.10, 38835.57, 44977.36, 54606.70, 16504.73, 0.00, 0.00, 0.00, 0.00
65, 58509.54, 48412.34, 29106.51, 38772.39, 44901.28, 54605.04, 16465.77, 0.00, 0.08, 0.93, 0.35
66, 58334.79, 48416.25, 29159.37, 38835.39, 44732.46, 54066.10, 16545.95, 0.00, 0.00, 0.00, 0.00
67, 58225.35, 48396.06, 29190.66, 38857.41, 44783.93, 54082.03, 16608.66, 0.00, 0.00, 0.00, 0.00
68, 58355.75, 48410.05, 29168.02, 38825.18, 44940.73, 54526.92, 16548.43, 0.00, 0.00, 0.00, 0.00
69, 58541.65, 48427.91, 29110.69, 38794.11, 44942.98, 54695.57, 16482.24, 0.00, 0.00, 0.00, 0.00
70, 58387.05, 48445.21, 29128.95, 38837.03, 44738.78, 54152.55, 16547.94, 0.00, 0.00, 0.00, 0.00
71, 58252.85, 48425.12, 29182.17, 38816.24, 44762.38, 54029.15, 16585.53, 0.00, 0.00, 0.00, 0.00
72, 58340.49, 48395.26, 29154.32, 38802.09, 44892.20, 54412.14, 16522.54, 0.00, 0.00, 0.00, 0.00
73, 58518.03, 48372.17, 29091.64, 38757.34, 44950.34, 54722.19, 16454.93, 0.00, 0.00, 0.00, 0.00
74, 58416.30, 48400.04, 29121.97, 38783.85, 44765.25, 54222.65, 16515.95, 0.00, 0.00, 0.00, 0.00
75, 58277.99, 48421.79, 29183.11, 38868.63, 44762.03, 54011.18, 16564.97, 0.00, 0.07, 0.91, 0.36
76, 58318.29, 48402.77, 29153.96, 38798.22, 44863.57, 54319.61, 16513.56, 0.00, 0.00, 0.00, 0.00
77, 58527.82, 48393.38, 29094.66, 38735.50, 44958.27, 54725.52, 16428.17, 0.00, 0.00, 0.00, 0.00
78, 58474.40, 48407.98, 29108.81, 38743.95, 44776.98, 54320.95, 16486.60, 0.00, 0.00, 0.00, 0.00
79, 58299.41, 48419.42, 29146.27, 38785.04, 44707.49, 53988.11, 16543.11, 0.00, 0.00, 0.00, 0.00
80, 58315.30, 48410.50, 29130.94, 38801.04, 44839.23, 54234.11, 16527.64, 0.00, 0.00, 0.00, 0.00
81, 58518.30, 48405.81, 29109.28, 38774.51, 44976.25, 54719.48, 16453.12, 0.00, 0.00, 0.00, 0.00
82, 58520.80, 48392.69, 29091.76, 38748.60, 44817.10, 54428.08, 16464.41, 0.00, 0.00, 0.00, 0.00
83, 58334.65, 48398.36, 29132.35, 38779.40, 44712.79, 53989.32, 16519.17, 0.00, 0.00, 0.00, 0.00
84, 58294.71, 48386.81, 29138.76, 38771.74, 44780.24, 54152.91, 16513.65, 0.00, 0.00, 0.00, 0.00
85, 58487.38, 48396.02, 29113.66, 38758.17, 44952.13, 54662.95, 16459.15, 0.00, 0.08, 0.91, 0.37
86, 58554.64, 48407.33, 29082.59, 38764.00, 44846.43, 54520.06, 16443.82, 0.00, 0.00, 0.00, 0.00
87, 58356.76, 48403.42, 29108.16, 38749.47, 44692.38, 54014.93, 16515.73, 0.00, 0.00, 0.00, 0.00
88, 58274.10, 48384.95, 29127.43, 38762.19, 44755.07, 54075.39, 16526.83, 0.00, 0.00, 0.00, 0.00
89, 58433.45, 48390.70, 29093.81, 38804.06, 44915.20, 54559.15, 16454.04, 0.00, 0.00, 0.00, 0.00
90, 58564.18, 48426.15, 29047.07, 38725.98, 44864.69, 54590.63, 16416.19, 0.00, 0.00, 0.00, 0.00
91, 58391.09, 48407.30, 29097.59, 38685.77, 44693.61, 54027.76, 16488.66, 0.00, 0.00, 0.00, 0.00
92, 58289.19, 48377.22, 29127.03, 38745.05, 44737.86, 54009.50, 16514.99, 0.00, 0.00, 0.00, 0.00
93, 58412.35, 48377.60, 29108.86, 38766.57, 44885.88, 54459.24, 16466.91, 0.00, 0.00, 0.00, 0.00
94, 58586.56, 48393.78, 29054.56, 38702.47, 44897.03, 54669.93, 16416.93, 0.00, 0.00, 0.00, 0.00
95, 58441.34, 48418.32, 29077.12, 38709.27, 44686.75, 54117.13, 16481.42, 0.00, 0.09, 0.93, 0.36
96, 58318.85, 48418.13, 29111.22, 38751.64, 44701.03, 53975.13, 16514.79, 0.00, 0.00, 0.00, 0.00
97, 58383.38, 48409.27, 29099.13, 38769.08, 44843.81, 54359.73, 16462.37, 0.00, 0.00, 0.00, 0.00
98, 58606.18, 48439.20, 29062.45, 38725.58, 44915.61, 54712.46, 16402.02, 0.00, 0.00, 0.00, 0.00
99, 58502.14, 48452.59, 29084.96, 38746.73, 44720.83, 54213.24, 16459.69, 0.00, 0.00, 0.00, 0.00
100, 58334.68, 48428.09, 29123.61, 38755.26, 44693.79, 53961.56, 16503.30, 0.00, 0.00, 0.00, 0.00
101, 58353.38, 48405.70, 29109.41, 38752.40, 44797.68, 54268.36, 16458.59, 0.00, 0.00, 0.00, 0.00
102, 58561.88, 48403.39, 29045.31, 38711.81, 44884.76, 54693.15, 16363.55, 0.00, 0.00, 0.00, 0.00
103, 58532.02, 48436.32, 29054.76, 38686.15, 44721.39, 54299.11, 16403.74, 0.00, 0.00, 0.00, 0.00
104, 58370.08, 48451.74, 29094.48, 38740.11, 44665.89, 53943.74, 16473.66, 0.00, 0.10, 0.94, 0.34
105, 58353.00, 48439.40, 29110.29, 38784.43, 44756.62, 54169.88, 16449.54, 0.00, 0.00, 0.00, 0.00
106, 58548.87, 48433.48, 29051.97, 38728.44, 44897.46, 54664.72, 16375.00, 0.00, 0.00, 0.00, 0.00
107, 58562.86, 48422.95, 29035.83, 38661.83, 44745.87, 54394.20, 16390.98, 0.00, 0.00, 0.00, 0.00
108, 58366.97, 48425.14, 29087.73, 38701.64, 44639.94, 53934.55, 16457.66, 0.00, 0.00, 0.00, 0.00
109, 58333.22, 48416.65, 29101.26, 38717.78, 44717.95, 54086.95, 16454.95, 0.00, 0.00, 0.00, 0.00
110, 58513.02, 48412.60, 29060.78, 38695.96, 44875.20, 54588.08, 16384.92, 0.00, 0.00, 0.00, 0.00
111, 58577.33, 48420.56, 29026.31, 38673.16, 44781.59, 54472.83, 16374.95, 0.00, 0.00, 0.00, 0.00
112, 58387.61, 48432.03, 29075.64, 38710.00, 44634.11, 53969.16, 16451.38, 0.00, 0.00, 0.00, 0.00
113, 58325.67, 48433.34, 29084.89, 38723.90, 44705.39, 54019.27, 16464.03, 0.00, 0.00, 0.00, 0.00
114, 58477.37, 48428.83, 29050.09, 38724.02, 44852.95, 54495.27, 16393.19, 0.00, 0.10, 0.96, 0.33
115, 58610.52, 48438.42, 29006.35, 38697.57, 44797.32, 54572.09, 16352.38, 0.00, 0.00, 0.00, 0.00
116, 58430.95, 48452.19, 29048.66, 38690.82, 44631.31, 54027.41, 16431.39, 0.00, 0.00, 0.00, 0.00
117, 58318.02, 48440.92, 29081.07, 38706.56, 44666.74, 53960.20, 16466.93, 0.00, 0.00, 0.00, 0.00
118, 58438.05, 48440.30, 29075.93, 38729.78, 44820.50, 54403.41, 16417.89, 0.00, 0.00, 0.00, 0.00
119, 58595.50, 48426.75, 28999.82, 38650.72, 44829.30, 54631.15, 16337.02, 0.00, 0.00, 0.00, 0.00
120, 58461.99, 48447.74, 29023.65, 38654.26, 44635.36, 54070.01, 16415.34, 0.00, 0.00, 0.00, 0.00
121, 58323.19, 48431.82, 29065.83, 38720.73, 44639.85, 53891.24, 16439.95, 0.00, 0.00, 0.00, 0.00
122, 58384.74, 48414.61, 29056.39, 38733.36, 44774.75, 54273.18, 16396.90, 0.00, 0.00, 0.00, 0.00
123, 58612.44, 48442.89, 29021.82, 38661.74, 44878.48, 54664.86, 16375.96, 0.00, 0.00, 0.00, 0.00
124, 58508.77, 48454.07, 29023.94, 38647.37, 44678.83, 54157.89, 16418.65, 0.00, 0.11, 0.98, 0.32
125, 58326.85, 48422.01, 29055.30, 38682.57, 44624.83, 53869.60, 16434.88, 0.00, 0.00, 0.00, 0.00
126, 58344.51, 48412.43, 29057.54, 38700.99, 44741.51, 54182.50, 16417.04, 0.00, 0.00, 0.00, 0.00
127, 58566.69, 48415.78, 29017.12, 38628.51, 44858.00, 54621.71, 16350.70, 0.00, 0.00, 0.00, 0.00
128, 58533.00, 48409.79, 29003.13, 38619.28, 44687.02, 54240.73, 16409.82, 0.00, 0.00, 0.00, 0.00
129, 58337.63, 48422.35, 29062.27, 38696.46, 44633.46, 53882.39, 16461.79, 0.00, 0.00, 0.00, 0.00
130, 58316.17, 48426.17, 29066.81, 38742.14, 44716.50, 54096.16, 16438.52, 0.00, 0.00, 0.00, 0.00
131, 58535.06, 48417.90, 29024.99, 38663.18, 44869.56, 54570.57, 16355.82, 0.00, 0.00, 0.00, 0.00
132, 58553.84, 48426.24, 29001.03, 38591.31, 44721.12, 54332.98, 16339.71, 0.00, 0.00, 0.00, 0.00
133, 58359.91, 48433.30, 29051.37, 38650.16, 44611.84, 53877.78, 16415.30, 0.00, 0.00, 0.00, 0.00
134, 58304.37, 48417.39, 29064.60, 38675.76, 44680.89, 53994.13, 16412.19, 0.00, 0.10, 0.93, 0.30
135, 58484.14, 48415.24, 29023.45, 38648.11, 44825.35, 54495.47, 16331.37, 0.00, 0.00, 0.00, 0.00
136, 58600.41, 48444.32, 28988.45, 38616.95, 44737.71, 54452.04, 16299.70, 0.00, 0.00, 0.00, 0.00
137, 58404.21, 48464.79, 29026.76, 38653.63, 44590.79, 53910.08, 16376.65, 0.00, 0.00, 0.00, 0.00
138, 58306.04, 48421.01, 29044.04, 38661.21, 44647.47, 53926.04, 16392.23, 0.00, 0.00, 0.00, 0.00
139, 58429.40, 48401.09, 29016.65, 38678.95, 44796.92, 54419.37, 16332.93, 0.00, 0.00, 0.00, 0.00
140, 58573.50, 48405.96, 28971.62, 38611.95, 44775.93, 54543.26, 16305.06, 0.00, 0.00, 0.00, 0.00
141, 58401.06, 48429.37, 28993.16, 38641.88, 44569.00, 53975.21, 16371.60, 0.00, 0.00, 0.00, 0.00
142, 58287.69, 48427.38, 29026.69, 38671.69, 44613.50, 53900.40, 16389.73, 0.00, 0.00, 0.00, 0.00
143, 58389.86, 48403.10, 29008.65, 38625.96, 44763.19, 54318.18, 16343.24, 0.00, 0.00, 0.00, 0.00
144, 58585.75, 48409.59, 28971.64, 38595.94, 44823.65, 54598.47, 16301.44, 0.00, 0.09, 0.94, 0.30
145, 58446.70, 48417.63, 28990.41, 38612.82, 44633.75, 54066.39, 16367.67, 0.00, 0.00, 0.00, 0.00
146, 58309.73, 48421.61, 29033.80, 38655.02, 44611.13, 53882.07, 16409.00, 0.00, 0.00, 0.00, 0.00
147, 58362.10, 48428.05, 29017.59, 38684.34, 44757.00, 54230.54, 16383.05, 0.00, 0.00, 0.00, 0.00
148, 58567.34, 48432.96, 28969.18, 38635.28, 44862.27, 54627.01, 16307.59, 0.00, 0.00, 0.00, 0.00
149, 58494.80, 48454.78, 28984.65, 38636.98, 44657.02, 54156.42, 16357.41, 0.00, 0.00, 0.00, 0.00
150, 58338.01, 48455.79, 29021.64, 38633.49, 44611.93, 53859.52, 16407.97, 0.00, 0.00, 0.00, 0.00
151, 58346.28, 48425.28, 29013.10, 38622.50, 44717.23, 54139.86, 16373.97, 0.00, 0.00, 0.00, 0.00
152, 58548.11, 48424.89, 28967.79, 38592.32, 44843.25, 54613.74, 16296.39, 0.00, 0.00, 0.00, 0.00
153, 58496.21, 48436.16, 28958.85, 38576.18, 44673.34, 54259.68, 16322.45, 0.00, 0.09, 0.93, 0.30
154, 58323.61, 48431.94, 29007.73, 38623.32, 44601.00, 53867.16, 16403.97, 0.00, 0.00, 0.00, 0.00
155, 58316.93, 48430.39, 29023.36, 38651.64, 44686.93, 54055.97, 16397.02, 0.00, 0.00, 0.00, 0.00
156, 58514.96, 48422.80, 28972.58, 38617.58, 44830.73, 54565.34, 16301.66, 0.00, 0.00, 0.00, 0.00
157, 58555.82, 48424.29, 28945.98, 38624.44, 44694.46, 54371.78, 16296.32, 0.00, 0.00, 0.00, 0.00
158, 58382.06, 48435.96, 29003.62, 38626.41, 44578.74, 53890.25, 16389.93, 0.00, 0.00, 0.00, 0.00
159, 58324.84, 48430.66, 29016.16, 38619.10, 44656.91, 53985.03, 16393.35, 0.00, 0.00, 0.00, 0.00
160, 58485.10, 48428.99, 28969.42, 38600.10, 44804.65, 54470.51, 16302.67, 0.00, 0.00, 0.00, 0.00
161, 58596.06, 48434.02, 28939.61, 38571.15, 44733.10, 54452.20, 16272.27, 0.00, 0.00, 0.00, 0.00
162, 58405.24, 48447.07, 28976.73, 38605.39, 44570.36, 53929.37, 16345.12, 0.00, 0.00, 0.00, 0.00
163, 58318.98, 48429.50, 29002.19, 38644.40, 44624.56, 53931.58, 16387.92, 0.00, 0.09, 0.94, 0.30
164, 58451.87, 48418.14, 28976.29, 38647.91, 44769.89, 54387.83, 16327.41, 0.00, 0.00, 0.00, 0.00
165, 58623.44, 48438.53, 28942.40, 38543.17, 44791.17, 54530.18, 16273.66, 0.00, 0.00, 0.00, 0.00
166, 58467.22, 48465.64, 28969.83, 38568.34, 44591.41, 53965.98, 16336.58, 0.00, 0.00, 0.00, 0.00
167, 58323.32, 48460.14, 28964.37, 38621.55, 44598.59, 53870.74, 16362.21, 0.00, 0.00, 0.00, 0.00
168, 58405.02, 48423.73, 28973.13, 38597.59, 44740.41, 54270.97, 16311.95, 0.00, 0.00, 0.00, 0.00
169, 58593.87, 48402.10, 28928.56, 38552.98, 44789.68, 54573.55, 16255.84, 0.00, 0.00, 0.00, 0.00
170, 58467.20, 48416.02, 28959.84, 38568.29, 44585.45, 54043.99, 16307.74, 0.00, 0.00, 0.00, 0.00
171, 58322.29, 48422.26, 28983.91, 38571.73, 44572.42, 53829.82, 16333.04, 0.00, 0.00, 0.00, 0.00
172, 58385.21, 48427.02, 28971.19, 38603.45, 44692.71, 54165.05, 16308.91, 0.00, 0.00, 0.00, 0.00
173, 58594.05, 48425.95, 28930.22, 38569.12, 44804.03, 54576.83, 16240.58, 0.00, 0.10, 0.92, 0.30
174, 58514.77, 48431.33, 28927.45, 38522.43, 44608.22, 54138.72, 16265.03, 0.00, 0.00, 0.00, 0.00
175, 58340.89, 48435.20, 28981.45, 38568.74, 44551.45, 53802.43, 16282.84, 0.00, 0.00, 0.00, 0.00
176, 58348.07, 48444.05, 28969.38, 38580.68, 44654.58, 54070.81, 16296.03, 0.00, 0.00, 0.00, 0.00
177, 58569.77, 48441.28, 28929.75, 38555.21, 44793.83, 54559.13, 16249.92, 0.00, 0.00, 0.00, 0.00
178, 58575.16, 48446.06, 28930.15, 38535.55, 44636.01, 54247.35, 16262.21, 0.00, 0.00, 0.00, 0.00
179, 58383.89, 48451.29, 28979.35, 38595.54, 44546.09, 53848.57, 16322.43, 0.00, 0.00, 0.00, 0.00
180, 58321.93, 48437.26, 28966.41, 38610.04, 44627.49, 54014.80, 16304.84, 0.00, 0.00, 0.00, 0.00
181, 58504.53, 48418.82, 28921.79, 38545.16, 44783.66, 54483.22, 16220.21, 0.00, 0.00, 0.00, 0.00
182, 58555.49, 48413.86, 28901.30, 38540.73, 44671.21, 54312.43, 16222.25, 0.00, 0.00, 0.00, 0.00
183, 58373.01, 48436.65, 28949.80, 38564.09, 44532.81, 53848.95, 16307.76, 0.00, 0.10, 0.91, 0.31
184, 58313.60, 48413.88, 28965.31, 38555.57, 44605.27, 53933.53, 16328.19, 0.00, 0.00, 0.00, 0.00
185, 58458.44, 48412.43, 28936.81, 38562.59, 44777.89, 54434.83, 16264.20, 0.00, 0.00, 0.00, 0.00
186, 58575.61, 48431.91, 28901.97, 38515.56, 44705.81, 54447.46, 16216.15, 0.00, 0.00, 0.00, 0.00
187, 58426.18, 48438.31, 28946.63, 38547.91, 44569.18, 53907.96, 16279.92, 0.00, 0.00, 0.00, 0.00
188, 58343.62, 48428.54, 28967.81, 38578.13, 44595.71, 53887.06, 16294.04, 0.00, 0.00, 0.00, 0.00
189, 58451.66, 48416.29, 28939.43, 38539.86, 44727.58, 54306.20, 16214.65, 0.00, 0.00, 0.00, 0.00
190, 58596.71, 48411.29, 28888.56, 38509.71, 44746.74, 54475.09, 16173.36, 0.00, 0.00, 0.00, 0.00
191, 58441.83, 48434.84, 28911.40, 38574.33, 44543.32, 53970.45, 16264.94, 0.00, 0.00, 0.00, 0.00
192, 58319.19, 48438.26, 28949.33, 38552.36, 44549.82, 53849.39, 16279.31, 0.00, 0.12, 0.90, 0.33
193, 58403.18, 48428.70, 28943.76, 38547.84, 44688.82, 54223.30, 16263.42, 0.00, 0.00, 0.00, 0.00
194, 58612.04, 48428.16, 28893.45, 38494.08, 44769.54, 54536.24, 16222.16, 0.00, 0.00, 0.00, 0.00
195, 58484.59, 48429.77, 28924.25, 38488.47, 44551.34, 54038.22, 16235.97, 0.00, 0.00, 0.00, 0.00
196, 58317.58, 48427.67, 28948.32, 38522.00, 44520.88, 53798.25, 16259.87, 0.00, 0.00, 0.00, 0.00
197, 58367.69, 48429.10, 28936.84, 38527.23, 44646.36, 54114.67, 16274.10, 0.00, 0.00, 0.00, 0.00
198, 58597.93, 48432.94, 28901.07, 38504.86, 44764.86, 54547.55, 16197.28, 0.00, 0.00, 0.00, 0.00
199, 58538.05, 48449.17, 28911.18, 38506.54, 44581.52, 54132.08, 16227.21, 0.00, 0.00, 0.00, 0.00
200, 58358.14, 48447.63, 28949.53, 38515.88, 44503.91, 53799.66, 16288.92, 0.00, 0.00, 0.00, 0.00
201, 58346.63, 48422.30, 28944.53, 38525.67, 44621.10, 54025.44, 16266.84, 0.00, 0.00, 0.00, 0.00
202, 58541.25, 48406.93, 28897.29, 38500.68, 44778.68, 54482.84, 16174.75, 0.00, 0.11, 0.91, 0.35
203, 58550.66, 48425.32, 28893.72, 38478.21, 44618.98, 54221.15, 16200.70, 0.00, 0.00, 0.00, 0.00
204, 58386.69, 48437.77, 28956.68, 38505.71, 44517.03, 53801.32, 16271.80, 0.00, 0.00, 0.00, 0.00
205, 58349.79, 48419.00, 28948.32, 38556.69, 44592.96, 53948.86, 16259.35, 0.00, 0.00, 0.00, 0.00
206, 58530.07, 48416.96, 28895.96, 38496.54, 44742.02, 54434.54, 16186.31, 0.00, 0.00, 0.00, 0.00
207, 58587.52, 48425.19, 28858.92, 38456.58, 44636.01, 54324.66, 16194.04, 0.00, 0.00, 0.00, 0.00
208, 58387.34, 48446.04, 28940.08, 38498.29, 44499.50, 53833.17, 16280.21, 0.00, 0.00, 0.00, 0.00
209, 58330.50, 48453.13, 28956.97, 38504.86, 44567.97, 53894.99, 16273.83, 0.00, 0.00, 0.00, 0.00
210, 58474.55, 48433.14, 28895.64, 38484.29, 44691.77, 54344.60, 16166.05, 0.00, 0.00, 0.00, 0.00
211, 58596.23, 48421.75, 28866.63, 38427.32, 44658.92, 54405.57, 16140.60, 0.00, 0.00, 0.00, 0.00
212, 58427.88, 48424.56, 28907.40, 38473.83, 44505.54, 53887.95, 16246.25, 0.00, 0.10, 0.93, 0.36
213, 58314.34, 48403.33, 28931.05, 38512.90, 44544.03, 53837.55, 16271.71, 0.00, 0.00, 0.00, 0.00
214, 58436.13, 48384.89, 28907.40, 38484.20, 44685.05, 54261.47, 16218.65, 0.00, 0.00, 0.00, 0.00
215, 58617.43, 48403.10, 28859.77, 38424.79, 44686.57, 54474.39, 16152.91, 0.00, 0.00, 0.00, 0.00
216, 58469.99, 48440.90, 28888.44, 38458.39, 44488.82, 53941.48, 16216.39, 0.00, 0.00, 0.00, 0.00
217, 58345.41, 48441.05, 28931.07, 38490.24, 44517.66, 53806.05, 16258.03, 0.00, 0.00, 0.00, 0.00
218, 58400.08, 48408.69, 28914.15, 38483.42, 44626.78, 54167.02, 16203.27, 0.00, 0.00, 0.00, 0.00
219, 58591.34, 48391.48, 28862.83, 38446.92, 44698.28, 54499.83, 16122.18, 0.00, 0.00, 0.00, 0.00
220, 58483.79, 48414.39, 28885.11, 38450.92, 44526.51, 54020.27, 16185.32, 0.00, 0.00, 0.00, 0.00
221, 58341.70, 48432.29, 28918.73, 38494.80, 44496.20, 53775.90, 16211.76, 0.00, 0.00, 0.00, 0.00
222, 58371.67, 48408.80, 28906.35, 38511.41, 44600.13, 54048.17, 16162.23, 0.00, 0.09, 0.94, 0.36
223, 58561.97, 48405.94, 28860.19, 38430.74, 44715.91, 54478.15, 16108.70, 0.00, 0.00, 0.00, 0.00
224, 58515.14, 48429.14, 28863.52, 38408.99, 44541.97, 54117.06, 16168.87, 0.00, 0.00, 0.00, 0.00
225, 58336.98, 48423.58, 28916.23, 38477.70, 44480.95, 53763.34, 16234.67, 0.00, 0.00, 0.00, 0.00
226, 58337.36, 48397.05, 28917.30, 38498.89, 44580.53, 53980.49, 16225.33, 0.00, 0.00, 0.00, 0.00
227, 58532.58, 48382.11, 28840.19, 38449.02, 44703.75, 54453.36, 16130.38, 0.00, 0.00, 0.00, 0.00
228, 58565.30, 48410.48, 28845.17, 38424.46, 44558.00, 54206.98, 16128.88, 0.00, 0.00, 0.00, 0.00
229, 58379.96, 48418.39, 28901.74, 38438.54, 44466.43, 53768.10, 16205.64, 0.00, 0.00, 0.00, 0.00
230, 58313.44, 48397.07, 28911.51, 38486.86, 44559.18, 53904.27, 16204.54, 0.00, 0.00, 0.00, 0.00
231, 58499.68, 48392.96, 28870.56, 38459.98, 44693.50, 54385.95, 16114.00, 0.00, 0.00, 0.00, 0.00
232, 58591.30, 48416.52, 28843.83, 38421.84, 44601.74, 54301.08, 16112.48, 0.00, 0.07, 0.93, 0.34
233, 58407.30, 48432.68, 28888.49, 38447.77, 44456.77, 53798.61, 16186.28, 0.00, 0.00, 0.00, 0.00
234, 58332.75, 48407.48, 28910.08, 38489.77, 44519.33, 53839.23, 16190.13, 0.00, 0.00, 0.00, 0.00
235, 58477.66, 48401.49, 28879.12, 38454.66, 44664.91, 54296.90, 16119.61, 0.00, 0.00, 0.00, 0.00
236, 58611.37, 48410.95, 28821.70, 38414.54, 44613.77, 54367.38, 16065.49, 0.00, 0.00, 0.00, 0.00
237, 58441.16, 48427.89, 28868.48, 38431.41, 44444.72, 53839.00, 16157.76, 0.00, 0.00, 0.00, 0.00
238, 58330.54, 48414.35, 28907.33, 38453.56, 44492.33, 53797.47, 16200.21, 0.00, 0.00, 0.00, 0.00
239, 58432.84, 48390.09, 28875.55, 38449.71, 44624.32, 54213.51, 16145.09, 0.00, 0.00, 0.00, 0.00
240, 58616.35, 48387.84, 28828.59, 38411.43, 44669.02, 54439.19, 16080.54, 0.00, 0.00, 0.00, 0.00
241, 58488.46, 48389.94, 28857.73, 38395.45, 44446.13, 53897.56, 16131.66, 0.00, 0.07, 0.94, 0.33
242, 58352.16, 48417.30, 28894.17, 38423.14, 44461.95, 53756.12, 16187.36, 0.00, 0.00, 0.00, 0.00
243, 58404.95, 48414.93, 28885.49, 38453.87, 44605.34, 54123.50, 16158.32, 0.00, 0.00, 0.00, 0.00
244, 58621.72, 48403.02, 28833.86, 38404.43, 44688.04, 54487.36, 16088.74, 0.00, 0.00, 0.00, 0.00
245, 58514.61, 48402.45, 28846.04, 38400.27, 44469.55, 54004.52, 16122.94, 0.00, 0.00, 0.00, 0.00
246, 58340.87, 48403.50, 28890.50, 38426.74, 44429.77, 53724.14, 16165.36, 0.00, 0.00, 0.00, 0.00
247, 58368.89, 48388.29, 28878.32, 38446.68, 44545.57, 53995.64, 16131.68, 0.00, 0.00, 0.00, 0.00
248, 58598.65, 48387.37, 28834.15, 38382.08, 44680.78, 54441.98, 16054.27, 0.00, 0.00, 0.00, 0.00
249, 58554.24, 48413.14, 28827.96, 38367.80, 44495.71, 54085.48, 16099.27, 0.00, 0.00, 0.00, 0.00
250, 58348.96, 48419.38, 28875.57, 38420.23, 44406.57, 53728.59, 16172.34, 0.00, 0.00, 0.00, 0.00
251, 58336.26, 48404.96, 28884.58, 38445.91, 44532.41, 53935.96, 16158.43, 0.00, 0.08, 0.96, 0.32
252, 58553.39, 48406.01, 28843.23, 38422.11, 44685.09, 54435.53, 16091.98, 0.00, 0.00, 0.00, 0.00
253, 58582.60, 48414.55, 28817.86, 38395.58, 44533.01, 54208.77, 16096.85, 0.00, 0.00, 0.00, 0.00
254, 58385.19, 48403.06, 28865.24, 38404.41, 44408.54, 53741.32, 16158.68, 0.00, 0.00, 0.00, 0.00
255, 58334.25, 48389.56, 28866.56, 38460.18, 44483.48, 53858.56, 16152.58, 0.00, 0.00, 0.00, 0.00
0, 58526.43, 48403.91, 28849.28, 38406.18, 44652.70, 54359.95, 16103.18, 0.00, 0.00, 0.00, 0.00
1, 58616.75, 48407.86, 28815.22, 38345.60, 44572.98, 54300.66, 16087.31, 0.00, 0.00, 0.00, 0.00
2, 58428.31, 48424.02, 28856.44, 38385.72, 44410.46, 53778.50, 16156.29, 0.00, 0.00, 0.00, 0.00
3, 58333.43, 48412.49, 28874.63, 38398.62, 44462.42, 53802.39, 16160.33, 0.00, 0.00, 0.00, 0.00
4, 58477.26, 48393.13, 28845.33, 38389.77, 44611.82, 54250.95, 16087.98, 0.00, 0.00, 0.00, 0.00
5, 58618.50, 48394.30, 28789.00, 38351.55, 44590.36, 54364.11, 16058.50, 0.00, 0.08, 0.98, 0.31
6, 58452.52, 48421.30, 28829.66, 38383.55, 44389.78, 53824.45, 16136.77, 0.00, 0.00, 0.00, 0.00
7, 58359.26, 48423.15, 28874.47, 38422.89, 44449.28, 53752.01, 16164.56, 0.00, 0.00, 0.00, 0.00
8, 58441.50, 48386.83, 28848.79, 38394.35, 44586.10, 54152.42, 16090.51, 0.00, 0.00, 0.00, 0.00
9, 58628.09, 48385.89, 28796.09, 38340.48, 44608.80, 54414.38, 16029.78, 0.00, 0.00, 0.00, 0.00
10, 58515.66, 48429.10, 28830.26, 38363.59, 44412.69, 53902.44, 16120.35, 0.00, 0.00, 0.00, 0.00
11, 58369.25, 48417.41, 28868.93, 38378.70, 44413.32, 53714.50, 16170.84, 0.00, 0.00, 0.00, 0.00
12, 58419.50, 48405.52, 28857.06, 38373.96, 44547.32, 54059.82, 16128.50, 0.00, 0.00, 0.00, 0.00
13, 58637.54, 48406.30, 28803.42, 38336.14, 44638.02, 54444.36, 16041.91, 0.00, 0.00, 0.00, 0.00
14, 58562.53, 48416.13, 28808.00, 38363.80, 44428.58, 53992.40, 16076.69, 0.00, 0.00, 0.00, 0.00
15, 58401.48, 48426.08, 28862.61, 38394.13, 44393.65, 53705.29, 16162.17, 0.00, 0.09, 0.97, 0.30
16, 58406.96, 48390.25, 28869.31, 38369.85, 44508.27, 53962.45, 16136.15, 0.00, 0.00, 0.00, 0.00
17, 58620.15, 48370.98, 28821.88, 38337.15, 44640.48, 54416.71, 16047.86, 0.00, 0.00, 0.00, 0.00
18, 58608.35, 48399.04, 28817.54, 38319.47, 44467.59, 54074.30, 16074.59, 0.00, 0.00, 0.00, 0.00
19, 58435.19, 48443.11, 28857.35, 38353.87, 44384.95, 53685.27, 16140.46, 0.00, 0.00, 0.00, 0.00
20, 58415.23, 48426.89, 28852.70, 38374.61, 44462.89, 53888.51, 16134.29, 0.00, 0.00, 0.00, 0.00
21, 58601.18, 48380.17, 28799.91, 38325.51, 44631.29, 54362.70, 16048.40, 0.00, 0.00, 0.00, 0.00
22, 58636.87, 48377.76, 28765.58, 38285.79, 44498.72, 54160.49, 16030.00, 0.00, 0.00, 0.00, 0.00
23, 58474.62, 48422.44, 28819.02, 38346.79, 44370.09, 53689.56, 16074.77, 0.00, 0.00, 0.00, 0.00
24, 58427.37, 48429.88, 28837.13, 38378.21, 44439.13, 53794.19, 16045.15, 0.00, 0.09, 0.95, 0.30
25, 58593.17, 48420.71, 28820.96, 38334.38, 44604.78, 54276.98, 16047.46, 0.00, 0.00, 0.00, 0.00
26, 58704.78, 48437.86, 28786.99, 38296.20, 44548.48, 54259.15, 16053.56, 0.00, 0.00, 0.00, 0.00
27, 58514.72, 48420.05, 28822.62, 38316.66, 44385.42, 53735.29, 16127.19, 0.00, 0.00, 0.00, 0.00
28, 58426.23, 48394.50, 28840.21, 38341.49, 44422.26, 53734.20, 16106.49, 0.00, 0.00, 0.00, 0.00
29, 58562.66, 48402.03, 28827.47, 38349.49, 44584.64, 54214.31, 16081.05, 0.00, 0.00, 0.00, 0.00
30, 58716.53, 48412.78, 28781.02, 38298.57, 44581.80, 54370.64, 16047.75, 0.00, 0.00, 0.00, 0.00
31, 58567.34, 48443.63, 28817.52, 38322.54, 44398.43, 53810.37, 16115.67, 0.00, 0.00, 0.00, 0.00
32, 58463.42, 48431.64, 28853.02, 38365.74, 44416.54, 53711.78, 16143.05, 0.00, 0.00, 0.00, 0.00
33, 58549.25, 48402.41, 28828.81, 38309.73, 44534.93, 54094.04, 16077.41, 0.00, 0.00, 0.00, 0.00
34, 58744.36, 48406.34, 28773.20, 38274.77, 44584.60, 54397.15, 16002.91, 0.00, 0.09, 0.93, 0.31
35, 58621.09, 48438.42, 28800.67, 38301.32, 44410.61, 53898.75, 16067.80, 0.00, 0.00, 0.00, 0.00
36, 58493.08, 48444.07, 28849.15, 38370.25, 44398.79, 53691.04, 16126.36, 0.00, 0.00, 0.00, 0.00
37, 58547.71, 48440.77, 28841.04, 38355.01, 44516.96, 54011.22, 16088.52, 0.00, 0.00, 0.00, 0.00
38, 58757.35, 48447.32, 28782.94, 38270.50, 44612.05, 54405.13, 15980.51, 0.00, 0.00, 0.00, 0.00
39, 58690.61, 48473.91, 28775.19, 38269.07, 44410.10, 53958.54, 15985.99, 0.00, 0.00, 0.00, 0.00
40, 58524.44, 48472.95, 28828.23, 38326.00, 44346.24, 53658.51, 16040.66, 0.00, 0.00, 0.00, 0.00
41, 58538.32, 48438.33, 28834.38, 38357.36, 44453.91, 53929.75, 16085.61, 0.00, 0.00, 0.00, 0.00
42, 58745.68, 48450.62, 28784.46, 38304.27, 44617.97, 54409.96, 16037.02, 0.00, 0.00, 0.00, 0.00
43, 58726.34, 48461.71, 28763.50, 38280.76, 44446.42, 54082.01, 16034.07, 0.00, 0.00, 0.00, 0.00
44, 58538.88, 48446.44, 28810.10, 38281.70, 44353.82, 53668.95, 16087.62, 0.00, 0.09, 0.92, 0.32
45, 58507.66, 48416.89, 28808.31, 38283.42, 44434.28, 53827.40, 16066.01, 0.00, 0.00, 0.00, 0.00
46, 58715.37, 48428.18, 28765.46, 38275.80, 44603.26, 54345.83, 16041.76, 0.00, 0.00, 0.00, 0.00
47, 58767.52, 48436.32, 28762.60, 38238.04, 44484.13, 54200.95, 16041.96, 0.00, 0.00, 0.00, 0.00
48, 58583.05, 48454.58, 28815.15, 38283.98, 44346.38, 53705.00, 16091.65, 0.00, 0.00, 0.00, 0.00
49, 58525.76, 48468.32, 28838.02, 38308.74, 44421.05, 53791.68, 16080.13, 0.00, 0.00, 0.00, 0.00
50, 58668.39, 48447.34, 28792.44, 38276.82, 44573.82, 54243.61, 16003.00, 0.00, 0.00, 0.00, 0.00
51, 58786.52, 48430.77, 28741.41, 38231.47, 44511.02, 54271.02, 15993.81, 0.00, 0.00, 0.00, 0.00
52, 58619.08, 48446.71, 28792.20, 38255.16, 44350.40, 53758.92, 16072.96, 0.00, 0.00, 0.00, 0.00
53, 58537.74, 48449.15, 28823.27, 38285.52, 44391.55, 53735.63, 16079.33, 0.00, 0.00, 0.00, 0.00
54, 58654.51, 48450.06, 28808.74, 38282.88, 44539.45, 54165.94, 16013.59, 0.00, 0.09, 0.91, 0.34
55, 58811.66, 48453.48, 28758.89, 38225.15, 44544.75, 54345.71, 15968.44, 0.00, 0.00, 0.00, 0.00
56, 58663.29, 48463.34, 28790.59, 38239.32, 44353.84, 53811.18, 16038.14, 0.00, 0.00, 0.00, 0.00
57, 58539.80, 48467.92, 28829.88, 38268.62, 44363.83, 53684.26, 16039.12, 0.00, 0.00, 0.00, 0.00
58, 58622.54, 48446.36, 28807.62, 38252.28, 44497.14, 54050.34, 16000.81, 0.00, 0.00, 0.00, 0.00
59, 58829.21, 48436.81, 28757.24, 38208.12, 44565.02, 54375.00, 15987.22, 0.00, 0.00, 0.00, 0.00
60, 58705.11, 48454.91, 28772.17, 38257.78, 44353.46, 53861.60, 15999.85, 0.00, 0.00, 0.00, 0.00
61, 58558.80, 48457.33, 28823.56, 38252.35, 44350.87, 53630.93, 16075.11, 0.00, 0.00, 0.00, 0.00
62, 58603.88, 48436.36, 28812.58, 38217.04, 44475.84, 53948.44, 16050.25, 0.00, 0.00, 0.00, 0.00
63, 58824.25, 48438.87, 28754.38, 38194.68, 44572.51, 54364.80, 15966.14, 0.00, 0.00, 0.00, 0.00
64, 58770.67, 48475.66, 28758.40, 38199.15, 44393.98, 53970.92, 16010.24, 0.00, 0.08, 0.91, 0.33
65, 58589.71, 48461.55, 28810.01, 38251.46, 44336.96, 53640.68, 16049.13, 0.00, 0.00, 0.00, 0.00
66, 58583.76, 48442.11, 28814.17, 38262.12, 44432.76, 53869.78, 16015.31, 0.00, 0.00, 0.00, 0.00
67, 58785.96, 48441.64, 28759.03, 38244.04, 44566.56, 54338.68, 15935.54, 0.00, 0.00, 0.00, 0.00
68, 58802.90, 48455.99, 28735.74, 38202.13, 44419.15, 54058.30, 15975.39, 0.00, 0.00, 0.00, 0.00
69, 58616.40, 48468.23, 28788.58, 38237.55, 44317.85, 53650.96, 16043.50, 0.00, 0.00, 0.00, 0.00
70, 58565.88, 48452.39, 28803.51, 38255.19, 44406.01, 53803.80, 16031.54, 0.00, 0.00, 0.00, 0.00
71, 58751.40, 48440.16, 28762.27, 38215.85, 44565.24, 54292.14, 15965.20, 0.00, 0.00, 0.00, 0.00
72, 58838.48, 48461.80, 28736.16, 38190.14, 44462.18, 54174.84, 15967.15, 0.00, 0.00, 0.00, 0.00
73, 58636.74, 48465.38, 28774.07, 38234.07, 44317.50, 53671.32, 16036.79, 0.00, 0.08, 0.92, 0.34
74, 58567.22, 48464.48, 28806.62, 38260.17, 44385.04, 53735.83, 16040.50, 0.00, 0.00, 0.00, 0.00
75, 58711.86, 48436.99, 28774.74, 38229.33, 44529.68, 54200.59, 15959.21, 0.00, 0.00, 0.00, 0.00
76, 58840.92, 48437.84, 28724.72, 38205.97, 44478.70, 54255.28, 15921.10, 0.00, 0.00, 0.00, 0.00
77, 58673.21, 48475.68, 28770.81, 38208.41, 44317.32, 53719.33, 16002.87, 0.00, 0.00, 0.00, 0.00
78, 58575.45, 48469.55, 28799.19, 38238.45, 44365.89, 53678.81, 16028.06, 0.00, 0.00, 0.00, 0.00
79, 58687.97, 48451.18, 28772.44, 38228.99, 44505.72, 54106.31, 15960.40, 0.00, 0.00, 0.00, 0.00
80, 58859.16, 48460.79, 28722.82, 38186.08, 44516.63, 54310.22, 15888.87, 0.00, 0.00, 0.00, 0.00
81, 58701.73, 48481.98, 28737.75, 38213.30, 44309.00, 53761.84, 15917.91, 0.00, 0.00, 0.00, 0.00
82, 58564.00, 48475.79, 28778.74, 38243.41, 44331.49, 53640.43, 15985.65, 0.00, 0.00, 0.00, 0.00
83, 58628.54, 48445.39, 28779.55, 38223.49, 44482.85, 53996.67, 16014.76, 0.00, 0.06, 0.93, 0.34
84, 58826.39, 48434.55, 28732.34, 38191.62, 44559.32, 54343.01, 15941.73, 0.00, 0.00, 0.00, 0.00
85, 58717.79, 48468.21, 28734.96, 38235.99, 44343.63, 53859.63, 15977.43, 0.00, 0.00, 0.00, 0.00
86, 58542.50, 48466.47, 28778.85, 38263.93, 44316.31, 53611.53, 16014.11, 0.00, 0.00, 0.00, 0.00
87, 58558.98, 48430.11, 28771.34, 38203.46, 44426.73, 53903.44, 15972.80, 0.00, 0.00, 0.00, 0.00
88, 58780.59, 48434.86, 28728.23, 38204.58, 44550.31, 54350.07, 15905.41, 0.00, 0.00, 0.00, 0.00
89, 58733.74, 48463.52, 28722.75, 38186.03, 44366.94, 53958.03, 15938.11, 0.00, 0.00, 0.00, 0.00
90, 58561.34, 48481.69, 28773.31, 38202.91, 44301.07, 53595.44, 15998.64, 0.00, 0.00, 0.00, 0.00
91, 58550.32, 48466.02, 28782.03, 38215.74, 44405.56, 53821.10, 15986.62, 0.00, 0.00, 0.00, 0.00
92, 58726.37, 48427.11, 28719.85, 38172.91, 44529.93, 54296.57, 15890.75, 0.00, 0.00, 0.00, 0.00
93, 58750.08, 48453.11, 28708.96, 38175.75, 44381.27, 54040.88, 15911.38, 0.00, 0.07, 0.94, 0.32
94, 58580.72, 48489.65, 28771.14, 38211.85, 44286.36, 53616.16, 15995.76, 0.00, 0.00, 0.00, 0.00
95, 58548.96, 48511.26, 28779.46, 38254.81, 44371.72, 53759.92, 15996.92, 0.00, 0.00, 0.00, 0.00
96, 58737.54, 48490.83, 28734.20, 38217.70, 44521.75, 54257.07, 15929.48, 0.00, 0.00, 0.00, 0.00
97, 58800.62, 48456.64, 28709.79, 38158.96, 44423.18, 54163.28, 15915.89, 0.00, 0.00, 0.00, 0.00
98, 58596.28, 48450.94, 28747.96, 38198.19, 44268.32, 53640.09, 15979.17, 0.00, 0.00, 0.00, 0.00
99, 58525.22, 48468.39, 28776.75, 38221.44, 44331.84, 53675.25, 15985.52, 0.00, 0.00, 0.00, 0.00
100, 58682.29, 48478.20, 28757.73, 38202.01, 44502.90, 54156.04, 15932.97, 0.00, 0.00, 0.00, 0.00
101, 58816.98, 48460.97, 28707.55, 38170.86, 44466.58, 54243.93, 15899.00, 0.00, 0.00, 0.00, 0.00
102, 58651.49, 48475.34, 28741.39, 38211.33, 44281.91, 53692.58, 15968.47, 0.00, 0.00, 0.00, 0.00
103, 58544.76, 48461.71, 28771.23, 38204.25, 44318.61, 53620.80, 15987.55, 0.00, 0.07, 0.96, 0.31
104, 58662.66, 48443.31, 28752.57, 38182.28, 44459.03, 54039.23, 15926.04, 0.00, 0.00, 0.00, 0.00
105, 58851.98, 48454.18, 28698.37, 38132.95, 44481.67, 54279.69, 15861.76, 0.00, 0.00, 0.00, 0.00
106, 58714.86, 48480.91, 28718.48, 38166.25, 44281.80, 53743.16, 15936.68, 0.00, 0.00, 0.00, 0.00
107, 58576.63, 48474.47, 28758.11, 38233.95, 44293.00, 53591.75, 15983.37, 0.00, 0.00, 0.00, 0.00
108, 58638.82, 48450.67, 28740.52, 38216.30, 44416.71, 53949.96, 15939.54, 0.00, 0.00, 0.00, 0.00
109, 58846.53, 48442.18, 28709.03, 38144.70, 44499.28, 54316.55, 15869.42, 0.00, 0.00, 0.00, 0.00
110, 58748.14, 48458.60, 28713.81, 38139.03, 44301.09, 53827.56, 15912.30, 0.00, 0.00, 0.00, 0.00
111, 58590.69, 48463.68, 28759.52, 38184.33, 44268.68, 53559.49, 15966.12, 0.00, 0.00, 0.00, 0.00
112, 58621.43, 48451.41, 28750.13, 38236.43, 44376.57, 53859.92, 15945.44, 0.00, 0.00, 0.00, 0.00
113, 58829.68, 48445.68, 28700.89, 38131.58, 44489.00, 54312.77, 15861.22, 0.00, 0.07, 0.97, 0.30
114, 58788.10, 48449.73, 28691.21, 38090.46, 44311.88, 53927.76, 15888.31, 0.00, 0.00, 0.00, 0.00
115, 58621.27, 48448.19, 28746.78, 38144.68, 44249.99, 53539.73, 15959.23, 0.00, 0.00, 0.00, 0.00
116, 58641.66, 48435.00, 28749.17, 38161.33, 44353.30, 53758.43, 15951.14, 0.00, 0.00, 0.00, 0.00
117, 58874.92, 48418.48, 28699.71, 38134.78, 44505.54, 54268.54, 15881.79, 0.00, 0.00, 0.00, 0.00
118, 58933.01, 48421.23, 28658.36, 38100.80, 44348.14, 54023.23, 15865.96, 0.00, 0.00, 0.00, 0.00
119, 58768.30, 48445.19, 28697.11, 38143.61, 44228.22, 53549.21, 15933.84, 0.00, 0.00, 0.00, 0.00
120, 58739.11, 48438.35, 28719.93, 38173.61, 44320.18, 53685.71, 15940.33, 0.00, 0.00, 0.00, 0.00
121, 58922.19, 48416.54, 28691.44, 38159.97, 44478.32, 54189.75, 15864.62, 0.00, 0.00, 0.00, 0.00
122, 59020.79, 48425.59, 28659.88, 38134.60, 44398.77, 54125.51, 15839.92, 0.00, 0.04, 0.98, 0.29
123, 58840.65, 48455.36, 28706.54, 38194.28, 44248.43, 53587.97, 15920.34, 0.00, 0.00, 0.00, 0.00
124, 58737.21, 48447.63, 28724.31, 38186.75, 44304.26, 53615.46, 15935.85, 0.00, 0.00, 0.00, 0.00
125, 58854.71, 48436.47, 28685.15, 38131.14, 44445.62, 54083.24, 15864.82, 0.00, 0.00, 0.00, 0.00
126, 58995.66, 48445.35, 28636.61, 38090.05, 44427.11, 54195.47, 15822.02, 0.00, 0.00, 0.00, 0.00
127, 58814.57, 48445.53, 28686.68, 38116.96, 44249.79, 53617.54, 15897.30, 0.00, 0.00, 0.00, 0.00
128, 58679.65, 48419.71, 28708.67, 38203.85, 44278.80, 53539.09, 15930.60, 0.00, 0.00, 0.00, 0.00
129, 58757.28, 48387.12, 28680.55, 38173.05, 44410.23, 53968.20, 15874.75, 0.00, 0.00, 0.00, 0.00
130, 58932.41, 48395.41, 28621.14, 38054.76, 44446.42, 54253.14, 15807.87, 0.00, 0.00, 0.00, 0.00
131, 58830.82, 48472.64, 28658.67, 38131.49, 44260.90, 53708.42, 15885.74, 0.00, 0.00, 0.00, 0.00
132, 58690.67, 48482.52, 28701.63, 38171.55, 44248.11, 53539.49, 15941.24, 0.00, 0.03, 1.00, 0.29
133, 58720.82, 48408.36, 28686.32, 38147.90, 44397.80, 53904.18, 15894.53, 0.00, 0.00, 0.00, 0.00
134, 58913.30, 48384.06, 28609.45, 38099.46, 44484.62, 54299.29, 15820.97, 0.00, 0.00, 0.00, 0.00
135, 58831.18, 48379.10, 28634.95, 38079.59, 44282.29, 53803.89, 15862.09, 0.00, 0.00, 0.00, 0.00
136, 58656.88, 48394.72, 28661.46, 38158.88, 44246.19, 53506.45, 15917.93, 0.00, 0.00, 0.00, 0.00
137, 58672.63, 48405.63, 28674.61, 38158.36, 44362.45, 53797.09, 15891.82, 0.00, 0.00, 0.00, 0.00
138, 58862.42, 48381.18, 28597.40, 38107.53, 44466.52, 54282.42, 15791.46, 0.00, 0.00, 0.00, 0.00
139, 58830.15, 48401.34, 28589.27, 38101.81, 44304.91, 53923.45, 15804.83, 0.00, 0.00, 0.00, 0.00
140, 58681.13, 48414.10, 28658.71, 38121.21, 44246.68, 53517.70, 15896.52, 0.00, 0.00, 0.00, 0.00
141, 58667.38, 48386.29, 28631.06, 38153.40, 44327.71, 53717.45, 15899.89, 0.00, 0.00, 0.00, 0.00
142, 58864.79, 48412.07, 28597.94, 38133.48, 44472.80, 54240.21, 15855.63, 0.00, 0.04, 0.98, 0.28
143, 58904.51, 48425.68, 28549.37, 38064.91, 44363.11, 54045.73, 15868.82, 0.00, 0.00, 0.00, 0.00
144, 58728.38, 48436.16, 28601.16, 38136.86, 44236.45, 53555.36, 15922.29, 0.00, 0.00, 0.00, 0.00
145, 58686.38, 48434.75, 28633.25, 38159.46, 44307.06, 53681.36, 15923.85, 0.00, 0.00, 0.00, 0.00
146, 58859.90, 48433.28, 28598.34, 38160.04, 44459.32, 54197.79, 15859.25, 0.00, 0.00, 0.00, 0.00
147, 59005.83, 48465.04, 28569.53, 38112.02, 44388.33, 54173.14, 15834.47, 0.00, 0.00, 0.00, 0.00
148, 58825.97, 48478.36, 28600.51, 38116.41, 44222.12, 53604.76, 15888.31, 0.00, 0.00, 0.00, 0.00
149, 58730.66, 48457.30, 28627.69, 38161.78, 44270.31, 53617.39, 15900.54, 0.00, 0.00, 0.00, 0.00
150, 58845.26, 48449.82, 28595.01, 38107.38, 44410.14, 54092.52, 15826.29, 0.00, 0.00, 0.00, 0.00
151, 58989.36, 48443.18, 28548.81, 38086.99, 44399.04, 54255.71, 15793.32, 0.00, 0.00, 0.00, 0.00
152, 58850.11, 48448.25, 28584.62, 38121.28, 44226.79, 53675.28, 15881.70, 0.00, 0.09, 0.92, 0.28
153, 58747.00, 48456.55, 28624.04, 38166.79, 44255.22, 53576.57, 15886.66, 0.00, 0.00, 0.00, 0.00
154, 58845.28, 48477.89, 28603.21, 38176.09, 44380.84, 53987.98, 15817.64, 0.00, 0.00, 0.00, 0.00
155, 59047.18, 48496.29, 28566.56, 38131.23, 44440.03, 54307.45, 15833.01, 0.00, 0.00, 0.00, 0.00
156, 58925.43, 48498.32, 28580.91, 38110.13, 44258.53, 53781.07, 15904.63, 0.00, 0.00, 0.00, 0.00
157, 58791.77, 48500.85, 28604.62, 38176.87, 44249.61, 53575.70, 15928.95, 0.00, 0.00, 0.00, 0.00
158, 58822.05, 48487.26, 28616.47, 38169.38, 44361.86, 53911.69, 15876.73, 0.00, 0.00, 0.00, 0.00
159, 59006.79, 48470.96, 28565.44, 38109.77, 44445.57, 54331.52, 15787.35, 0.00, 0.00, 0.00, 0.00
160, 58937.03, 48496.64, 28550.73, 38099.69, 44262.27, 53856.82, 15804.31, 0.00, 0.00, 0.00, 0.00
161, 58780.53, 48502.70, 28612.98, 38134.76, 44226.97, 53531.11, 15899.42, 0.00, 0.15, 0.89, 0.30
162, 58783.23, 48479.08, 28604.22, 38185.68, 44327.57, 53806.59, 15897.10, 0.00, 0.00, 0.00, 0.00
163, 58999.93, 48505.12, 28554.96, 38087.39, 44448.75, 54296.27, 15811.06, 0.00, 0.00, 0.00, 0.00
164, 58992.60, 48525.37, 28550.35, 38029.30, 44301.13, 53947.07, 15829.46, 0.00, 0.00, 0.00, 0.00
165, 58819.26, 48525.73, 28595.57, 38096.94, 44219.53, 53520.20, 15899.15, 0.00, 0.00, 0.00, 0.00
166, 58784.62, 48519.69, 28596.40, 38107.69, 44283.12, 53708.89, 15882.23, 0.00, 0.00, 0.00, 0.00
167, 58949.84, 48492.84, 28552.32, 38070.47, 44413.68, 54231.07, 15804.25, 0.00, 0.00, 0.00, 0.00
168, 59015.15, 48503.82, 28547.42, 38039.63, 44310.81, 54058.16, 15808.41, 0.00, 0.00, 0.00, 0.00
169, 58848.21, 48544.32, 28611.75, 38079.68, 44185.78, 53544.70, 15892.11, 0.00, 0.00, 0.00, 0.00
170, 58777.91, 48520.34, 28610.81, 38107.11, 44245.39, 53658.33, 15913.66, 0.00, 0.00, 0.00, 0.00
171, 58920.58, 48498.16, 28571.27, 38068.62, 44386.45, 54159.48, 15842.83, 0.00, 0.21, 0.90, 0.33
172, 59037.50, 48499.68, 28530.77, 38025.97, 44330.21, 54148.20, 15796.31, 0.00, 0.00, 0.00, 0.00
173, 58881.00, 48526.91, 28588.01, 38054.61, 44167.74, 53592.42, 15864.44, 0.00, 0.00, 0.00, 0.00
174, 58781.58, 48527.42, 28620.94, 38094.93, 44228.63, 53592.02, 15896.22, 0.00, 0.00, 0.00, 0.00
175, 58873.78, 48503.53, 28581.76, 38099.55, 44360.77, 54044.57, 15817.23, 0.00, 0.00, 0.00, 0.00
176, 59034.17, 48517.90, 28546.06, 38061.62, 44361.57, 54227.74, 15793.67, 0.00, 0.00, 0.00, 0.00
177, 58911.35, 48548.75, 28592.19, 38044.84, 44200.59, 53649.17, 15908.83, 0.00, 0.00, 0.00, 0.00
178, 58805.79, 48554.87, 28624.56, 38077.07, 44218.30, 53548.50, 15937.42, 0.00, 0.00, 0.00, 0.00
179, 58870.27, 48533.19, 28606.12, 38065.64, 44333.36, 53953.49, 15892.25, 0.00, 0.00, 0.00, 0.00
180, 59050.60, 48523.76, 28559.61, 38038.06, 44385.71, 54283.87, 15818.46, 0.00, 0.00, 0.00, 0.00
181, 58970.45, 48553.11, 28593.38, 38050.96, 44216.91, 53742.91, 15870.12, 0.00, 0.23, 0.89, 0.33
182, 58845.46, 48564.91, 28642.64, 38110.41, 44203.28, 53522.68, 15921.77, 0.00, 0.00, 0.00, 0.00
183, 58866.25, 48550.45, 28636.74, 38092.20, 44302.59, 53866.23, 15889.18, 0.00, 0.00, 0.00, 0.00
184, 59053.48, 48543.07, 28574.89, 38045.15, 44390.72, 54300.05, 15810.33, 0.00, 0.00, 0.00, 0.00
185, 59015.69, 48551.25, 28585.18, 38038.64, 44223.66, 53845.55, 15840.35, 0.00, 0.00, 0.00, 0.00
186, 58854.84, 48546.11, 28633.34, 38076.84, 44176.48, 53493.07, 15889.61, 0.00, 0.00, 0.00, 0.00
187, 58841.84, 48538.36, 28637.63, 38100.98, 44266.09, 53743.74, 15862.56, 0.00, 0.00, 0.00, 0.00
188, 59027.34, 48535.20, 28597.16, 38069.47, 44393.51, 54247.30, 15781.74, 0.00, 0.00, 0.00, 0.00
189, 59037.77, 48542.82, 28592.06, 38019.49, 44262.22, 53936.08, 15812.50, 0.00, 0.00, 0.00, 0.00
190, 58867.05, 48550.02, 28625.83, 38062.94, 44179.43, 53487.28, 15884.96, 0.00, 0.00, 0.00, 0.00
191, 58829.41, 48544.50, 28610.19, 38087.66, 44230.34, 53656.14, 15860.08, 0.00, 0.21, 0.91, 0.34
192, 58998.01, 48545.89, 28596.82, 38050.96, 44364.10, 54165.16, 15785.63, 0.00, 0.00, 0.00, 0.00
193, 59069.63, 48551.65, 28578.34, 38012.11, 44312.29, 54025.13, 15807.96, 0.00, 0.00, 0.00, 0.00
194, 58887.21, 48544.21, 28617.36, 38059.97, 44186.22, 53497.56, 15868.93, 0.00, 0.00, 0.00, 0.00
195, 58820.67, 48538.62, 28649.86, 38099.42, 44240.74, 53584.86, 15873.25, 0.00, 0.00, 0.00, 0.00
196, 58956.93, 48526.15, 28616.63, 38065.13, 44382.25, 54079.60, 15821.32, 0.00, 0.00, 0.00, 0.00
197, 59078.45, 48534.06, 28576.32, 37980.13, 44338.80, 54115.83, 15778.65, 0.00, 0.00, 0.00, 0.00
198, 58911.64, 48547.65, 28610.75, 37991.75, 44166.93, 53523.46, 15823.16, 0.00, 0.00, 0.00, 0.00
199, 58800.98, 48536.68, 28644.07, 38035.98, 44196.95, 53495.75, 15834.67, 0.00, 0.00, 0.00, 0.00
200, 58911.57, 48535.67, 28630.75, 38061.76, 44337.05, 53959.25, 15808.23, 0.00, 0.00, 0.00, 0.00
201, 59074.41, 48528.03, 28588.93, 37994.41, 44358.31, 54179.24, 15750.51, 0.00, 0.17, 0.92, 0.33
202, 58944.61, 48533.21, 28607.17, 38014.84, 44174.87, 53589.67, 15795.28, 0.00, 0.00, 0.00, 0.00
203, 58829.41, 48536.03, 28648.59, 38033.37, 44189.11, 53451.22, 15841.71, 0.00, 0.00, 0.00, 0.00
204, 58886.59, 48515.33, 28618.26, 38033.44, 44313.81, 53853.20, 15808.65, 0.00, 0.00, 0.00, 0.00
205, 59057.87, 48507.69, 28562.27, 37993.81, 44371.79, 54200.18, 15729.55, 0.00, 0.00, 0.00, 0.00
206, 58979.88, 48534.33, 28590.54, 37971.37, 44176.57, 53668.91, 15767.14, 0.00, 0.00, 0.00, 0.00
207, 58832.67, 48528.68, 28646.38, 38015.31, 44150.50, 53410.79, 15813.37, 0.00, 0.00, 0.00, 0.00
208, 58865.64, 48534.00, 28635.13, 38023.89, 44289.67, 53727.20, 15790.61, 0.00, 0.00, 0.00, 0.00
209, 59074.83, 48523.40, 28574.98, 37979.73, 44382.85, 54178.84, 15710.55, 0.00, 0.00, 0.00, 0.00
210, 59023.63, 48510.73, 28571.05, 37952.72, 44205.51, 53757.13, 15725.21, 0.00, 0.11, 0.93, 0.32
211, 58854.60, 48512.98, 28625.74, 37986.77, 44161.52, 53390.05, 15793.41, 0.00, 0.00, 0.00, 0.00
212, 58840.77, 48501.47, 28633.95, 38026.57, 44250.11, 53623.71, 15777.22, 0.00, 0.00, 0.00, 0.00
213, 59042.78, 48506.61, 28593.42, 37986.48, 44386.25, 54131.88, 15699.35, 0.00, 0.00, 0.00, 0.00
214, 59070.79, 48518.59, 28556.72, 37949.04, 44243.13, 53855.59, 15691.88, 0.00, 0.00, 0.00, 0.00
215, 58881.78, 48507.44, 28625.56, 37991.24, 44137.18, 53382.78, 15753.62, 0.00, 0.00, 0.00, 0.00
216, 58837.88, 48503.84, 28630.95, 37994.01, 44215.64, 53534.04, 15754.16, 0.00, 0.00, 0.00, 0.00
217, 59022.64, 48503.57, 28585.09, 37964.53, 44358.67, 54046.61, 15683.46, 0.00, 0.00, 0.00, 0.00
218, 59106.75, 48493.05, 28543.54, 37927.91, 44261.23, 53944.10, 15654.94, 0.00, 0.00, 0.00, 0.00
219, 58922.73, 48494.99, 28599.08, 37960.26, 44128.42, 53401.54, 15722.10, 0.00, 0.00, 0.00, 0.00
220, 58830.88, 48494.79, 28625.52, 38001.27, 44186.27, 53453.28, 15729.28, 0.00, 0.06, 0.94, 0.32
221, 58948.52, 48480.44, 28560.46, 37963.01, 44313.81, 53946.63, 15664.95, 0.00, 0.00, 0.00, 0.00
222, 59091.33, 48482.12, 28521.88, 37938.48, 44300.93, 54037.48, 15649.71, 0.00, 0.00, 0.00, 0.00
223, 58945.26, 48504.80, 28560.07, 37955.23, 44139.91, 53469.26, 15723.29, 0.00, 0.00, 0.00, 0.00
224, 58844.70, 48503.80, 28609.67, 38015.22, 44159.91, 53410.63, 15727.04, 0.00, 0.00, 0.00, 0.00
225, 58920.61, 48486.12, 28561.91, 37982.61, 44275.47, 53834.80, 15639.38, 0.00, 0.00, 0.00, 0.00
226, 59088.29, 48485.20, 28509.80, 37916.74, 44307.26, 54078.57, 15622.80, 0.00, 0.00, 0.00, 0.00
227, 58967.16, 48506.79, 28531.08, 37920.65, 44140.40, 53528.18, 15706.10, 0.00, 0.00, 0.00, 0.00
228, 58820.94, 48489.14, 28612.78, 37948.61, 44141.72, 53349.16, 15733.59, 0.00, 0.00, 0.00, 0.00
229, 58881.60, 48481.29, 28583.50, 37969.11, 44253.37, 53733.59, 15704.04, 0.00, 0.00, 0.00, 0.00
230, 59095.53, 48499.15, 28531.49, 37941.59, 44334.32, 54119.90, 15654.87, 0.00, 0.03, 0.96, 0.32
231, 59011.73, 48509.57, 28555.56, 37936.59, 44161.79, 53622.70, 15695.68, 0.00, 0.00, 0.00, 0.00
232, 58858.11, 48503.02, 28597.56, 37986.74, 44127.68, 53351.55, 15734.80, 0.00, 0.00, 0.00, 0.00
233, 58884.35, 48504.58, 28591.57, 38020.25, 44230.91, 53652.72, 15703.08, 0.00, 0.00, 0.00, 0.00
234, 59094.61, 48496.31, 28552.47, 37944.52, 44341.23, 54117.55, 15638.73, 0.00, 0.00, 0.00, 0.00
235, 59059.25, 48499.42, 28556.12, 37939.69, 44165.10, 53721.77, 15630.57, 0.00, 0.00, 0.00, 0.00
236, 58888.04, 48524.50, 28602.54, 37968.77, 44095.95, 53330.77, 15692.78, 0.00, 0.00, 0.00, 0.00
237, 58844.63, 48509.05, 28605.27, 37981.43, 44186.45, 53552.79, 15698.48, 0.00, 0.00, 0.00, 0.00
238, 59015.42, 48478.99, 28554.02, 37949.73, 44312.64, 54062.68, 15619.98, 0.00, 0.00, 0.00, 0.00
239, 59053.95, 48483.35, 28528.29, 37925.50, 44169.75, 53822.69, 15618.15, 0.00, 0.00, 0.00, 0.00
240, 58876.55, 48495.24, 28587.30, 37988.89, 44083.47, 53336.58, 15689.72, 0.00, 0.03, 0.95, 0.31
241, 58806.39, 48486.92, 28592.11, 38002.95, 44159.40, 53466.11, 15695.04, 0.00, 0.00, 0.00, 0.00
242, 58961.87, 48481.40, 28544.74, 37914.01, 44294.70, 53962.18, 15618.93, 0.00, 0.00, 0.00, 0.00
243, 59068.21, 48491.91, 28514.03, 37874.34, 44214.34, 53890.57, 15585.47, 0.00, 0.00, 0.00, 0.00
244, 58911.80, 48520.74, 28564.52, 37921.88, 44075.29, 53356.20, 15653.22, 0.00, 0.00, 0.00, 0.00
245, 58816.11, 48505.70, 28599.68, 37971.07, 44135.77, 53407.79, 15686.03, 0.00, 0.00, 0.00, 0.00
246, 58918.84, 48466.36, 28558.20, 37978.16, 44288.86, 53884.02, 15655.90, 0.00, 0.00, 0.00, 0.00
247, 59046.15, 48454.31, 28517.03, 37895.41, 44259.49, 53987.13, 15594.88, 0.00, 0.00, 0.00, 0.00
248, 58891.64, 48474.00, 28543.69, 37963.12, 44086.42, 53440.02, 15661.42, 0.00, 0.00, 0.00, 0.00
249, 58747.20, 48466.47, 28567.85, 37974.18, 44104.93, 53363.71, 15693.81, 0.00, 0.05, 0.95, 0.31
250, 58804.62, 48417.18, 28560.74, 37956.34, 44238.01, 53788.27, 15651.09, 0.00, 0.00, 0.00, 0.00
251, 58983.84, 48370.13, 28497.74, 37919.87, 44270.60, 54056.60, 15578.14, 0.00, 0.00, 0.00, 0.00
252, 58857.15, 48377.85, 28527.78, 37922.24, 44092.64, 53503.88, 15642.00, 0.00, 0.00, 0.00, 0.00
253, 58690.74, 48361.26, 28575.32, 37976.21, 44088.43, 53314.56, 15681.87, 0.00, 0.00, 0.00, 0.00
254, 58717.41, 48347.92, 28550.29, 37985.49, 44205.20, 53683.75, 15651.25, 0.00, 0.00, 0.00, 0.00
255, 58923.40, 48362.42, 28506.07, 37897.29, 44286.47, 54082.91, 15581.98, 0.00, 0.00, 0.00, 0.00
0, 58851.18, 48371.50, 28510.92, 37897.45, 44108.59, 53602.19, 15631.78, 0.00, 0.00, 0.00, 0.00
1, 58706.72, 48378.94, 28561.46, 37961.93, 44071.69, 53308.19, 15679.10, 0.00, 0.00, 0.00, 0.00
2, 58709.61, 48377.06, 28549.59, 38002.05, 44159.22, 53589.94, 15650.83, 0.00, 0.00, 0.00, 0.00
3, 58934.98, 48400.82, 28494.96, 37933.99, 44256.59, 54063.88, 15589.80, 0.00, 0.09, 0.94, 0.31
4, 58937.57, 48414.79, 28486.22, 37903.48, 44113.96, 53710.10, 15601.96, 0.00, 0.00, 0.00, 0.00
5, 58756.25, 48409.70, 28542.95, 37949.17, 44068.07, 53312.44, 15669.22, 0.00, 0.00, 0.00, 0.00
6, 58730.44, 48413.86, 28573.08, 37948.95, 44141.48, 53508.49, 15661.55, 0.00, 0.00, 0.00, 0.00
7, 58938.46, 48441.39, 28522.61, 37928.70, 44274.07, 54021.84, 15588.24, 0.00, 0.00, 0.00, 0.00
8, 58991.77, 48452.70, 28489.44, 37903.48, 44149.77, 53816.00, 15577.62, 0.00, 0.00, 0.00, 0.00
9, 58801.49, 48428.59, 28536.29, 37969.31, 44028.46, 53318.21, 15654.80, 0.00, 0.00, 0.00, 0.00
10, 58748.94, 48407.86, 28567.76, 37963.45, 44094.87, 53420.51, 15655.74, 0.00, 0.00, 0.00, 0.00
11, 58903.66, 48411.93, 28527.33, 37914.84, 44235.42, 53934.51, 15585.51, 0.00, 0.00, 0.00, 0.00
12, 59023.33, 48434.80, 28488.62, 37924.47, 44188.53, 53920.09, 15566.69, 0.00, 0.00, 0.00, 0.00
13, 58853.21, 48447.54, 28526.28, 37920.05, 44028.29, 53351.36, 15628.63, 0.00, 0.12, 0.94, 0.31
14, 58784.55, 48459.43, 28556.34, 37941.88, 44064.77, 53366.13, 15642.44, 0.00, 0.00, 0.00, 0.00
15, 58911.26, 48456.48, 28545.75, 37933.39, 44208.26, 53818.75, 15587.21, 0.00, 0.00, 0.00, 0.00
16, 59071.61, 48460.77, 28494.72, 37881.85, 44210.70, 53978.32, 15539.20, 0.00, 0.00, 0.00, 0.00
17, 58932.41, 48478.65, 28522.72, 37895.50, 44027.19, 53417.25, 15583.72, 0.00, 0.00, 0.00, 0.00
18, 58813.23, 48485.60, 28564.54, 37937.59, 44059.54, 53328.87, 15660.77, 0.00, 0.00, 0.00, 0.00
19, 58877.87, 48475.66, 28537.01, 37955.47, 44182.09, 53744.86, 15605.74, 0.00, 0.00, 0.00, 0.00
20, 59063.75, 48470.67, 28482.98, 37911.24, 44218.10, 54045.87, 15518.50, 0.00, 0.00, 0.00, 0.00
21, 58962.47, 48486.95, 28522.26, 37885.60, 44029.38, 53491.99, 15588.71, 0.00, 0.00, 0.00, 0.00
22, 58833.05, 48495.24, 28567.34, 37946.96, 44031.10, 53289.15, 15648.77, 0.00, 0.00, 0.00, 0.00
23, 58856.52, 48477.67, 28554.84, 37917.03, 44138.91, 53628.81, 15619.04, 0.00, 0.15, 0.94, 0.31
24, 59072.44, 48480.57, 28537.77, 37894.57, 44255.36, 54056.60, 15567.56, 0.00, 0.00, 0.00, 0.00
25, 59018.55, 48494.14, 28531.58, 37893.83, 44072.45, 53589.31, 15599.93, 0.00, 0.00, 0.00, 0.00
26, 58859.27, 48499.95, 28579.86, 37950.38, 44017.07, 53281.80, 15644.83, 0.00, 0.00, 0.00, 0.00
27, 58868.03, 48502.61, 28568.81, 37956.25, 44116.35, 53565.51, 15632.88, 0.00, 0.00, 0.00, 0.00
28, 59059.21, 48504.82, 28515.55, 37933.90, 44221.72, 54032.28, 15550.62, 0.00, 0.00, 0.00, 0.00
29, 59057.53, 48512.56, 28514.70, 37887.66, 44082.89, 53692.09, 15557.77, 0.00, 0.00, 0.00, 0.00
30, 58886.27, 48526.20, 28559.65, 37918.86, 44007.86, 53266.26, 15610.86, 0.00, 0.00, 0.00, 0.00
31, 58854.02, 48511.40, 28587.41, 37920.94, 44088.68, 53446.84, 15590.70, 0.00, 0.00, 0.00, 0.00
32, 59013.61, 48494.77, 28536.43, 37920.27, 44217.32, 53964.39, 15521.23, 0.00, 0.00, 0.00, 0.00
33, 59073.67, 48506.84, 28502.79, 37869.26, 44109.18, 53812.70, 15533.86, 0.00, 0.15, 0.95, 0.31
34, 58903.39, 48502.08, 28559.47, 37909.05, 43991.23, 53284.30, 15609.72, 0.00, 0.00, 0.00, 0.00
35, 58826.37, 48488.64, 28578.13, 37917.27, 44074.66, 53359.87, 15602.97, 0.00, 0.00, 0.00, 0.00
36, 58966.67, 48483.46, 28547.71, 37896.58, 44219.15, 53856.79, 15549.82, 0.00, 0.00, 0.00, 0.00
37, 59078.23, 48481.04, 28493.76, 37838.71, 44156.23, 53876.73, 15524.00, 0.00, 0.00, 0.00, 0.00
38, 58909.38, 48477.80, 28541.70, 37901.92, 44005.02, 53331.51, 15595.15, 0.00, 0.00, 0.00, 0.00
39, 58818.97, 48474.61, 28570.83, 37902.93, 44033.27, 53312.62, 15615.11, 0.00, 0.00, 0.00, 0.00
40, 58921.79, 48464.79, 28541.30, 37884.51, 44181.42, 53766.09, 15555.76, 0.00, 0.00, 0.00, 0.00
41, 59083.95, 48468.41, 28502.99, 37848.50, 44186.71, 53947.01, 15496.44, 0.00, 0.00, 0.00, 0.00
42, 58946.18, 48485.67, 28516.00, 37854.76, 44005.96, 53377.37, 15536.16, 0.00, 0.12, 0.94, 0.32
43, 58819.53, 48483.86, 28566.15, 37899.26, 44027.70, 53261.21, 15582.72, 0.00, 0.00, 0.00, 0.00
44, 58891.73, 48481.13, 28566.15, 37894.01, 44163.63, 53663.47, 15566.07, 0.00, 0.00, 0.00, 0.00
45, 59079.26, 48480.17, 28501.33, 37837.39, 44212.87, 53988.49, 15476.26, 0.00, 0.00, 0.00, 0.00
46, 58982.47, 48509.41, 28527.93, 37863.30, 44022.23, 53467.27, 15535.29, 0.00, 0.00, 0.00, 0.00
47, 58827.64, 48509.57, 28580.50, 37888.93, 44014.74, 53238.93, 15593.90, 0.00, 0.00, 0.00, 0.00
48, 58842.33, 48486.39, 28565.73, 37879.70, 44131.17, 53553.23, 15565.04, 0.00, 0.00, 0.00, 0.00
49, 59031.96, 48462.07, 28501.07, 37835.00, 44227.24, 53972.46, 15478.54, 0.00, 0.00, 0.00, 0.00
50, 58981.91, 48467.41, 28492.55, 37796.89, 44055.69, 53548.99, 15515.40, 0.00, 0.00, 0.00, 0.00
51, 58811.55, 48465.60, 28529.68, 37855.98, 44000.55, 53208.66, 15556.03, 0.00, 0.00, 0.00, 0.00
52, 58804.38, 48454.56, 28526.88, 37864.21, 44092.84, 53458.80, 15542.93, 0.00, 0.06, 0.94, 0.32
53, 59011.96, 48467.54, 28490.38, 37836.00, 44233.74, 53953.11, 15478.90, 0.00, 0.00, 0.00, 0.00
54, 59013.27, 48475.05, 28469.95, 37812.33, 44084.37, 53660.46, 15479.03, 0.00, 0.00, 0.00, 0.00
55, 58835.63, 48477.11, 28509.22, 37905.00, 43987.70, 53231.08, 15535.11, 0.00, 0.00, 0.00, 0.00
56, 58795.05, 48472.53, 28519.73, 37899.71, 44049.70, 53391.61, 15523.31, 0.00, 0.00, 0.00, 0.00
57, 58962.58, 48457.51, 28489.26, 37812.07, 44179.12, 53892.71, 15450.33, 0.00, 0.00, 0.00, 0.00
58, 59033.32, 48458.60, 28432.29, 37764.03, 44113.20, 53759.27, 15433.14, 0.00, 0.00, 0.00, 0.00
59, 58852.57, 48463.34, 28467.40, 37820.20, 43982.73, 53252.98, 15505.23, 0.00, 0.00, 0.00, 0.00
60, 58777.35, 48457.66, 28513.96, 37857.71, 44038.99, 53328.15, 15516.96, 0.00, 0.00, 0.00, 0.00
61, 58899.44, 48437.64, 28465.04, 37836.85, 44173.33, 53806.37, 15448.74, 0.00, 0.00, 0.00, 0.00
62, 59023.69, 48436.68, 28413.94, 37787.66, 44131.35, 53846.16, 15406.21, 0.00, 0.03, 0.94, 0.33
63, 58876.48, 48454.29, 28468.34, 37820.34, 43977.77, 53304.91, 15488.33, 0.00, 0.00, 0.00, 0.00
64, 58771.77, 48446.04, 28501.00, 37873.55, 44006.74, 53268.63, 15512.87, 0.00, 0.00, 0.00, 0.00
65, 58868.08, 48431.94, 28468.54, 37840.61, 44156.38, 53697.32, 15462.13, 0.00, 0.00, 0.00, 0.00
66, 59034.84, 48434.13, 28409.78, 37757.77, 44163.40, 53905.92, 15408.42, 0.00, 0.00, 0.00, 0.00
67, 58899.06, 48448.16, 28440.56, 37774.87, 43983.80, 53359.94, 15476.17, 0.00, 0.00, 0.00, 0.00
68, 58772.57, 48443.18, 28479.12, 37814.50, 43994.58, 53219.79, 15514.48, 0.00, 0.00, 0.00, 0.00
69, 58838.30, 48433.01, 28468.01, 37821.86, 44116.17, 53597.63, 15475.86, 0.00, 0.00, 0.00, 0.00
70, 59028.65, 48429.81, 28412.11, 37773.69, 44178.76, 53945.29, 15401.18, 0.00, 0.00, 0.00, 0.00
71, 58931.80, 48454.64, 28423.88, 37808.00, 44007.36, 53457.35, 15467.88, 0.00, 0.00, 0.00, 0.00
72, 58765.64, 48439.27, 28478.22, 37846.66, 43989.42, 53211.19, 15516.71, 0.00, 0.02, 0.95, 0.32
73, 58777.17, 48403.24, 28470.44, 37834.80, 44079.11, 53502.39, 15482.16, 0.00, 0.00, 0.00, 0.00
74, 58980.73, 48401.32, 28422.25, 37764.30, 44184.03, 53935.07, 15405.74, 0.00, 0.00, 0.00, 0.00
75, 58952.68, 48436.54, 28414.52, 37776.64, 44040.29, 53543.25, 15436.36, 0.00, 0.00, 0.00, 0.00
76, 58766.87, 48442.89, 28442.75, 37836.27, 43959.53, 53188.12, 15484.15, 0.00, 0.00, 0.00, 0.00
77, 58738.08, 48414.23, 28457.75, 37845.19, 44039.35, 53414.81, 15475.05, 0.00, 0.00, 0.00, 0.00
78, 58923.53, 48395.79, 28428.51, 37809.52, 44192.39, 53919.78, 15398.52, 0.00, 0.00, 0.00, 0.00
79, 58946.18, 48400.33, 28400.77, 37776.70, 44045.79, 53663.96, 15390.61, 0.00, 0.00, 0.00, 0.00
80, 58790.43, 48421.48, 28440.78, 37800.71, 43950.70, 53214.29, 15481.78, 0.00, 0.00, 0.00, 0.00
81, 58728.04, 48390.16, 28452.32, 37824.27, 44039.60, 53357.01, 15508.15, 0.00, 0.00, 0.00, 0.00
82, 58879.43, 48366.89, 28408.62, 37820.20, 44175.90, 53848.21, 15434.39, 0.00, 0.02, 0.98, 0.32
83, 58971.25, 48381.46, 28392.91, 37744.25, 44088.30, 53754.85, 15417.88, 0.00, 0.00, 0.00, 0.00
84, 58804.82, 48399.97, 28434.28, 37763.70, 43944.09, 53238.50, 15483.52, 0.00, 0.00, 0.00, 0.00
85, 58732.43, 48400.62, 28459.76, 37808.78, 44026.16, 53283.45, 15489.87, 0.00, 0.00, 0.00, 0.00
86, 58860.12, 48386.63, 28435.20, 37765.95, 44146.37, 53748.57, 15419.35, 0.00, 0.00, 0.00, 0.00
87, 58990.05, 48381.24, 28377.64, 37721.50, 44104.75, 53824.63, 15342.10, 0.00, 0.00, 0.00, 0.00
88, 58848.83, 48410.05, 28434.44, 37747.02, 43956.29, 53279.05, 15462.71, 0.00, 0.00, 0.00, 0.00
89, 58752.52, 48417.90, 28482.29, 37791.19, 44004.59, 53223.73, 15526.44, 0.00, 0.00, 0.00, 0.00
90, 58859.43, 48425.97, 28470.42, 37786.34, 44124.11, 53643.02, 15452.45, 0.00, 0.00, 0.00, 0.00
91, 59019.20, 48427.64, 28409.42, 37710.25, 44136.04, 53887.35, 15375.29, 0.00, 0.04, 0.96, 0.32
92, 58887.48, 48453.95, 28429.34, 37727.46, 43957.39, 53347.98, 15457.64, 0.00, 0.00, 0.00, 0.00
93, 58759.96, 48446.82, 28462.44, 37826.88, 43979.25, 53201.69, 15502.28, 0.00, 0.00, 0.00, 0.00
94, 58824.98, 48437.43, 28451.49, 37779.16, 44090.63, 53558.09, 15469.55, 0.00, 0.00, 0.00, 0.00
95, 59018.41, 48451.45, 28401.00, 37710.23, 44160.21, 53929.04, 15396.06, 0.00, 0.00, 0.00, 0.00
96, 58938.93, 48477.82, 28419.33, 37724.96, 43985.80, 53464.88, 15439.04, 0.00, 0.00, 0.00, 0.00
97, 58783.23, 48476.48, 28467.29, 37775.48, 43954.91, 53190.24, 15479.45, 0.00, 0.00, 0.00, 0.00
98, 58796.57, 48459.09, 28454.48, 37789.49, 44042.95, 53470.60, 15475.07, 0.00, 0.00, 0.00, 0.00
99, 58980.13, 48451.50, 28401.91, 37749.43, 44150.66, 53942.89, 15406.25, 0.00, 0.00, 0.00, 0.00
100, 58951.88, 48464.61, 28404.55, 37735.55, 43988.45, 53582.25, 15419.82, 0.00, 0.00, 0.00, 0.00
101, 58791.81, 48474.92, 28469.86, 37791.61, 43946.50, 53194.27, 15472.86, 0.00, 0.08, 0.91, 0.32
102, 58768.86, 48465.84, 28469.66, 37784.08, 44024.20, 53401.89, 15463.99, 0.00, 0.00, 0.00, 0.00
103, 58952.03, 48470.41, 28414.45, 37739.31, 44150.48, 53895.04, 15395.75, 0.00, 0.00, 0.00, 0.00
104, 58989.07, 48471.52, 28392.21, 37709.43, 44031.75, 53676.50, 15386.02, 0.00, 0.00, 0.00, 0.00
105, 58817.23, 48477.73, 28449.17, 37761.13, 43927.61, 53207.66, 15461.24, 0.00, 0.00, 0.00, 0.00
106, 58755.22, 48466.96, 28458.51, 37787.57, 43996.64, 53331.91, 15471.23, 0.00, 0.00, 0.00, 0.00
107, 58906.86, 48450.54, 28418.92, 37735.06, 44127.80, 53823.47, 15391.99, 0.00, 0.00, 0.00, 0.00
108, 58998.50, 48459.88, 28389.46, 37707.93, 44065.75, 53772.77, 15394.83, 0.00, 0.00, 0.00, 0.00
109, 58836.85, 48477.54, 28448.36, 37736.61, 43944.63, 53240.80, 15491.88, 0.00, 0.00, 0.00, 0.00
110, 58744.88, 48477.38, 28450.78, 37768.55, 43991.27, 53266.42, 15500.06, 0.00, 0.00, 0.00, 0.00
111, 58860.37, 48473.85, 28433.92, 37725.72, 44110.00, 53734.24, 15416.13, 0.00, 0.12, 0.92, 0.33
112, 58999.46, 48472.39, 28390.47, 37713.98, 44085.77, 53869.40, 15369.80, 0.00, 0.00, 0.00, 0.00
113, 58860.59, 48494.93, 28422.61, 37732.96, 43934.54, 53305.36, 15471.65, 0.00, 0.00, 0.00, 0.00
114, 58756.66, 48501.68, 28458.42, 37762.82, 43967.36, 53235.35, 15515.53, 0.00, 0.00, 0.00, 0.00
115, 58829.30, 48486.52, 28440.36, 37762.62, 44077.73, 53643.27, 15449.73, 0.00, 0.00, 0.00, 0.00
116, 59016.45, 48484.48, 28398.70, 37740.72, 44119.35, 53933.84, 15390.20, 0.00, 0.00, 0.00, 0.00
117, 58915.71, 48494.37, 28418.16, 37735.46, 43949.12, 53380.03, 15443.80, 0.00, 0.00, 0.00, 0.00
118, 58769.77, 48494.48, 28448.99, 37745.59, 43932.26, 53182.20, 15470.69, 0.00, 0.00, 0.00, 0.00
119, 58816.67, 48499.62, 28443.02, 37757.41, 44045.43, 53546.66, 15445.90, 0.00, 0.00, 0.00, 0.00
120, 59017.77, 48507.89, 28406.59, 37705.78, 44137.56, 53952.71, 15388.13, 0.00, 0.00, 0.00, 0.00
121, 58944.41, 48506.99, 28402.63, 37696.57, 43963.33, 53473.77, 15416.85, 0.00, 0.16, 0.90, 0.34
122, 58784.84, 48500.76, 28451.06, 37738.86, 43925.82, 53171.36, 15471.16, 0.00, 0.00, 0.00, 0.00
123, 58790.23, 48479.30, 28451.85, 37740.98, 43989.89, 53441.95, 15449.39, 0.00, 0.00, 0.00, 0.00
124, 58988.04, 48488.71, 28407.26, 37734.28, 44124.13, 53932.03, 15376.64, 0.00, 0.00, 0.00, 0.00
125, 58997.74, 48524.77, 28419.53, 37735.58, 44005.69, 53578.56, 15411.06, 0.00, 0.00, 0.00, 0.00
126, 58829.41, 48521.52, 28451.29, 37749.70, 43909.24, 53161.10, 15464.12, 0.00, 0.00, 0.00, 0.00
127, 58785.82, 48490.36, 28440.98, 37714.16, 43966.75, 53361.82, 15435.47, 0.00, 0.00, 0.00, 0.00
128, 58956.14, 48487.73, 28406.41, 37694.34, 44112.53, 53893.21, 15375.79, 0.00, 0.00, 0.00, 0.00
129, 59018.50, 48521.21, 28397.76, 37689.15, 44009.09, 53695.66, 15379.94, 0.00, 0.00, 0.00, 0.00
130, 58860.39, 48538.02, 28448.72, 37714.95, 43900.03, 53188.95, 15452.97, 0.00, 0.19, 0.90, 0.35
131, 58790.79, 48503.57, 28442.37, 37728.16, 43950.21, 53291.77, 15440.81, 0.00, 0.00, 0.00, 0.00
132, 58923.31, 48483.21, 28429.27, 37703.12, 44080.43, 53785.74, 15374.51, 0.00, 0.00, 0.00, 0.00
133, 59041.75, 48508.56, 28388.08, 37659.27, 44037.11, 53769.98, 15364.52, 0.00, 0.00, 0.00, 0.00
134, 58882.61, 48508.22, 28419.77, 37690.05, 43885.66, 53213.40, 15425.90, 0.00, 0.00, 0.00, 0.00
135, 58795.12, 48497.52, 28454.57, 37723.13, 43919.48, 53236.78, 15434.01, 0.00, 0.00, 0.00, 0.00
136, 58901.23, 48496.78, 28430.32, 37717.85, 44052.40, 53701.07, 15373.95, 0.00, 0.00, 0.00, 0.00
137, 59045.80, 48505.16, 28375.70, 37656.27, 44042.43, 53849.93, 15331.91, 0.00, 0.00, 0.00, 0.00
138, 58926.93, 48527.76, 28416.80, 37663.83, 43905.15, 53288.30, 15414.30, 0.00, 0.00, 0.00, 0.00
139, 58819.15, 48525.84, 28469.01, 37727.31, 43919.79, 53182.89, 15444.92, 0.00, 0.00, 0.00, 0.00
140, 58868.30, 48498.50, 28443.40, 37711.66, 44027.08, 53586.63, 15404.33, 0.00, 0.18, 0.91, 0.34
141, 59053.89, 48502.97, 28390.22, 37639.64, 44069.84, 53885.67, 15341.70, 0.00, 0.00, 0.00, 0.00
142, 58974.09, 48519.67, 28441.16, 37652.32, 43907.45, 53342.88, 15421.23, 0.00, 0.00, 0.00, 0.00
143, 58822.01, 48512.11, 28460.05, 37701.11, 43891.76, 53136.71, 15452.52, 0.00, 0.00, 0.00, 0.00
144, 58843.94, 48496.76, 28444.18, 37654.84, 43978.91, 53474.40, 15406.19, 0.00, 0.00, 0.00, 0.00
145, 59028.30, 48479.81, 28391.83, 37606.61, 44055.18, 53877.85, 15309.09, 0.00, 0.00, 0.00, 0.00
146, 58991.08, 48502.79, 28405.40, 37610.07, 43921.64, 53419.93, 15351.04, 0.00, 0.00, 0.00, 0.00
147, 58840.81, 48517.79, 28449.50, 37662.66, 43873.48, 53114.52, 15421.00, 0.00, 0.00, 0.00, 0.00
148, 58815.15, 48501.12, 28449.50, 37672.39, 43968.47, 53382.87, 15404.11, 0.00, 0.00, 0.00, 0.00
149, 58993.52, 48497.76, 28399.95, 37641.61, 44094.58, 53862.56, 15333.05, 0.00, 0.00, 0.00, 0.00
150, 59000.80, 48505.21, 28387.47, 37618.30, 43950.23, 53526.37, 15340.76, 0.00, 0.17, 0.92, 0.32
151, 58830.77, 48502.41, 28437.83, 37639.11, 43859.26, 53095.20, 15399.66, 0.00, 0.00, 0.00, 0.00
152, 58806.54, 48505.54, 28451.51, 37677.24, 43933.98, 53281.44, 15392.93, 0.00, 0.00, 0.00, 0.00
153, 58978.65, 48502.19, 28392.32, 37647.36, 44058.41, 53783.19, 15299.19, 0.00, 0.00, 0.00, 0.00
154, 59053.29, 48515.69, 28352.52, 37577.64, 43970.26, 53619.66, 15303.26, 0.00, 0.00, 0.00, 0.00
155, 58898.81, 48539.38, 28440.27, 37620.33, 43863.09, 53125.49, 15378.60, 0.00, 0.00, 0.00, 0.00
156, 58829.99, 48527.36, 28446.75, 37656.34, 43920.19, 53219.19, 15380.06, 0.00, 0.00, 0.00, 0.00
157, 58951.34, 48515.27, 28399.52, 37655.60, 44040.67, 53712.38, 15305.58, 0.00, 0.00, 0.00, 0.00
158, 59067.68, 48527.85, 28374.13, 37597.22, 43993.02, 53723.15, 15270.15, 0.00, 0.00, 0.00, 0.00
159, 58911.55, 48534.60, 28408.93, 37611.50, 43846.84, 53153.23, 15341.32, 0.00, 0.00, 0.00, 0.00
160, 58818.03, 48517.32, 28442.33, 37637.05, 43905.73, 53135.06, 15359.40, 0.00, 0.12, 0.93, 0.31
161, 58901.36, 48500.13, 28398.18, 37610.96, 44017.98, 53589.00, 15301.33, 0.00, 0.00, 0.00, 0.00
162, 59049.20, 48491.73, 28342.77, 37573.06, 44000.08, 53765.64, 15240.00, 0.00, 0.00, 0.00, 0.00
163, 58921.21, 48494.72, 28381.91, 37556.90, 43865.88, 53194.33, 15320.69, 0.00, 0.00, 0.00, 0.00
164, 58807.01, 48498.12, 28414.50, 37604.42, 43894.42, 53080.43, 15368.66, 0.00, 0.00, 0.00, 0.00
165, 58870.89, 48482.88, 28399.77, 37598.74, 44003.50, 53468.59, 15315.08, 0.00, 0.00, 0.00, 0.00
166, 59061.73, 48487.10, 28347.73, 37562.80, 44058.50, 53812.00, 15232.24, 0.00, 0.00, 0.00, 0.00
167, 58982.52, 48502.39, 28367.58, 37586.34, 43877.86, 53289.15, 15265.50, 0.00, 0.00, 0.00, 0.00
168, 58843.40, 48502.48, 28415.53, 37623.33, 43865.25, 53058.57, 15319.93, 0.00, 0.00, 0.00, 0.00
169, 58871.18, 48493.02, 28411.26, 37611.91, 43971.29, 53386.25, 15345.46, 0.00, 0.00, 0.00, 0.00
170, 59094.95, 48506.28, 28365.77, 37578.58, 44074.98, 53830.11, 15288.21, 0.00, 0.08, 0.96, 0.31
171, 59069.02, 48524.81, 28370.93, 37569.28, 43909.73, 53403.70, 15294.87, 0.00, 0.00, 0.00, 0.00
172, 58895.19, 48511.84, 28409.71, 37592.17, 43844.91, 53042.63, 15331.75, 0.00, 0.00, 0.00, 0.00
173, 58878.76, 48480.44, 28404.86, 37597.67, 43917.36, 53271.89, 15292.10, 0.00, 0.00, 0.00, 0.00
174, 59075.99, 48467.34, 28352.43, 37558.89, 44023.41, 53761.06, 15194.22, 0.00, 0.00, 0.00, 0.00
175, 59114.73, 48501.50, 28344.65, 37529.20, 43904.66, 53482.22, 15219.26, 0.00, 0.00, 0.00, 0.00
176, 58928.45, 48514.62, 28397.09, 37595.86, 43839.75, 53056.42, 15315.73, 0.00, 0.00, 0.00, 0.00
177, 58872.62, 48495.41, 28402.32, 37594.49, 43912.82, 53216.26, 15329.63, 0.00, 0.00, 0.00, 0.00
178, 59047.59, 48481.69, 28354.08, 37564.07, 44039.11, 53709.68, 15239.11, 0.00, 0.00, 0.00, 0.00
179, 59125.46, 48474.25, 28320.71, 37517.09, 43939.53, 53596.64, 15229.67, 0.00, 0.06, 0.96, 0.31
180, 58963.68, 48480.51, 28367.43, 37541.41, 43828.51, 53087.43, 15298.74, 0.00, 0.00, 0.00, 0.00
181, 58896.66, 48481.91, 28376.79, 37570.87, 43888.97, 53147.64, 15305.54, 0.00, 0.00, 0.00, 0.00
182, 59035.07, 48484.04, 28367.74, 37568.23, 44025.54, 53636.96, 15267.98, 0.00, 0.00, 0.00, 0.00
183, 59166.03, 48493.02, 28335.73, 37520.53, 43994.16, 53683.59, 15227.33, 0.00, 0.00, 0.00, 0.00
184, 59006.21, 48505.63, 28378.13, 37574.98, 43831.50, 53134.57, 15287.45, 0.00, 0.00, 0.00, 0.00
185, 58897.31, 48494.54, 28403.90, 37582.33, 43866.28, 53106.29, 15311.08, 0.00, 0.00, 0.00, 0.00
186, 58996.85, 48472.59, 28377.26, 37569.88, 43990.00, 53545.82, 15260.52, 0.00, 0.00, 0.00, 0.00
187, 59180.55, 48480.84, 28336.11, 37520.44, 44008.59, 53759.72, 15206.09, 0.00, 0.00, 0.00, 0.00
188, 59052.70, 48497.20, 28350.59, 37555.13, 43833.96, 53203.27, 15261.30, 0.00, 0.00, 0.00, 0.00
189, 58913.63, 48487.57, 28380.79, 37570.71, 43826.16, 53083.87, 15297.44, 0.00, 0.07, 0.95, 0.32
190, 58955.43, 48466.65, 28369.97, 37548.96, 43948.00, 53446.95, 15251.94, 0.00, 0.00, 0.00, 0.00
191, 59158.34, 48468.50, 28327.77, 37522.25, 44015.23, 53797.59, 15200.39, 0.00, 0.00, 0.00, 0.00
192, 59082.34, 48481.45, 28343.29, 37512.28, 43850.84, 53285.60, 15276.81, 0.00, 0.00, 0.00, 0.00
193, 58927.82, 48481.60, 28380.41, 37547.53, 43834.50, 53045.54, 15326.52, 0.00, 0.00, 0.00, 0.00
194, 58927.87, 48458.89, 28371.31, 37528.22, 43918.07, 53353.90, 15284.21, 0.00, 0.00, 0.00, 0.00
195, 59129.77, 48463.86, 28323.44, 37510.27, 44018.83, 53800.38, 15199.39, 0.00, 0.00, 0.00, 0.00
196, 59099.71, 48482.45, 28332.71, 37485.68, 43875.55, 53391.07, 15223.86, 0.00, 0.00, 0.00, 0.00
197, 58932.59, 48482.25, 28374.71, 37529.27, 43811.68, 53020.93, 15276.17, 0.00, 0.00, 0.00, 0.00
198, 58918.37, 48473.22, 28382.33, 37545.63, 43899.72, 53257.43, 15283.47, 0.00, 0.00, 0.00, 0.00
199, 59116.09, 48474.47, 28347.49, 37503.39, 44029.45, 53764.06, 15222.01, 0.00, 0.10, 0.94, 0.33
200, 59142.80, 48482.30, 28319.97, 37488.03, 43894.98, 53495.37, 15219.62, 0.00, 0.00, 0.00, 0.00
201, 58967.45, 48486.97, 28363.09, 37553.59, 43821.71, 53042.52, 15283.70, 0.00, 0.00, 0.00, 0.00
202, 58916.92, 48478.74, 28384.50, 37530.86, 43876.20, 53187.89, 15283.97, 0.00, 0.00, 0.00, 0.00
203, 59073.11, 48460.41, 28355.20, 37483.29, 44001.82, 53671.19, 15200.88, 0.00, 0.00, 0.00, 0.00
204, 59161.49, 48471.28, 28315.03, 37473.55, 43925.82, 53602.23, 15181.37, 0.00, 0.00, 0.00, 0.00
205, 58992.42, 48493.02, 28361.08, 37515.03, 43802.55, 53093.57, 15261.19, 0.00, 0.00, 0.00, 0.00
206, 58911.42, 48490.16, 28381.22, 37535.44, 43842.95, 53128.44, 15280.01, 0.00, 0.00, 0.00, 0.00
207, 59048.37, 48489.85, 28355.29, 37539.66, 43982.13, 53612.87, 15238.01, 0.00, 0.00, 0.00, 0.00
208, 59179.08, 48481.58, 28314.23, 37509.15, 43953.00, 53696.09, 15176.03, 0.00, 0.00, 0.00, 0.00
209, 59029.41, 48497.41, 28347.69, 37506.14, 43785.30, 53130.79, 15248.00, 0.00, 0.12, 0.93, 0.33
210, 58922.41, 48495.24, 28387.23, 37539.51, 43824.33, 53069.99, 15298.61, 0.00, 0.00, 0.00, 0.00
211, 59013.03, 48485.98, 28363.58, 37563.31, 43961.32, 53508.46, 15257.88, 0.00, 0.00, 0.00, 0.00
212, 59192.43, 48493.54, 28305.62, 37492.97, 43980.52, 53756.68, 15201.49, 0.00, 0.00, 0.00, 0.00
213, 59072.33, 48509.86, 28328.33, 37486.47, 43799.09, 53215.84, 15261.06, 0.00, 0.00, 0.00, 0.00
214, 58931.40, 48499.77, 28373.37, 37512.30, 43809.26, 53039.39, 15281.46, 0.00, 0.00, 0.00, 0.00
215, 58974.02, 48487.86, 28364.83, 37518.36, 43916.57, 53389.96, 15236.56, 0.00, 0.00, 0.00, 0.00
216, 59171.37, 48488.55, 28313.87, 37478.49, 43988.28, 53772.91, 15174.58, 0.00, 0.00, 0.00, 0.00
217, 59100.78, 48491.08, 28329.63, 37471.43, 43814.40, 53284.43, 15223.24, 0.00, 0.00, 0.00, 0.00
218, 58951.79, 48493.20, 28372.32, 37518.27, 43778.28, 53008.30, 15271.63, 0.00, 0.13, 0.93, 0.33
219, 58954.82, 48477.09, 28364.83, 37528.67, 43869.90, 53307.37, 15232.09, 0.00, 0.00, 0.00, 0.00
220, 59147.70, 48479.73, 28310.81, 37491.74, 43988.39, 53764.10, 15159.40, 0.00, 0.00, 0.00, 0.00
221, 59136.81, 48502.30, 28324.64, 37448.02, 43813.31, 53370.78, 15174.29, 0.00, 0.00, 0.00, 0.00
222, 58972.01, 48505.56, 28402.52, 37511.14, 43764.36, 52986.39, 15255.04, 0.00, 0.00, 0.00, 0.00
223, 58940.45, 48487.55, 28377.91, 37540.07, 43862.57, 53216.66, 15263.04, 0.00, 0.00, 0.00, 0.00
224, 59113.75, 48492.55, 28316.89, 37482.18, 43986.13, 53730.48, 15185.71, 0.00, 0.00, 0.00, 0.00
225, 59151.39, 48493.83, 28300.28, 37460.47, 43858.79, 53497.80, 15165.39, 0.00, 0.00, 0.00, 0.00
226, 58972.24, 48478.72, 28375.72, 37495.18, 43744.66, 53014.76, 15239.64, 0.00, 0.00, 0.00, 0.00
227, 58926.71, 48485.13, 28407.37, 37537.94, 43812.43, 53146.84, 15255.29, 0.00, 0.00, 0.00, 0.00
228, 59083.23, 48489.49, 28355.94, 37475.13, 43949.09, 53638.64, 15186.74, 0.00, 0.12, 0.92, 0.32
229, 59173.47, 48496.40, 28315.72, 37432.60, 43857.12, 53567.36, 15122.61, 0.00, 0.00, 0.00, 0.00
230, 59023.36, 48509.95, 28389.53, 37451.78, 43728.68, 53033.45, 15200.10, 0.00, 0.00, 0.00, 0.00
231, 58922.66, 48490.70, 28414.07, 37490.33, 43793.91, 53073.12, 15245.52, 0.00, 0.00, 0.00, 0.00
232, 59017.68, 48476.75, 28388.26, 37490.54, 43923.86, 53545.90, 15186.60, 0.00, 0.00, 0.00, 0.00
233, 59168.04, 48481.76, 28360.12, 37446.82, 43908.97, 53667.95, 15152.81, 0.00, 0.00, 0.00, 0.00
234, 59021.28, 48496.54, 28393.84, 37483.47, 43750.92, 53110.52, 15203.61, 0.00, 0.00, 0.00, 0.00
235, 58909.20, 48494.93, 28429.94, 37484.54, 43770.91, 53020.86, 15226.54, 0.00, 0.00, 0.00, 0.00
236, 58988.71, 48481.71, 28415.75, 37468.88, 43883.76, 53427.08, 15190.31, 0.00, 0.00, 0.00, 0.00
237, 59177.87, 48496.27, 28385.96, 37439.95, 43956.89, 53707.02, 15136.65, 0.00, 0.00, 0.00, 0.00
238, 59064.66, 48512.54, 28412.60, 37449.07, 43770.13, 53182.71, 15199.57, 0.00, 0.11, 0.93, 0.33
239, 58936.14, 48504.38, 28422.16, 37472.59, 43740.60, 52997.01, 15207.21, 0.00, 0.00, 0.00, 0.00
240, 58976.95, 48496.87, 28429.16, 37473.57, 43841.05, 53330.48, 15191.94, 0.00, 0.00, 0.00, 0.00
241, 59144.21, 48487.05, 28376.86, 37478.55, 43939.75, 53733.95, 15138.32, 0.00, 0.00, 0.00, 0.00
242, 59057.17, 48482.21, 28385.93, 37454.17, 43785.19, 53279.16, 15187.07, 0.00, 0.00, 0.00, 0.00
243, 58881.67, 48457.48, 28429.43, 37458.91, 43732.39, 52964.45, 15229.72, 0.00, 0.00, 0.00, 0.00
244, 58861.73, 48420.49, 28422.77, 37452.67, 43816.19, 53223.77, 15180.48, 0.00, 0.00, 0.00, 0.00
245, 59059.25, 48416.63, 28382.29, 37441.52, 43933.76, 53703.44, 15110.02, 0.00, 0.00, 0.00, 0.00
246, 59061.33, 48437.84, 28373.95, 37458.19, 43798.73, 53385.15, 15161.39, 0.00, 0.00, 0.00, 0.00
247, 58846.84, 48414.86, 28436.96, 37452.80, 43725.35, 52981.23, 15223.79, 0.00, 0.00, 0.00, 0.00
248, 58780.10, 48387.41, 28433.32, 37437.56, 43795.36, 53154.86, 15198.65, 0.00, 0.09, 0.93, 0.32
249, 58954.11, 48379.03, 28393.60, 37422.94, 43932.93, 53644.36, 15119.75, 0.00, 0.00, 0.00, 0.00
250, 58991.57, 48355.85, 28339.75, 37420.35, 43807.76, 53466.71, 15110.25, 0.00, 0.00, 0.00, 0.00
251, 58793.16, 48350.62, 28371.20, 37430.21, 43692.38, 52975.89, 15176.16, 0.00, 0.00, 0.00, 0.00
252, 58731.09, 48347.29, 28413.18, 37445.96, 43772.34, 53078.26, 15174.80, 0.00, 0.00, 0.00, 0.00
253, 58889.74, 48338.42, 28373.26, 37430.66, 43909.15, 53555.43, 15095.52, 0.00, 0.00, 0.00, 0.00
254, 58995.73, 48357.95, 28321.94, 37382.49, 43829.78, 53546.38, 15094.94, 0.00, 0.00, 0.00, 0.00
255, 58835.22, 48390.43, 28378.36, 37435.01, 43709.19, 53011.59, 15158.08, 0.00, 0.00, 0.00, 0.00
0, 58757.21, 48392.93, 28403.43, 37456.74, 43752.82, 53008.75, 15181.04, 0.00, 0.00, 0.00, 0.00
1, 58874.49, 48384.68, 28361.90, 37431.68, 43878.21, 53463.29, 15127.30, 0.00, 0.00, 0.00, 0.00
2, 59043.05, 48399.21, 28316.87, 37395.16, 43878.66, 53618.05, 15079.29, 0.00, 0.08, 0.94, 0.33
3, 58907.04, 48423.02, 28377.66, 37447.24, 43713.55, 53071.51, 15152.27, 0.00, 0.00, 0.00, 0.00
4, 58789.09, 48425.61, 28402.79, 37466.77, 43727.63, 52975.11, 15174.51, 0.00, 0.00, 0.00, 0.00
5, 58867.30, 48419.82, 28387.47, 37433.67, 43853.76, 53367.49, 15130.90, 0.00, 0.00, 0.00, 0.00
6, 59060.06, 48424.11, 28328.44, 37397.44, 43903.81, 53661.86, 15076.77, 0.00, 0.00, 0.00, 0.00
7, 58959.03, 48441.30, 28337.81, 37417.29, 43720.59, 53146.77, 15120.49, 0.00, 0.00, 0.00, 0.00
8, 58811.89, 48444.30, 28379.34, 37471.43, 43712.70, 52945.83, 15168.68, 0.00, 0.00, 0.00, 0.00
9, 58827.18, 48420.92, 28369.30, 37414.27, 43812.34, 53258.91, 15132.60, 0.00, 0.00, 0.00, 0.00
10, 59033.04, 48413.95, 28314.94, 37354.17, 43910.80, 53653.15, 15034.95, 0.00, 0.00, 0.00, 0.00
11, 58976.84, 48429.55, 28319.41, 37375.82, 43731.99, 53227.64, 15075.27, 0.00, 0.06, 0.96, 0.32
12, 58811.04, 48425.41, 28387.01, 37390.76, 43694.11, 52911.20, 15151.67, 0.00, 0.00, 0.00, 0.00
13, 58813.47, 48417.97, 28370.91, 37412.24, 43781.55, 53163.22, 15148.02, 0.00, 0.00, 0.00, 0.00
14, 59017.84, 48431.04, 28308.46, 37391.96, 43924.95, 53635.38, 15065.21, 0.00, 0.00, 0.00, 0.00
15, 59027.96, 48437.43, 28292.81, 37370.13, 43774.10, 53349.16, 15063.35, 0.00, 0.00, 0.00, 0.00
16, 58867.25, 48428.41, 28340.51, 37424.62, 43686.06, 52928.13, 15133.40, 0.00, 0.00, 0.00, 0.00
17, 58827.64, 48402.93, 28336.98, 37407.72, 43751.55, 53088.25, 15123.37, 0.00, 0.00, 0.00, 0.00
18, 59017.79, 48407.42, 28305.13, 37381.01, 43896.32, 53591.14, 15056.74, 0.00, 0.00, 0.00, 0.00
19, 59096.73, 48418.21, 28278.73, 37337.27, 43792.18, 53441.86, 15034.23, 0.00, 0.00, 0.00, 0.00
20, 58936.86, 48437.37, 28317.89, 37391.07, 43658.81, 52958.21, 15110.36, 0.00, 0.00, 0.00, 0.00
21, 58877.13, 48444.81, 28338.86, 37428.96, 43725.84, 53037.60, 15121.76, 0.00, 0.05, 0.95, 0.31
22, 59039.29, 48441.17, 28300.06, 37406.31, 43878.21, 53504.38, 15075.63, 0.00, 0.00, 0.00, 0.00
23, 59164.48, 48436.59, 28267.98, 37367.40, 43823.57, 53524.36, 15044.31, 0.00, 0.00, 0.00, 0.00
24, 58992.15, 48447.32, 28291.74, 37408.41, 43651.86, 52985.50, 15102.69, 0.00, 0.00, 0.00, 0.00
25, 58895.97, 48446.13, 28323.86, 37444.63, 43696.00, 52976.32, 15126.90, 0.00, 0.00, 0.00, 0.00
26, 59016.45, 48443.38, 28305.04, 37426.50, 43839.52, 53413.02, 15081.53, 0.00, 0.00, 0.00, 0.00
27, 59172.31, 48446.76, 28253.48, 37358.23, 43846.19, 53590.59, 15026.76, 0.00, 0.00, 0.00, 0.00
28, 59026.37, 48461.55, 28288.17, 37355.08, 43671.06, 53057.92, 15085.30, 0.00, 0.00, 0.00, 0.00
29, 58897.89, 48448.63, 28315.41, 37426.56, 43675.69, 52932.01, 15119.75, 0.00, 0.00, 0.00, 0.00
30, 58961.39, 48435.91, 28300.21, 37400.57, 43787.49, 53308.48, 15098.49, 0.00, 0.00, 0.00, 0.00
31, 59163.64, 48443.22, 28261.10, 37340.71, 43882.84, 53637.95, 15035.86, 0.00, 0.06, 0.95, 0.31
32, 59064.71, 48460.01, 28261.03, 37364.23, 43691.47, 53136.78, 15084.70, 0.00, 0.00, 0.00, 0.00
33, 58916.04, 48455.43, 28293.13, 37391.54, 43671.64, 52914.51, 15131.75, 0.00, 0.00, 0.00, 0.00
34, 58956.79, 48438.80, 28296.79, 37403.36, 43781.77, 53202.83, 15093.82, 0.00, 0.00, 0.00, 0.00
35, 59183.82, 48436.07, 28275.20, 37371.38, 43891.18, 53645.64, 15032.82, 0.00, 0.00, 0.00, 0.00
36, 59151.81, 48452.59, 28249.94, 37363.13, 43714.89, 53251.60, 15064.23, 0.00, 0.00, 0.00, 0.00
37, 59002.41, 48466.40, 28287.79, 37401.82, 43658.52, 52906.13, 15122.16, 0.00, 0.00, 0.00, 0.00
38, 59008.85, 48459.18, 28297.26, 37406.05, 43749.00, 53129.74, 15111.88, 0.00, 0.00, 0.00, 0.00
39, 59207.80, 48457.15, 28246.86, 37372.76, 43874.15, 53604.71, 15031.73, 0.00, 0.00, 0.00, 0.00
40, 59219.18, 48470.23, 28231.01, 37351.93, 43730.23, 53338.95, 15019.77, 0.00, 0.00, 0.00, 0.00
41, 59045.21, 48485.89, 28287.67, 37403.18, 43649.22, 52908.37, 15108.21, 0.00, 0.06, 0.95, 0.30
42, 59018.37, 48476.08, 28301.55, 37415.95, 43732.66, 53059.48, 15122.00, 0.00, 0.00, 0.00, 0.00
43, 59182.25, 48455.18, 28249.01, 37373.21, 43860.25, 53535.49, 15045.12, 0.00, 0.00, 0.00, 0.00
44, 59247.61, 48460.84, 28226.72, 37337.87, 43760.71, 53419.28, 15004.55, 0.00, 0.00, 0.00, 0.00
45, 59081.52, 48485.34, 28279.92, 37365.75, 43645.56, 52926.31, 15125.60, 0.00, 0.00, 0.00, 0.00
46, 59017.14, 48485.04, 28291.07, 37429.54, 43694.71, 53016.17, 15156.99, 0.00, 0.00, 0.00, 0.00
47, 59154.52, 48455.47, 28264.88, 37357.99, 43826.79, 53476.57, 15087.32, 0.00, 0.00, 0.00, 0.00
48, 59279.89, 48444.19, 28228.67, 37301.62, 43815.45, 53518.41, 15028.82, 0.00, 0.00, 0.00, 0.00
49, 59133.68, 48474.50, 28256.90, 37348.80, 43648.42, 52988.12, 15091.63, 0.00, 0.00, 0.00, 0.00
50, 59025.90, 48474.50, 28289.22, 37369.19, 43671.51, 52937.91, 15100.68, 0.00, 0.00, 0.00, 0.00
51, 59124.56, 48461.38, 28263.13, 37375.00, 43808.48, 53351.96, 15061.39, 0.00, 0.08, 0.95, 0.31
52, 59300.14, 48461.80, 28214.34, 37318.49, 43831.32, 53575.48, 15022.29, 0.00, 0.00, 0.00, 0.00
53, 59159.37, 48486.90, 28246.59, 37326.88, 43655.95, 53059.80, 15084.50, 0.00, 0.00, 0.00, 0.00
54, 59005.54, 48483.57, 28282.31, 37358.23, 43653.63, 52918.89, 15111.59, 0.00, 0.00, 0.00, 0.00
55, 59053.33, 48458.69, 28272.18, 37360.40, 43769.36, 53271.96, 15082.67, 0.00, 0.00, 0.00, 0.00
56, 59260.02, 48453.24, 28224.80, 37320.71, 43849.96, 53618.50, 15021.78, 0.00, 0.00, 0.00, 0.00
57, 59178.16, 48466.45, 28233.92, 37361.97, 43668.60, 53151.42, 15083.54, 0.00, 0.00, 0.00, 0.00
58, 59015.38, 48459.23, 28275.98, 37377.88, 43637.49, 52899.09, 15139.33, 0.00, 0.00, 0.00, 0.00
59, 59021.66, 48434.38, 28271.54, 37328.66, 43738.77, 53170.95, 15074.87, 0.00, 0.00, 0.00, 0.00
60, 59229.19, 48424.14, 28205.38, 37295.79, 43842.77, 53608.78, 14999.72, 0.00, 0.11, 0.95, 0.31
61, 59207.85, 48445.59, 28197.91, 37302.45, 43680.70, 53232.78, 15047.51, 0.00, 0.00, 0.00, 0.00
62, 59028.00, 48450.73, 28255.33, 37317.64, 43602.17, 52873.52, 15097.96, 0.00, 0.00, 0.00, 0.00
63, 59011.75, 48435.18, 28269.32, 37343.08, 43726.25, 53091.11, 15074.28, 0.00, 0.00, 0.00, 0.00
64, 59212.00, 48429.39, 28211.97, 37305.06, 43845.88, 53569.95, 14992.01, 0.00, 0.00, 0.00, 0.00
65, 59244.93, 48445.26, 28200.05, 37276.85, 43718.69, 53343.24, 15042.59, 0.00, 0.00, 0.00, 0.00
66, 59067.97, 48463.59, 28246.08, 37319.39, 43629.35, 52900.41, 15114.56, 0.00, 0.00, 0.00, 0.00
67, 59024.36, 48453.24, 28264.88, 37343.93, 43692.38, 53024.30, 15116.89, 0.00, 0.00, 0.00, 0.00
68, 59171.84, 48432.38, 28225.00, 37295.14, 43805.15, 53495.01, 15045.67, 0.00, 0.00, 0.00, 0.00
69, 59260.57, 48447.94, 28183.94, 37258.10, 43742.99, 53421.88, 15017.04, 0.00, 0.00, 0.00, 0.00
70, 59088.98, 48458.13, 28232.91, 37288.99, 43620.68, 52913.30, 15083.38, 0.00, 0.12, 0.94, 0.32
71, 59006.99, 48445.62, 28262.28, 37320.86, 43668.29, 52957.18, 15103.48, 0.00, 0.00, 0.00, 0.00
72, 59134.04, 48438.13, 28223.39, 37337.89, 43798.42, 53424.45, 15040.91, 0.00, 0.00, 0.00, 0.00
73, 59276.02, 48454.45, 28181.14, 37276.96, 43760.31, 53524.49, 14995.79, 0.00, 0.00, 0.00, 0.00
74, 59123.07, 48468.21, 28220.51, 37256.49, 43608.88, 52962.66, 15056.65, 0.00, 0.00, 0.00, 0.00
75, 59006.61, 48446.69, 28251.44, 37302.11, 43638.96, 52899.65, 15067.85, 0.00, 0.00, 0.00, 0.00
76, 59083.46, 48431.18, 28230.59, 37318.54, 43759.04, 53338.95, 15016.95, 0.00, 0.00, 0.00, 0.00
77, 59257.98, 48434.57, 28171.58, 37261.34, 43786.42, 53591.28, 14995.72, 0.00, 0.00, 0.00, 0.00
78, 59137.53, 48468.15, 28192.88, 37272.85, 43616.79, 53061.21, 15059.55, 0.00, 0.00, 0.00, 0.00
79, 59005.38, 48475.21, 28237.65, 37326.03, 43609.04, 52900.50, 15098.89, 0.00, 0.00, 0.00, 0.00
80, 59046.40, 48450.15, 28227.99, 37332.06, 43726.78, 53234.32, 15041.54, 0.00, 0.12, 0.93, 0.32
81, 59228.30, 48438.51, 28174.15, 37250.16, 43817.17, 53590.29, 14953.45, 0.00, 0.00, 0.00, 0.00
82, 59160.39, 48461.96, 28191.76, 37254.52, 43649.94, 53137.05, 15043.24, 0.00, 0.00, 0.00, 0.00
83, 59001.36, 48459.12, 28236.35, 37307.99, 43614.76, 52885.97, 15094.47, 0.00, 0.00, 0.00, 0.00
84, 59006.52, 48452.55, 28217.80, 37287.27, 43696.30, 53163.40, 15054.46, 0.00, 0.00, 0.00, 0.00
85, 59199.40, 48437.79, 28176.68, 37264.56, 43813.08, 53587.95, 14981.32, 0.00, 0.00, 0.00, 0.00
86, 59180.76, 48443.31, 28163.96, 37244.89, 43654.16, 53240.11, 15026.56, 0.00, 0.00, 0.00, 0.00
87, 59029.14, 48469.64, 28209.89, 37271.71, 43587.15, 52866.48, 15082.64, 0.00, 0.00, 0.00, 0.00
88, 59019.40, 48469.58, 28215.34, 37314.70, 43673.43, 53077.19, 15081.30, 0.00, 0.00, 0.00, 0.00
89, 59187.26, 48455.52, 28182.11, 37294.20, 43813.80, 53539.82, 14999.50, 0.00, 0.00, 0.00, 0.00
90, 59211.80, 48469.31, 28138.56, 37228.91, 43682.55, 53318.95, 14980.43, 0.00, 0.11, 0.93, 0.33
91, 59038.75, 48463.86, 28187.16, 37270.91, 43565.58, 52868.54, 15042.86, 0.00, 0.00, 0.00, 0.00
92, 58988.17, 48457.95, 28213.35, 37283.49, 43651.19, 52987.02, 15053.47, 0.00, 0.00, 0.00, 0.00
93, 59150.78, 48447.98, 28173.84, 37232.93, 43785.61, 53462.69, 14985.48, 0.00, 0.00, 0.00, 0.00
94, 59248.37, 48461.62, 28129.31, 37204.75, 43711.88, 53413.85, 14947.42, 0.00, 0.00, 0.00, 0.00
95, 59084.53, 48475.77, 28188.68, 37245.65, 43573.34, 52905.08, 15030.79, 0.00, 0.00, 0.00, 0.00
96, 58987.91, 48448.10, 28215.46, 37278.20, 43627.99, 52932.13, 15076.47, 0.00, 0.00, 0.00, 0.00
97, 59114.84, 48441.55, 28190.85, 37259.64, 43753.09, 53381.57, 15013.78, 0.00, 0.00, 0.00, 0.00
98, 59278.90, 48467.83, 28142.99, 37220.88, 43732.55, 53507.14, 14956.94, 0.00, 0.00, 0.00, 0.00
99, 59137.66, 48486.34, 28170.44, 37249.49, 43590.62, 52964.71, 15011.86, 0.00, 0.10, 0.92, 0.33
100, 58997.79, 48448.99, 28204.95, 37284.16, 43596.45, 52873.81, 15051.75, 0.00, 0.00, 0.00, 0.00
101, 59059.21, 48421.52, 28188.07, 37293.75, 43739.66, 53278.78, 15017.00, 0.00, 0.00, 0.00, 0.00
102, 59246.83, 48434.42, 28128.69, 37213.26, 43775.71, 53560.34, 14932.53, 0.00, 0.00, 0.00, 0.00
103, 59135.94, 48438.00, 28154.28, 37215.74, 43591.60, 53046.21, 14991.29, 0.00, 0.00, 0.00, 0.00
104, 58989.54, 48442.44, 28193.86, 37252.54, 43583.33, 52855.50, 15048.47, 0.00, 0.00, 0.00, 0.00
105, 59039.36, 48423.51, 28186.85, 37259.93, 43690.68, 53168.07, 14992.19, 0.00, 0.00, 0.00, 0.00
106, 59256.39, 48428.52, 28139.26, 37211.41, 43790.42, 53562.82, 14942.23, 0.00, 0.00, 0.00, 0.00
107, 59180.24, 48450.96, 28135.12, 37209.53, 43614.36, 53126.36, 14975.67, 0.00, 0.00, 0.00, 0.00
108, 59008.89, 48440.81, 28186.35, 37222.87, 43557.65, 52805.84, 15006.33, 0.00, 0.00, 0.00, 0.00
109, 59010.32, 48412.91, 28173.39, 37220.26, 43641.98, 53050.95, 14983.29, 0.00, 0.08, 0.93, 0.33
110, 59216.14, 48408.02, 28122.23, 37183.33, 43776.38, 53515.75, 14917.13, 0.00, 0.00, 0.00, 0.00
111, 59214.55, 48429.28, 28106.69, 37184.96, 43618.49, 53190.69, 14909.48, 0.00, 0.00, 0.00, 0.00
112, 59045.21, 48439.94, 28153.63, 37226.38, 43537.91, 52804.79, 14977.14, 0.00, 0.00, 0.00, 0.00
113, 59020.16, 48429.28, 28163.15, 37237.42, 43617.95, 52976.85, 15002.02, 0.00, 0.00, 0.00, 0.00
114, 59205.66, 48428.94, 28118.02, 37170.05, 43735.66, 53438.41, 14913.51, 0.00, 0.00, 0.00, 0.00
115, 59266.43, 48440.18, 28100.48, 37155.88, 43631.90, 53284.41, 14892.74, 0.00, 0.00, 0.00, 0.00
116, 59086.59, 48458.65, 28142.97, 37195.40, 43521.73, 52824.34, 14991.85, 0.00, 0.00, 0.00, 0.00
117, 59016.74, 48447.36, 28151.39, 37201.71, 43607.98, 52908.28, 14998.51, 0.00, 0.00, 0.00, 0.00
118, 59171.95, 48440.34, 28111.34, 37220.19, 43729.89, 53368.45, 14911.21, 0.00, 0.00, 0.00, 0.00
119, 59285.70, 48444.70, 28077.23, 37138.67, 43671.84, 53346.04, 14886.26, 0.00, 0.08, 0.92, 0.32
120, 59107.98, 48456.50, 28122.16, 37148.20, 43520.92, 52834.87, 14967.89, 0.00, 0.00, 0.00, 0.00
121, 59019.76, 48456.86, 28155.66, 37206.40, 43573.74, 52871.69, 15000.32, 0.00, 0.00, 0.00, 0.00
122, 59132.05, 48461.73, 28123.81, 37195.61, 43707.07, 53304.73, 14934.67, 0.00, 0.00, 0.00, 0.00
123, 59301.75, 48460.73, 28076.38, 37141.13, 43695.89, 53453.79, 14869.59, 0.00, 0.00, 0.00, 0.00
124, 59167.26, 48473.09, 28111.14, 37164.63, 43521.17, 52912.14, 14929.65, 0.00, 0.00, 0.00, 0.00
125, 59041.64, 48468.59, 28148.18, 37204.61, 43539.99, 52807.61, 14950.81, 0.00, 0.00, 0.00, 0.00
126, 59122.38, 48452.77, 28128.53, 37200.81, 43658.52, 53180.79, 14920.75, 0.00, 0.00, 0.00, 0.00
127, 59301.14, 48459.39, 28079.65, 37133.02, 43720.93, 53483.57, 14858.50, 0.00, 0.00, 0.00, 0.00
128, 59198.30, 48476.75, 28099.45, 37136.82, 43538.63, 52982.24, 14909.42, 0.00, 0.00, 0.00, 0.00
129, 59062.11, 48473.82, 28147.17, 37173.16, 43526.85, 52765.56, 14961.99, 0.00, 0.10, 0.93, 0.32
130, 59115.60, 48468.17, 28149.43, 37184.54, 43632.82, 53080.12, 14936.49, 0.00, 0.00, 0.00, 0.00
131, 59322.27, 48464.68, 28075.44, 37143.17, 43727.70, 53506.27, 14851.53, 0.00, 0.00, 0.00, 0.00
132, 59265.45, 48475.05, 28085.28, 37133.96, 43544.64, 53077.05, 14891.56, 0.00, 0.00, 0.00, 0.00
133, 59101.56, 48486.59, 28139.77, 37182.10, 43532.39, 52763.21, 14955.69, 0.00, 0.00, 0.00, 0.00
134, 59087.59, 48465.75, 28133.76, 37214.18, 43618.36, 52988.99, 14944.02, 0.00, 0.00, 0.00, 0.00
135, 59284.56, 48456.28, 28092.21, 37166.46, 43742.16, 53475.12, 14899.25, 0.00, 0.00, 0.00, 0.00
136, 59289.65, 48473.06, 28080.18, 37119.56, 43593.70, 53187.05, 14910.65, 0.00, 0.00, 0.00, 0.00
137, 59107.53, 48477.24, 28126.43, 37166.32, 43499.69, 52749.22, 14940.49, 0.00, 0.00, 0.00, 0.00
138, 59070.05, 48483.93, 28141.58, 37150.63, 43585.54, 52922.25, 14960.42, 0.00, 0.00, 0.00, 0.00
139, 59250.94, 48472.13, 28103.23, 37126.56, 43732.53, 53427.66, 14916.53, 0.00, 0.10, 0.94, 0.31
140, 59316.66, 48465.13, 28074.06, 37109.95, 43625.89, 53294.36, 14905.57, 0.00, 0.00, 0.00, 0.00
141, 59128.23, 48469.04, 28107.99, 37154.59, 43501.99, 52808.43, 14957.94, 0.00, 0.00, 0.00, 0.00
142, 59053.15, 48448.54, 28126.74, 37184.50, 43556.48, 52878.41, 14940.33, 0.00, 0.00, 0.00, 0.00
143, 59198.55, 48445.32, 28094.00, 37154.19, 43702.11, 53335.11, 14883.27, 0.00, 0.00, 0.00, 0.00
144, 59328.93, 48456.46, 28065.16, 37100.90, 43667.28, 53386.09, 14887.58, 0.00, 0.00, 0.00, 0.00
145, 59170.36, 48487.75, 28107.97, 37158.39, 43509.55, 52871.42, 14958.64, 0.00, 0.00, 0.00, 0.00
146, 59083.26, 48496.67, 28113.53, 37199.43, 43508.36, 52833.15, 14952.31, 0.00, 0.00, 0.00, 0.00
147, 59187.06, 48472.44, 28094.76, 37173.36, 43695.60, 53267.40, 14903.09, 0.00, 0.00, 0.00, 0.00
148, 59350.77, 48461.04, 28058.61, 37108.21, 43703.94, 53462.04, 14858.39, 0.00, 0.10, 0.95, 0.30
149, 59211.85, 48471.70, 28086.75, 37123.61, 43524.21, 52919.52, 14936.17, 0.00, 0.00, 0.00, 0.00
150, 59083.10, 48467.61, 28120.84, 37162.55, 43537.02, 52786.39, 14967.17, 0.00, 0.00, 0.00, 0.00
151, 59147.45, 48451.72, 28096.28, 37164.04, 43645.38, 53163.20, 14913.17, 0.00, 0.00, 0.00, 0.00
152, 59355.59, 48463.63, 28045.07, 37148.17, 43714.02, 53490.47, 14839.34, 0.00, 0.00, 0.00, 0.00
153, 59264.75, 48479.50, 28091.20, 37129.58, 43538.74, 53002.15, 14891.54, 0.00, 0.00, 0.00, 0.00
154, 59113.14, 48475.70, 28129.51, 37129.15, 43516.25, 52754.54, 14947.08, 0.00, 0.00, 0.00, 0.00
155, 59141.91, 48465.78, 28105.51, 37141.25, 43613.39, 53049.72, 14913.51, 0.00, 0.00, 0.00, 0.00
156, 59356.96, 48462.94, 28062.95, 37113.53, 43709.46, 53481.93, 14857.94, 0.00, 0.00, 0.00, 0.00
157, 59331.59, 48488.62, 28075.76, 37105.75, 43539.95, 53100.46, 14882.33, 0.00, 0.00, 0.00, 0.00
158, 59163.61, 48479.17, 28119.34, 37150.09, 43470.83, 52754.23, 14907.94, 0.00, 0.11, 0.95, 0.30
159, 59144.03, 48453.13, 28106.54, 37157.79, 43600.99, 52966.95, 14904.84, 0.00, 0.00, 0.00, 0.00
160, 59345.20, 48448.70, 28065.14, 37109.13, 43723.12, 53430.14, 14853.47, 0.00, 0.00, 0.00, 0.00
161, 59365.18, 48461.02, 28055.75, 37094.91, 43572.82, 53177.26, 14865.09, 0.00, 0.00, 0.00, 0.00
162, 59199.51, 48485.76, 28103.72, 37151.14, 43477.18, 52762.57, 14937.76, 0.00, 0.00, 0.00, 0.00
163, 59164.64, 48482.41, 28112.59, 37162.21, 43551.28, 52911.54, 14917.02, 0.00, 0.00, 0.00, 0.00
164, 59327.52, 48477.69, 28070.35, 37137.78, 43690.21, 53396.37, 14849.07, 0.00, 0.00, 0.00, 0.00
165, 59400.68, 48481.65, 28035.66, 37095.16, 43594.19, 53281.82, 14837.42, 0.00, 0.00, 0.00, 0.00
166, 59219.96, 48493.58, 28085.12, 37124.04, 43463.32, 52781.25, 14901.04, 0.00, 0.00, 0.00, 0.00
167, 59146.76, 48492.87, 28114.22, 37148.17, 43531.47, 52840.89, 14907.74, 0.00, 0.00, 0.00, 0.00
168, 59282.37, 48485.25, 28076.72, 37160.11, 43654.72, 53304.10, 14833.69, 0.00, 0.10, 0.93, 0.29
169, 59411.76, 48487.84, 28043.59, 37089.01, 43622.20, 53377.82, 14796.63, 0.00, 0.00, 0.00, 0.00
170, 59260.46, 48502.21, 28094.38, 37113.10, 43479.55, 52842.00, 14891.87, 0.00, 0.00, 0.00, 0.00
171, 59148.30, 48507.44, 28112.86, 37143.43, 43512.23, 52791.04, 14915.52, 0.00, 0.00, 0.00, 0.00
172, 59224.48, 48483.41, 28083.58, 37121.57, 43639.41, 53208.91, 14859.15, 0.00, 0.00, 0.00, 0.00
173, 59399.78, 48467.81, 28038.21, 37098.62, 43653.56, 53444.20, 14814.27, 0.00, 0.00, 0.00, 0.00
174, 59267.62, 48478.88, 28068.11, 37086.15, 43470.30, 52902.20, 14878.57, 0.00, 0.00, 0.00, 0.00
175, 59139.61, 48483.37, 28112.77, 37109.17, 43493.34, 52745.00, 14894.33, 0.00, 0.00, 0.00, 0.00
176, 59206.08, 48483.46, 28110.40, 37108.84, 43626.69, 53102.89, 14858.08, 0.00, 0.00, 0.00, 0.00
177, 59392.50, 48473.13, 28032.53, 37071.91, 43680.25, 53450.77, 14776.69, 0.00, 0.00, 0.00, 0.00
178, 59274.68, 48475.63, 28056.27, 37077.43, 43489.95, 52975.29, 14824.64, 0.00, 0.10, 0.94, 0.29
179, 59119.20, 48481.63, 28113.26, 37125.60, 43472.00, 52734.78, 14903.87, 0.00, 0.00, 0.00, 0.00
180, 59132.05, 48464.93, 28108.39, 37117.93, 43577.34, 53023.88, 14870.64, 0.00, 0.00, 0.00, 0.00
181, 59325.39, 48467.21, 28041.56, 37083.53, 43675.40, 53459.94, 14791.11, 0.00, 0.00, 0.00, 0.00
182, 59284.42, 48472.50, 28044.02, 37055.19, 43510.11, 53073.90, 14828.17, 0.00, 0.00, 0.00, 0.00
183, 59114.73, 48485.13, 28098.44, 37102.96, 43451.23, 52727.20, 14895.96, 0.00, 0.00, 0.00, 0.00
184, 59095.55, 48459.90, 28092.92, 37120.73, 43530.11, 52938.74, 14865.52, 0.00, 0.00, 0.00, 0.00
185, 59278.75, 48438.02, 28038.90, 37058.79, 43645.00, 53408.04, 14764.40, 0.00, 0.00, 0.00, 0.00
186, 59312.50, 48445.93, 28011.32, 37036.91, 43512.96, 53158.08, 14750.23, 0.00, 0.00, 0.00, 0.00
187, 59142.02, 48464.37, 28064.02, 37106.93, 43426.11, 52715.20, 14872.31, 0.00, 0.11, 0.95, 0.28
188, 59101.56, 48466.94, 28093.77, 37100.45, 43532.28, 52867.26, 14908.57, 0.00, 0.00, 0.00, 0.00
189, 59265.00, 48455.96, 28055.80, 37077.16, 43667.73, 53345.97, 14815.54, 0.00, 0.00, 0.00, 0.00
190, 59359.04, 48469.82, 28017.66, 37069.29, 43579.55, 53264.47, 14786.71, 0.00, 0.00, 0.00, 0.00
191, 59205.59, 48496.82, 28065.77, 37061.70, 43439.00, 52763.26, 14869.97, 0.00, 0.00, 0.00, 0.00
192, 59138.36, 48480.06, 28083.92, 37092.81, 43476.69, 52807.65, 14889.79, 0.00, 0.00, 0.00, 0.00
193, 59270.34, 48462.54, 28058.68, 37093.14, 43639.95, 53266.02, 14826.11, 0.00, 0.00, 0.00, 0.00
194, 59420.46, 48467.10, 28013.91, 37060.73, 43614.33, 53363.04, 14774.41, 0.00, 0.00, 0.00, 0.00
195, 59283.24, 48487.37, 28060.69, 37056.60, 43440.52, 52822.38, 14845.09, 0.00, 0.00, 0.00, 0.00
196, 59200.47, 48485.47, 28081.26, 37076.29, 43460.46, 52745.80, 14859.01, 0.00, 0.00, 0.00, 0.00
197, 59334.52, 48465.71, 28045.13, 37067.68, 43576.47, 53151.57, 14795.16, 0.00, 0.11, 0.96, 0.27
198, 59547.55, 48455.43, 27999.72, 37032.10, 43608.88, 53405.11, 14738.74, 0.00, 0.00, 0.00, 0.00
199, 59438.20, 48471.50, 28033.04, 37051.43, 43435.47, 52869.63, 14823.14, 0.00, 0.00, 0.00, 0.00
200, 59310.89, 48482.14, 28082.71, 37095.58, 43453.11, 52708.14, 14881.14, 0.00, 0.00, 0.00, 0.00
201, 59342.40, 48469.58, 28046.14, 37086.57, 43555.43, 53053.76, 14832.86, 0.00, 0.00, 0.00, 0.00
202, 59530.18, 48462.00, 28008.01, 37040.24, 43647.86, 53428.47, 14757.67, 0.00, 0.00, 0.00, 0.00
203, 59458.99, 48470.36, 28021.13, 37038.43, 43457.47, 52961.85, 14796.25, 0.00, 0.00, 0.00, 0.00
204, 59338.00, 48462.11, 28070.06, 37077.05, 43427.61, 52675.37, 14846.70, 0.00, 0.00, 0.00, 0.00
205, 59412.59, 48452.63, 28063.40, 37071.13, 43534.34, 52951.10, 14822.63, 0.00, 0.00, 0.00, 0.00
206, 59665.66, 48441.23, 28006.71, 37034.38, 43653.29, 53413.98, 14746.07, 0.00, 0.00, 0.00, 0.00
207, 59639.73, 48459.92, 28010.94, 37017.46, 43485.88, 53049.43, 14763.59, 0.00, 0.10, 0.98, 0.27
208, 59428.17, 48474.83, 28063.06, 37098.15, 43421.57, 52680.91, 14828.64, 0.00, 0.00, 0.00, 0.00
209, 59381.54, 48467.61, 28063.53, 37084.43, 43507.94, 52882.46, 14826.38, 0.00, 0.00, 0.00, 0.00
210, 59575.55, 48451.50, 28024.04, 37027.18, 43639.77, 53369.57, 14765.07, 0.00, 0.00, 0.00, 0.00
211, 59612.79, 48458.16, 27998.15, 37000.07, 43489.32, 53148.85, 14748.42, 0.00, 0.00, 0.00, 0.00
212, 59412.48, 48461.78, 28046.05, 37049.16, 43394.59, 52675.82, 14804.25, 0.00, 0.00, 0.00, 0.00
213, 59349.67, 48448.95, 28063.58, 37049.47, 43468.35, 52795.98, 14796.74, 0.00, 0.00, 0.00, 0.00
214, 59506.06, 48458.11, 28038.43, 37039.48, 43623.61, 53296.59, 14756.02, 0.00, 0.00, 0.00, 0.00
215, 59599.34, 48470.23, 27985.01, 37024.14, 43549.89, 53260.38, 14739.66, 0.00, 0.00, 0.00, 0.00
216, 59422.82, 48485.58, 28029.67, 37036.48, 43399.84, 52726.40, 14815.45, 0.00, 0.00, 0.00, 0.00
217, 59328.39, 48475.61, 28060.22, 37041.31, 43450.70, 52734.65, 14834.81, 0.00, 0.09, 0.97, 0.26
218, 59453.87, 48459.61, 28037.67, 37058.57, 43591.69, 53199.45, 14777.25, 0.00, 0.00, 0.00, 0.00
219, 59617.15, 48457.42, 27984.34, 37023.70, 43567.71, 53332.71, 14721.31, 0.00, 0.00, 0.00, 0.00
220, 59465.27, 48471.19, 28019.01, 37013.17, 43396.83, 52773.88, 14773.97, 0.00, 0.00, 0.00, 0.00
221, 59351.95, 48474.88, 28059.75, 37040.19, 43425.59, 52690.61, 14806.93, 0.00, 0.00, 0.00, 0.00
222, 59430.65, 48461.91, 28044.91, 37047.61, 43557.94, 53095.32, 14770.99, 0.00, 0.00, 0.00, 0.00
223, 59619.07, 48462.16, 28002.00, 37016.07, 43608.01, 53381.84, 14717.80, 0.00, 0.00, 0.00, 0.00
224, 59500.16, 48477.22, 28006.49, 37025.24, 43415.71, 52850.23, 14757.90, 0.00, 0.00, 0.00, 0.00
225, 59355.46, 48484.40, 28042.56, 37036.64, 43407.15, 52661.89, 14787.69, 0.00, 0.00, 0.00, 0.00
226, 59395.89, 48472.48, 28038.09, 37037.00, 43513.91, 53007.81, 14779.71, 0.00, 0.00, 0.00, 0.00
227, 59604.19, 48472.13, 27990.62, 37002.33, 43608.65, 53404.17, 14750.41, 0.00, 0.10, 0.97, 0.26
228, 59523.34, 48485.16, 27996.63, 36993.57, 43442.78, 52951.01, 14772.96, 0.00, 0.00, 0.00, 0.00
229, 59340.48, 48479.34, 28039.28, 37031.00, 43394.82, 52645.31, 14819.79, 0.00, 0.00, 0.00, 0.00
230, 59332.66, 48448.16, 28038.25, 37032.77, 43497.03, 52908.41, 14788.14, 0.00, 0.00, 0.00, 0.00
231, 59539.14, 48455.16, 27996.83, 37004.27, 43620.14, 53393.38, 14703.83, 0.00, 0.00, 0.00, 0.00
232, 59542.65, 48479.77, 27980.83, 36991.58, 43452.41, 53064.98, 14721.66, 0.00, 0.00, 0.00, 0.00
233, 59371.46, 48495.86, 28034.90, 37051.79, 43371.08, 52657.31, 14804.97, 0.00, 0.00, 0.00, 0.00
234, 59335.74, 48477.76, 28038.27, 37086.37, 43468.60, 52857.70, 14810.71, 0.00, 0.00, 0.00, 0.00
235, 59520.52, 48462.47, 27993.01, 37036.17, 43624.34, 53339.80, 14728.03, 0.00, 0.00, 0.00, 0.00
236, 59593.26, 48489.61, 27970.73, 37011.11, 43500.56, 53162.01, 14731.21, 0.00, 0.10, 0.96, 0.26
237, 59429.96, 48498.16, 28030.43, 37018.64, 43378.81, 52676.38, 14797.35, 0.00, 0.00, 0.00, 0.00
238, 59359.17, 48466.94, 28054.77, 37012.70, 43460.42, 52767.62, 14799.16, 0.00, 0.00, 0.00, 0.00
239, 59520.05, 48453.64, 28006.33, 37004.92, 43594.30, 53250.19, 14728.97, 0.00, 0.00, 0.00, 0.00
240, 59651.02, 48464.19, 27961.65, 36978.68, 43522.67, 53242.84, 14689.34, 0.00, 0.00, 0.00, 0.00
241, 59487.73, 48483.75, 28004.19, 37006.62, 43371.55, 52711.74, 14761.96, 0.00, 0.00, 0.00, 0.00
242, 59391.51, 48473.46, 28032.10, 37019.72, 43414.08, 52715.27, 14786.13, 0.00, 0.00, 0.00, 0.00
243, 59513.44, 48454.42, 28017.08, 37019.83, 43561.69, 53169.50, 14741.42, 0.00, 0.00, 0.00, 0.00
244, 59689.62, 48455.99, 27974.04, 36978.68, 43569.18, 53330.63, 14701.10, 0.00, 0.00, 0.00, 0.00
245, 59553.18, 48475.75, 27993.64, 36996.23, 43378.41, 52781.30, 14756.98, 0.00, 0.00, 0.00, 0.00
246, 59434.20, 48476.82, 28031.75, 37023.52, 43390.73, 52667.14, 14785.70, 0.00, 0.11, 0.95, 0.26
247, 59513.11, 48461.17, 28009.93, 37016.57, 43526.29, 53061.12, 14748.44, 0.00, 0.00, 0.00, 0.00
248, 59711.70, 48449.59, 27954.45, 36971.86, 43572.02, 53385.20, 14690.97, 0.00, 0.00, 0.00, 0.00
249, 59609.39, 48474.59, 27979.60, 36996.23, 43378.50, 52870.19, 14762.86, 0.00, 0.00, 0.00, 0.00
250, 59467.35, 48481.65, 28038.36, 37039.01, 43411.31, 52658.54, 14809.46, 0.00, 0.00, 0.00, 0.00
251, 59509.59, 48467.50, 28020.55, 37034.29, 43511.94, 52979.85, 14767.84, 0.00, 0.00, 0.00, 0.00
252, 59706.67, 48468.04, 27959.75, 36994.66, 43590.84, 53382.29, 14675.89, 0.00, 0.00, 0.00, 0.00
253, 59648.46, 48479.88, 27951.62, 36990.14, 43417.79, 52953.09, 14706.75, 0.00, 0.00, 0.00, 0.00
254, 59480.74, 48486.14, 28008.97, 37057.22, 43376.66, 52631.90, 14768.13, 0.00, 0.00, 0.00, 0.00
255, 59466.01, 48460.41, 28041.09, 36985.59, 43468.35, 52873.96, 14745.69, 0.00, 0.00, 0.00, 0.00
0, 59669.16, 48443.27, 27985.90, 36950.74, 43595.54, 53356.90, 14697.77, 0.00, 0.10, 0.96, 0.27
1, 59664.05, 48445.08, 27959.97, 36946.96, 43448.44, 53054.10, 14701.50, 0.00, 0.00, 0.00, 0.00
2, 59475.55, 48459.25, 28011.92, 36974.41, 43358.29, 52625.21, 14740.44, 0.00, 0.00, 0.00, 0.00
3, 59436.75, 48447.98, 28023.41, 36983.73, 43440.34, 52798.98, 14754.70, 0.00, 0.00, 0.00, 0.00
4, 59627.75, 48443.18, 27977.10, 36954.50, 43573.92, 53291.77, 14708.77, 0.00, 0.00, 0.00, 0.00
5, 59710.67, 48448.03, 27949.56, 36922.36, 43463.61, 53151.84, 14695.78, 0.00, 0.00, 0.00, 0.00
6, 59538.47, 48466.38, 27997.86, 36961.83, 43362.20, 52661.25, 14758.74, 0.00, 0.00, 0.00, 0.00
7, 59482.59, 48463.45, 28018.85, 36987.62, 43432.90, 52739.45, 14771.60, 0.00, 0.00, 0.00, 0.00
8, 59623.77, 48431.00, 27972.78, 36964.00, 43556.26, 53213.27, 14691.11, 0.00, 0.00, 0.00, 0.00
9, 59745.99, 48440.34, 27926.71, 36918.42, 43490.30, 53241.59, 14644.62, 0.00, 0.00, 0.00, 0.00
10, 59590.24, 48450.89, 27995.83, 36961.58, 43352.46, 52699.27, 14740.55, 0.00, 0.11, 0.96, 0.27
11, 59482.21, 48430.82, 28015.63, 37000.83, 43395.66, 52680.96, 14765.20, 0.00, 0.00, 0.00, 0.00
12, 59579.96, 48415.78, 27977.52, 36978.55, 43514.71, 53122.23, 14728.23, 0.00, 0.00, 0.00, 0.00
13, 59748.91, 48425.28, 27932.37, 36910.95, 43550.05, 53310.18, 14664.82, 0.00, 0.00, 0.00, 0.00
14, 59611.16, 48448.86, 27963.33, 36948.41, 43368.33, 52770.39, 14732.77, 0.00, 0.00, 0.00, 0.00
15, 59474.70, 48458.00, 28004.90, 37021.06, 43383.04, 52663.39, 14771.13, 0.00, 0.00, 0.00, 0.00
16, 59535.50, 48460.19, 27996.41, 36985.39, 43505.79, 53036.31, 14725.51, 0.00, 0.00, 0.00, 0.00
17, 59735.77, 48445.26, 27943.08, 36902.44, 43562.50, 53363.16, 14659.23, 0.00, 0.00, 0.00, 0.00
18, 59629.42, 48437.08, 27951.37, 36886.79, 43368.95, 52852.00, 14700.63, 0.00, 0.00, 0.00, 0.00
19, 59465.43, 48449.39, 28004.54, 36950.02, 43362.96, 52608.96, 14753.51, 0.00, 0.11, 0.95, 0.27
20, 59483.42, 48420.02, 28002.62, 36935.95, 43471.75, 52917.60, 14726.42, 0.00, 0.00, 0.00, 0.00
21, 59680.43, 48402.88, 27946.01, 36904.18, 43567.32, 53348.34, 14651.88, 0.00, 0.00, 0.00, 0.00
22, 59636.98, 48425.43, 27931.25, 36879.57, 43393.00, 52937.18, 14673.20, 0.00, 0.00, 0.00, 0.00
23, 59466.21, 48434.20, 27990.57, 36929.48, 43344.12, 52598.66, 14746.29, 0.00, 0.00, 0.00, 0.00
24, 59439.30, 48430.82, 27972.69, 36949.73, 43422.84, 52835.12, 14736.77, 0.00, 0.00, 0.00, 0.00
25, 59619.99, 48416.18, 27940.08, 36903.11, 43535.81, 53306.43, 14634.85, 0.00, 0.00, 0.00, 0.00
26, 59635.01, 48425.10, 27922.83, 36888.11, 43426.38, 53038.36, 14636.61, 0.00, 0.00, 0.00, 0.00
27, 59466.16, 48441.73, 27979.09, 36914.20, 43343.88, 52602.17, 14736.08, 0.00, 0.00, 0.00, 0.00
28, 59429.57, 48435.04, 27997.35, 36926.85, 43414.20, 52751.79, 14734.22, 0.00, 0.00, 0.00, 0.00
29, 59600.45, 48414.77, 27951.82, 36909.08, 43540.17, 53247.87, 14653.58, 0.00, 0.11, 0.95, 0.27
30, 59681.59, 48427.87, 27917.60, 36882.70, 43450.34, 53154.95, 14655.61, 0.00, 0.00, 0.00, 0.00
31, 59512.25, 48465.02, 27971.20, 36912.81, 43337.24, 52657.15, 14762.39, 0.00, 0.00, 0.00, 0.00
32, 59438.07, 48457.86, 27996.30, 36944.48, 43390.95, 52703.64, 14749.27, 0.00, 0.00, 0.00, 0.00
33, 59569.95, 48422.77, 27971.51, 36943.66, 43524.52, 53168.05, 14673.85, 0.00, 0.00, 0.00, 0.00
34, 59687.07, 48425.01, 27912.70, 36874.10, 43465.63, 53228.49, 14649.91, 0.00, 0.00, 0.00, 0.00
35, 59523.86, 48463.88, 27967.13, 36886.14, 43331.65, 52697.43, 14738.38, 0.00, 0.00, 0.00, 0.00
36, 59416.84, 48451.11, 27997.39, 36939.54, 43375.37, 52666.74, 14765.41, 0.00, 0.00, 0.00, 0.00
37, 59518.65, 48441.50, 27968.54, 36943.27, 43509.59, 53091.14, 14713.55, 0.00, 0.00, 0.00, 0.00
38, 59688.30, 48441.35, 27918.27, 36890.23, 43521.91, 53320.11, 14641.96, 0.00, 0.00, 0.00, 0.00
39, 59560.13, 48449.62, 27939.59, 36879.01, 43335.40, 52778.88, 14700.52, 0.00, 0.11, 0.95, 0.28
40, 59436.53, 48454.18, 27985.01, 36927.85, 43354.00, 52630.49, 14747.81, 0.00, 0.00, 0.00, 0.00
41, 59499.20, 48448.75, 27981.50, 36937.44, 43470.79, 52983.80, 14696.83, 0.00, 0.00, 0.00, 0.00
42, 59694.82, 48435.36, 27923.50, 36864.21, 43520.95, 53316.96, 14598.86, 0.00, 0.00, 0.00, 0.00
43, 59596.81, 48436.27, 27907.63, 36855.75, 43309.54, 52825.78, 14623.76, 0.00, 0.00, 0.00, 0.00
44, 59451.32, 48448.19, 27959.60, 36921.35, 43329.75, 52583.06, 14706.98, 0.00, 0.00, 0.00, 0.00
45, 59479.02, 48450.29, 27983.49, 36924.48, 43437.66, 52878.88, 14690.06, 0.00, 0.00, 0.00, 0.00
46, 59679.20, 48450.76, 27908.25, 36861.71, 43524.32, 53318.39, 14616.39, 0.00, 0.00, 0.00, 0.00
47, 59643.23, 48449.55, 27903.25, 36846.83, 43366.27, 52937.71, 14649.18, 0.00, 0.00, 0.00, 0.00
48, 59493.34, 48449.50, 27960.82, 36879.93, 43311.64, 52581.18, 14699.04, 0.00, 0.00, 0.00, 0.00
49, 59477.57, 48433.52, 27971.40, 36891.87, 43390.30, 52794.89, 14687.46, 0.00, 0.11, 0.96, 0.28
50, 59678.44, 48429.55, 27927.81, 36863.48, 43532.23, 53283.72, 14626.29, 0.00, 0.00, 0.00, 0.00
51, 59728.13, 48441.57, 27900.14, 36845.40, 43385.88, 53049.50, 14641.46, 0.00, 0.00, 0.00, 0.00
52, 59552.49, 48458.00, 27951.82, 36864.35, 43316.20, 52586.88, 14731.68, 0.00, 0.00, 0.00, 0.00
53, 59500.72, 48444.03, 27975.04, 36881.61, 43401.23, 52714.15, 14731.95, 0.00, 0.00, 0.00, 0.00
54, 59662.64, 48419.64, 27928.53, 36855.93, 43525.06, 53208.86, 14641.64, 0.00, 0.00, 0.00, 0.00
55, 59770.80, 48433.99, 27893.21, 36840.46, 43437.82, 53142.79, 14627.23, 0.00, 0.00, 0.00, 0.00
56, 59619.34, 48473.55, 27950.16, 36859.95, 43300.96, 52622.40, 14698.08, 0.00, 0.00, 0.00, 0.00
57, 59530.98, 48459.68, 27979.80, 36871.88, 43362.90, 52657.51, 14712.72, 0.00, 0.00, 0.00, 0.00
58, 59653.23, 48430.84, 27941.00, 36864.75, 43494.97, 53101.42, 14634.56, 0.00, 0.00, 0.00, 0.00
59, 59803.63, 48441.68, 27891.78, 36825.88, 43478.19, 53207.95, 14596.96, 0.00, 0.11, 0.94, 0.28
60, 59635.19, 48444.72, 27929.58, 36853.53, 43304.92, 52668.66, 14674.72, 0.00, 0.00, 0.00, 0.00
61, 59512.01, 48428.36, 27957.70, 36851.66, 43318.17, 52611.40, 14701.86, 0.00, 0.00, 0.00, 0.00
62, 59597.28, 48419.93, 27939.21, 36843.34, 43471.28, 53019.43, 14655.23, 0.00, 0.00, 0.00, 0.00
63, 59784.01, 48426.17, 27892.79, 36808.02, 43511.67, 53280.50, 14602.33, 0.00, 0.00, 0.00, 0.00
64, 59678.02, 48447.79, 27924.01, 36822.31, 43328.03, 52742.61, 14653.74, 0.00, 0.00, 0.00, 0.00
65, 59547.06, 48459.05, 27947.44, 36881.47, 43333.82, 52583.66, 14698.08, 0.00, 0.00, 0.00, 0.00
66, 59568.40, 48453.68, 27939.32, 36857.78, 43438.13, 52929.96, 14652.37, 0.00, 0.00, 0.00, 0.00
67, 59769.86, 48446.69, 27881.65, 36796.40, 43513.64, 53299.66, 14581.18, 0.00, 0.00, 0.00, 0.00
68, 59709.33, 48451.50, 27901.14, 36804.45, 43342.45, 52840.13, 14651.37, 0.00, 0.11, 0.95, 0.29
69, 59545.71, 48435.51, 27945.87, 36852.46, 43311.15, 52558.96, 14705.64, 0.00, 0.00, 0.00, 0.00
70, 59552.22, 48420.43, 27938.21, 36865.56, 43406.80, 52837.20, 14682.77, 0.00, 0.00, 0.00, 0.00
71, 59755.15, 48426.17, 27894.04, 36821.14, 43532.10, 53296.64, 14592.58, 0.00, 0.00, 0.00, 0.00
72, 59740.42, 48439.67, 27883.93, 36794.57, 43364.04, 52936.64, 14607.38, 0.00, 0.00, 0.00, 0.00
73, 59575.13, 48451.79, 27936.13, 36840.57, 43299.42, 52555.23, 14693.77, 0.00, 0.00, 0.00, 0.00
74, 59556.67, 48443.07, 27940.66, 36861.38, 43388.45, 52763.14, 14700.45, 0.00, 0.00, 0.00, 0.00
75, 59739.71, 48431.29, 27895.56, 36869.96, 43511.02, 53248.85, 14619.05, 0.00, 0.00, 0.00, 0.00
76, 59780.95, 48440.12, 27876.78, 36795.08, 43392.89, 53044.44, 14608.65, 0.00, 0.00, 0.00, 0.00
77, 59604.52, 48456.39, 27930.92, 36816.70, 43310.77, 52577.20, 14677.88, 0.00, 0.00, 0.00, 0.00
78, 59558.07, 48445.64, 27947.57, 36849.22, 43374.63, 52693.99, 14701.66, 0.00, 0.10, 0.94, 0.29
79, 59721.45, 48419.31, 27907.56, 36817.64, 43512.52, 53176.32, 14634.76, 0.00, 0.00, 0.00, 0.00
80, 59820.93, 48433.55, 27870.57, 36797.12, 43437.11, 53145.38, 14591.69, 0.00, 0.00, 0.00, 0.00
81, 59638.97, 48458.29, 27907.47, 36822.55, 43289.56, 52617.86, 14654.85, 0.00, 0.00, 0.00, 0.00
82, 59550.61, 48450.38, 27925.82, 36857.29, 43337.41, 52637.86, 14682.08, 0.00, 0.00, 0.00, 0.00
83, 59660.89, 48431.18, 27900.65, 36852.53, 43484.87, 53090.06, 14631.25, 0.00, 0.00, 0.00, 0.00
84, 59810.79, 48425.84, 27862.01, 36795.08, 43480.73, 53233.54, 14596.74, 0.00, 0.00, 0.00, 0.00
85, 59667.69, 48445.08, 27904.63, 36816.23, 43303.82, 52683.98, 14665.22, 0.00, 0.00, 0.00, 0.00
86, 59547.93, 48436.45, 27927.81, 36834.24, 43316.52, 52595.04, 14691.31, 0.00, 0.00, 0.00, 0.00
87, 59630.05, 48423.29, 27897.90, 36820.99, 43430.62, 52996.03, 14636.21, 0.00, 0.00, 0.00, 0.00
88, 59827.57, 48441.28, 27849.67, 36803.84, 43478.05, 53283.38, 14580.58, 0.00, 0.11, 0.95, 0.29
89, 59720.26, 48464.53, 27874.72, 36838.31, 43285.98, 52773.29, 14647.25, 0.00, 0.00, 0.00, 0.00
90, 59575.00, 48457.20, 27922.00, 36846.09, 43293.72, 52586.63, 14693.61, 0.00, 0.00, 0.00, 0.00
91, 59613.51, 48431.18, 27907.25, 36847.16, 43416.38, 52909.66, 14661.25, 0.00, 0.00, 0.00, 0.00
92, 59818.12, 48426.19, 27853.20, 36826.35, 43492.02, 53304.68, 14574.77, 0.00, 0.00, 0.00, 0.00
93, 59757.10, 48451.45, 27869.12, 36778.57, 43312.67, 52850.36, 14606.95, 0.00, 0.00, 0.00, 0.00
94, 59596.75, 48453.39, 27926.47, 36821.35, 43282.95, 52555.16, 14681.14, 0.00, 0.00, 0.00, 0.00
95, 59584.41, 48431.22, 27914.98, 36856.50, 43372.46, 52816.37, 14664.71, 0.00, 0.00, 0.00, 0.00
96, 59783.96, 48426.75, 27875.26, 36820.21, 43500.14, 53282.89, 14590.23, 0.00, 0.00, 0.00, 0.00
97, 59794.47, 48452.30, 27871.35, 36785.34, 43353.60, 52967.51, 14607.78, 0.00, 0.00, 0.00, 0.00
98, 59612.32, 48448.88, 27903.74, 36832.10, 43261.75, 52560.75, 14669.96, 0.00, 0.11, 0.94, 0.28
99, 59586.22, 48435.51, 27910.60, 36844.19, 43349.53, 52742.36, 14667.04, 0.00, 0.00, 0.00, 0.00
100, 59767.31, 48427.04, 27873.47, 36799.48, 43480.24, 53215.34, 14567.84, 0.00, 0.00, 0.00, 0.00
101, 59831.86, 48442.96, 27841.47, 36790.72, 43364.48, 53055.29, 14566.85, 0.00, 0.00, 0.00, 0.00
102, 59646.48, 48457.71, 27902.08, 36850.79, 43259.30, 52588.51, 14663.64, 0.00, 0.00, 0.00, 0.00
103, 59575.49, 48455.96, 27914.56, 36833.53, 43319.63, 52674.36, 14653.49, 0.00, 0.00, 0.00, 0.00
104, 59733.54, 48445.41, 27871.82, 36804.25, 43453.42, 53146.23, 14597.57, 0.00, 0.00, 0.00, 0.00
105, 59834.48, 48450.85, 27845.78, 36760.97, 43407.15, 53146.28, 14577.90, 0.00, 0.00, 0.00, 0.00
106, 59657.45, 48458.94, 27870.68, 36786.01, 43248.48, 52598.64, 14633.98, 0.00, 0.00, 0.00, 0.00
107, 59561.83, 48424.70, 27899.63, 36828.32, 43275.97, 52599.33, 14650.85, 0.00, 0.00, 0.00, 0.00
108, 59660.83, 48409.09, 27879.38, 36806.64, 43426.80, 53056.36, 14609.28, 0.00, 0.11, 0.94, 0.28
109, 59827.44, 48425.16, 27832.03, 36751.72, 43450.38, 53220.24, 14557.20, 0.00, 0.00, 0.00, 0.00
110, 59698.96, 48458.60, 27869.41, 36792.85, 43272.51, 52672.33, 14632.59, 0.00, 0.00, 0.00, 0.00
111, 59572.45, 48454.38, 27909.57, 36842.74, 43289.02, 52567.48, 14671.48, 0.00, 0.00, 0.00, 0.00
112, 59634.30, 48433.68, 27892.41, 36794.61, 43405.70, 52943.91, 14620.66, 0.00, 0.00, 0.00, 0.00
113, 59814.90, 48419.38, 27837.44, 36727.49, 43445.17, 53244.71, 14534.33, 0.00, 0.00, 0.00, 0.00
114, 59717.51, 48432.07, 27852.87, 36772.66, 43264.95, 52747.54, 14600.11, 0.00, 0.00, 0.00, 0.00
115, 59580.09, 48439.85, 27894.95, 36797.41, 43259.92, 52529.66, 14654.14, 0.00, 0.00, 0.00, 0.00
116, 59611.70, 48433.68, 27898.82, 36798.37, 43370.47, 52839.41, 14613.44, 0.00, 0.00, 0.00, 0.00
117, 59814.41, 48428.63, 27842.61, 36756.88, 43464.82, 53262.15, 14541.35, 0.00, 0.11, 0.95, 0.28
118, 59760.40, 48447.14, 27821.69, 36748.48, 43280.96, 52841.02, 14556.33, 0.00, 0.00, 0.00, 0.00
119, 59597.08, 48453.04, 27867.89, 36777.20, 43209.59, 52507.44, 14605.30, 0.00, 0.00, 0.00, 0.00
120, 59587.94, 48438.93, 27878.68, 36790.50, 43341.93, 52764.55, 14623.83, 0.00, 0.00, 0.00, 0.00
121, 59778.00, 48419.58, 27840.30, 36751.63, 43496.05, 53236.87, 14568.38, 0.00, 0.00, 0.00, 0.00
122, 59779.80, 48427.87, 27824.57, 36725.64, 43332.27, 52951.01, 14591.35, 0.00, 0.00, 0.00, 0.00
123, 59602.46, 48441.41, 27876.94, 36795.80, 43247.67, 52518.06, 14657.36, 0.00, 0.00, 0.00, 0.00
124, 59569.09, 48426.80, 27890.13, 36813.23, 43333.97, 52705.59, 14646.81, 0.00, 0.00, 0.00, 0.00
125, 59739.71, 48414.19, 27840.95, 36765.31, 43475.95, 53199.52, 14566.09, 0.00, 0.00, 0.00, 0.00
126, 59813.45, 48417.74, 27795.62, 36744.10, 43357.78, 53052.33, 14550.58, 0.00, 0.00, 0.00, 0.00
127, 59643.50, 48449.55, 27870.84, 36777.56, 43227.45, 52542.04, 14617.66, 0.00, 0.11, 0.94, 0.28
128, 59565.23, 48446.82, 27886.57, 36804.00, 43284.46, 52622.96, 14626.98, 0.00, 0.00, 0.00, 0.00
129, 59714.70, 48435.82, 27860.26, 36809.70, 43429.77, 53101.08, 14574.43, 0.00, 0.00, 0.00, 0.00
130, 59849.79, 48432.45, 27817.24, 36729.70, 43391.53, 53151.57, 14538.51, 0.00, 0.00, 0.00, 0.00
131, 59683.22, 48437.19, 27846.21, 36744.01, 43222.24, 52601.54, 14591.78, 0.00, 0.00, 0.00, 0.00
132, 59578.28, 48433.41, 27883.13, 36784.06, 43262.76, 52565.00, 14613.77, 0.00, 0.00, 0.00, 0.00
133, 59677.12, 48427.63, 27868.82, 36757.53, 43390.16, 52978.75, 14565.22, 0.00, 0.00, 0.00, 0.00
134, 59853.95, 48441.04, 27816.23, 36721.21, 43425.62, 53203.90, 14543.12, 0.00, 0.00, 0.00, 0.00
135, 59733.56, 48455.32, 27841.24, 36736.01, 43236.39, 52673.34, 14610.11, 0.00, 0.00, 0.00, 0.00
136, 59604.90, 48442.78, 27878.64, 36781.25, 43259.86, 52537.86, 14641.00, 0.00, 0.00, 0.00, 0.00
137, 59642.59, 48416.07, 27850.47, 36779.21, 43362.54, 52901.17, 14589.36, 0.00, 0.12, 0.94, 0.28
138, 59840.49, 48417.61, 27798.19, 36722.33, 43420.48, 53245.45, 14508.76, 0.00, 0.00, 0.00, 0.00
139, 59760.23, 48440.21, 27824.48, 36735.31, 43253.80, 52754.50, 14552.97, 0.00, 0.00, 0.00, 0.00
140, 59610.38, 48448.12, 27864.94, 36812.92, 43233.70, 52509.90, 14610.02, 0.00, 0.00, 0.00, 0.00
141, 59638.48, 48438.31, 27862.59, 36791.28, 43351.27, 52823.61, 14597.05, 0.00, 0.00, 0.00, 0.00
142, 59846.70, 48428.20, 27816.83, 36727.07, 43452.21, 53252.22, 14518.71, 0.00, 0.00, 0.00, 0.00
143, 59795.14, 48433.03, 27812.72, 36745.95, 43274.18, 52839.01, 14532.61, 0.00, 0.00, 0.00, 0.00
144, 59630.94, 48453.06, 27865.16, 36771.97, 43214.84, 52490.54, 14599.44, 0.00, 0.00, 0.00, 0.00
145, 59618.16, 48445.19, 27868.29, 36776.48, 43313.12, 52731.99, 14603.15, 0.00, 0.00, 0.00, 0.00
146, 59805.49, 48426.24, 27815.72, 36769.60, 43439.27, 53212.62, 14517.35, 0.00, 0.00, 0.00, 0.00
147, 59837.25, 48438.08, 27787.22, 36754.85, 43295.33, 52944.46, 14527.27, 0.00, 0.12, 0.95, 0.28
148, 59668.74, 48459.92, 27857.96, 36733.57, 43200.27, 52504.38, 14598.04, 0.00, 0.00, 0.00, 0.00
149, 59616.23, 48436.00, 27885.77, 36758.85, 43269.27, 52641.20, 14579.13, 0.00, 0.00, 0.00, 0.00
150, 59774.35, 48413.90, 27809.21, 36731.58, 43423.87, 53124.64, 14491.10, 0.00, 0.00, 0.00, 0.00
151, 59848.83, 48421.81, 27786.44, 36698.41, 43328.79, 53022.67, 14501.79, 0.00, 0.00, 0.00, 0.00
152, 59676.94, 48440.41, 27828.10, 36732.30, 43201.74, 52519.94, 14573.34, 0.00, 0.00, 0.00, 0.00
153, 59598.42, 48441.66, 27863.19, 36773.51, 43261.26, 52587.28, 14593.61, 0.00, 0.00, 0.00, 0.00
154, 59735.66, 48421.54, 27835.21, 36752.46, 43393.36, 53048.87, 14531.81, 0.00, 0.00, 0.00, 0.00
155, 59875.16, 48421.88, 27786.82, 36699.42, 43348.28, 53119.61, 14482.72, 0.00, 0.00, 0.00, 0.00
156, 59708.95, 48439.76, 27826.56, 36728.03, 43181.02, 52572.22, 14556.73, 0.00, 0.11, 0.95, 0.27
157, 59598.46, 48436.27, 27865.92, 36748.21, 43243.89, 52518.37, 14592.49, 0.00, 0.00, 0.00, 0.00
158, 59691.74, 48428.92, 27835.65, 36736.27, 43357.71, 52936.26, 14536.01, 0.00, 0.00, 0.00, 0.00
159, 59877.21, 48430.71, 27782.21, 36701.07, 43373.96, 53178.96, 14472.96, 0.00, 0.00, 0.00, 0.00
160, 59761.14, 48453.73, 27819.00, 36729.52, 43215.11, 52643.61, 14550.00, 0.00, 0.00, 0.00, 0.00
161, 59642.97, 48461.17, 27858.79, 36784.49, 43224.65, 52487.77, 14591.73, 0.00, 0.00, 0.00, 0.00
162, 59699.90, 48434.15, 27836.04, 36768.57, 43328.70, 52842.07, 14541.11, 0.00, 0.00, 0.00, 0.00
163, 59885.82, 48422.48, 27794.48, 36682.92, 43384.49, 53195.56, 14469.67, 0.00, 0.00, 0.00, 0.00
164, 59804.66, 48434.17, 27806.75, 36674.56, 43216.36, 52717.10, 14508.85, 0.00, 0.00, 0.00, 0.00
165, 59655.02, 48440.90, 27854.21, 36754.27, 43208.94, 52462.76, 14580.91, 0.00, 0.00, 0.00, 0.00
166, 59677.10, 48418.64, 27839.68, 36721.14, 43300.34, 52750.07, 14551.81, 0.00, 0.12, 0.95, 0.27
167, 59876.16, 48410.97, 27789.05, 36677.98, 43406.04, 53194.20, 14469.65, 0.00, 0.00, 0.00, 0.00
168, 59844.63, 48424.49, 27792.63, 36666.00, 43254.96, 52812.99, 14519.33, 0.00, 0.00, 0.00, 0.00
169, 59683.58, 48443.56, 27840.73, 36717.01, 43192.93, 52455.09, 14579.95, 0.00, 0.00, 0.00, 0.00
170, 59667.82, 48429.23, 27833.80, 36723.67, 43273.33, 52667.08, 14547.61, 0.00, 0.00, 0.00, 0.00
171, 59852.74, 48426.64, 27795.02, 36689.23, 43399.24, 53145.61, 14473.22, 0.00, 0.00, 0.00, 0.00
172, 59880.75, 48446.02, 27769.94, 36665.33, 43265.40, 52904.92, 14493.12, 0.00, 0.00, 0.00, 0.00
173, 59693.48, 48452.48, 27820.43, 36728.52, 43164.93, 52480.44, 14568.46, 0.00, 0.00, 0.00, 0.00
174, 59635.43, 48426.93, 27838.34, 36727.25, 43259.63, 52600.14, 14558.34, 0.00, 0.00, 0.00, 0.00
175, 59810.74, 48427.36, 27806.49, 36699.66, 43385.16, 53085.26, 14485.18, 0.00, 0.00, 0.00, 0.00
176, 59906.20, 48438.84, 27758.88, 36672.53, 43288.02, 53030.83, 14463.39, 0.00, 0.11, 0.96, 0.27
177, 59727.03, 48457.08, 27817.77, 36691.15, 43187.23, 52501.95, 14542.94, 0.00, 0.00, 0.00, 0.00
178, 59641.96, 48437.70, 27845.11, 36722.51, 43244.72, 52529.41, 14541.60, 0.00, 0.00, 0.00, 0.00
179, 59759.51, 48419.60, 27802.62, 36702.30, 43365.38, 52979.09, 14472.11, 0.00, 0.00, 0.00, 0.00
180, 59915.73, 48420.45, 27763.95, 36655.72, 43340.21, 53104.57, 14470.94, 0.00, 0.00, 0.00, 0.00
181, 59771.89, 48429.41, 27811.74, 36687.14, 43174.11, 52552.44, 14538.27, 0.00, 0.00, 0.00, 0.00
182, 59654.77, 48420.89, 27832.53, 36733.41, 43204.16, 52485.00, 14566.61, 0.00, 0.00, 0.00, 0.00
183, 59741.20, 48416.31, 27807.04, 36732.30, 43329.39, 52908.77, 14511.29, 0.00, 0.00, 0.00, 0.00
184, 59931.24, 48418.14, 27753.98, 36633.70, 43358.76, 53162.53, 14436.37, 0.00, 0.00, 0.00, 0.00
185, 59806.72, 48432.38, 27791.13, 36659.74, 43181.00, 52631.16, 14500.22, 0.00, 0.00, 0.00, 0.00
186, 59669.90, 48431.33, 27830.40, 36696.15, 43187.79, 52459.61, 14570.63, 0.00, 0.11, 0.96, 0.27
187, 59724.02, 48429.43, 27806.87, 36697.45, 43305.81, 52805.52, 14541.22, 0.00, 0.00, 0.00, 0.00
188, 59927.73, 48451.50, 27757.96, 36671.79, 43383.75, 53194.16, 14464.51, 0.00, 0.00, 0.00, 0.00
189, 59852.63, 48460.21, 27771.84, 36654.16, 43205.12, 52727.74, 14492.89, 0.00, 0.00, 0.00, 0.00
190, 59677.43, 48434.80, 27798.75, 36698.61, 43158.60, 52444.41, 14555.48, 0.00, 0.00, 0.00, 0.00
191, 59683.22, 48423.44, 27815.05, 36696.82, 43268.53, 52705.72, 14544.01, 0.00, 0.00, 0.00, 0.00
192, 59879.34, 48423.58, 27769.00, 36658.22, 43395.71, 53158.79, 14450.80, 0.00, 0.00, 0.00, 0.00
193, 59868.54, 48439.54, 27761.89, 36645.48, 43229.03, 52811.67, 14464.71, 0.00, 0.00, 0.00, 0.00
194, 59714.61, 48464.05, 27813.73, 36698.64, 43173.36, 52429.97, 14540.88, 0.00, 0.00, 0.00, 0.00
195, 59688.61, 48448.37, 27808.38, 36694.14, 43244.37, 52628.59, 14527.92, 0.00, 0.00, 0.00, 0.00
196, 59863.65, 48423.13, 27764.53, 36653.24, 43371.23, 53124.13, 14449.35, 0.00, 0.10, 0.96, 0.27
197, 59913.40, 48428.83, 27744.53, 36633.05, 43250.04, 52919.96, 14445.46, 0.00, 0.00, 0.00, 0.00
198, 59733.09, 48447.72, 27804.05, 36674.83, 43147.65, 52459.41, 14526.76, 0.00, 0.00, 0.00, 0.00
199, 59671.54, 48445.80, 27823.54, 36684.17, 43219.42, 52565.60, 14536.79, 0.00, 0.00, 0.00, 0.00
200, 59831.15, 48447.36, 27793.25, 36692.98, 43359.75, 53045.85, 14474.23, 0.00, 0.00, 0.00, 0.00
201, 59933.68, 48449.77, 27751.19, 36634.78, 43293.99, 53034.05, 14447.59, 0.00, 0.00, 0.00, 0.00
202, 59750.17, 48451.29, 27786.37, 36657.30, 43148.43, 52506.59, 14507.00, 0.00, 0.00, 0.00, 0.00
203, 59668.41, 48435.02, 27814.58, 36707.00, 43204.87, 52522.33, 14533.28, 0.00, 0.00, 0.00, 0.00
