%OpenBCI Raw EEG Data
%
%Sample Rate = 250.0 Hz
%First Column = SampleIndex
%Other Columns = EEG data in microvolts followed by Accel Data (in G) interleaved with Aux Data
0, 30841.34, -82510.21, 22030.97, -21709.64, 28585.82, 31701.46, 1013.67, 2887.15, -0.01, 0.48, 0.10
1, 29845.03, -83029.48, 20419.05, -21145.26, 27420.96, 31270.56, 857.44, 2314.46, 0.00, 0.00, 0.00
2, 23191.01, -88163.99, 17470.66, -20382.15, 24559.89, 29359.78, 1369.22, 2318.90, 0.00, 0.00, 0.00
3, 23701.61, -87942.84, 18891.52, -20885.51, 25478.91, 29624.93, 1642.43, 2945.62, 0.00, 0.00, 0.00
4, 30063.12, -82967.62, 21734.41, -21639.77, 28238.95, 31469.09, 1120.85, 2941.62, 0.00, 0.00, 0.00
5, 30647.41, -82255.76, 20877.18, -21312.19, 27794.24, 31521.30, 809.33, 2370.98, 0.00, 0.00, 0.00
6, 24118.78, -87246.16, 17751.82, -20468.36, 24804.02, 29611.34, 1246.18, 2245.86, 0.00, 0.00, 0.00
7, 22750.99, -88471.33, 18332.43, -20738.84, 24929.53, 29349.49, 1675.58, 2853.96, -0.02, 0.96, 0.21
8, 28985.05, -83654.87, 21434.52, -21574.73, 27820.46, 31185.87, 1241.71, 2987.13, 0.00, 0.00, 0.00
9, 31096.71, -81765.61, 21300.18, -21438.14, 28114.04, 31688.27, 813.94, 2441.91, 0.00, 0.00, 0.00
10, 25199.96, -86218.55, 18173.40, -20580.79, 25249.96, 29925.92, 1122.66, 2182.16, 0.00, 0.00, 0.00
11, 22055.47, -88801.60, 17818.32, -20620.00, 24545.46, 29160.06, 1639.19, 2694.79, 0.00, 0.00, 0.00
12, 27707.11, -84499.54, 20955.25, -21467.11, 27355.03, 30849.07, 1359.59, 3005.66, 0.00, 0.00, 0.00
13, 31264.63, -81510.59, 21616.71, -21556.04, 28380.30, 31801.68, 849.66, 2554.98, 0.00, 0.00, 0.00
14, 26353.87, -85159.79, 18687.69, -20722.01, 25771.07, 30283.08, 1025.01, 2150.42, 0.00, 0.00, 0.00
15, 21664.58, -88918.37, 17457.18, -20487.36, 24280.01, 29040.03, 1601.44, 2590.68, 0.00, 0.00, 0.00
16, 26331.90, -85431.25, 20415.55, -21344.73, 26794.51, 30457.65, 1454.92, 3029.98, 0.00, 0.00, 0.00
17, 31059.98, -81580.20, 21802.61, -21625.24, 28446.13, 31755.81, 914.48, 2660.51, -0.02, 0.96, 0.21
18, 27457.69, -84180.82, 19291.37, -20854.78, 26290.08, 30606.98, 964.95, 2196.26, 0.00, 0.00, 0.00
19, 21632.78, -88782.55, 17296.88, -20394.74, 24144.11, 29021.12, 1555.19, 2488.11, 0.00, 0.00, 0.00
20, 24973.69, -86355.23, 19840.50, -21171.84, 26191.59, 30091.79, 1571.44, 3001.48, 0.00, 0.00, 0.00
21, 30610.18, -81853.59, 21876.05, -21661.95, 28363.11, 31671.53, 997.98, 2717.26, 0.00, 0.00, 0.00
22, 28487.32, -83281.95, 19900.49, -21046.20, 26763.06, 30933.61, 895.39, 2188.77, 0.00, 0.00, 0.00
23, 21943.24, -88387.09, 17325.17, -20386.67, 24134.96, 29117.46, 1459.14, 2360.25, 0.00, 0.00, 0.00
24, 23633.91, -87255.58, 19274.69, -21009.10, 25589.48, 29736.07, 1635.52, 2959.01, 0.00, 0.00, 0.00
25, 29840.76, -82356.14, 21848.43, -21667.98, 28205.24, 31521.66, 1077.62, 2840.55, 0.00, 0.00, 0.00
26, 29293.17, -82540.99, 20498.58, -21197.23, 27247.92, 31227.35, 845.52, 2274.80, 0.00, 0.00, 0.00
27, 22537.67, -87767.07, 17519.61, -20391.50, 24327.30, 29280.38, 1356.57, 2273.08, -0.02, 0.96, 0.20
28, 22410.37, -88036.12, 18686.06, -20836.79, 25035.32, 29397.06, 1669.30, 2902.96, 0.00, 0.00, 0.00
29, 28771.57, -83079.73, 21623.28, -21613.53, 27890.01, 31232.00, 1166.60, 2922.71, 0.00, 0.00, 0.00
30, 29869.48, -81980.61, 21022.15, -21339.81, 27710.89, 31426.46, 835.44, 2367.94, 0.00, 0.00, 0.00
31, 23491.01, -86861.24, 17904.17, -20480.54, 24763.27, 29556.69, 1229.90, 2237.59, 0.00, 0.00, 0.00
32, 21454.61, -88619.50, 18145.32, -20651.00, 24623.69, 29094.68, 1694.51, 2827.00, 0.00, 0.00, 0.00
33, 27560.57, -83919.60, 21264.69, -21523.14, 27547.74, 30893.75, 1304.43, 3030.65, 0.00, 0.00, 0.00
34, 30214.55, -81615.49, 21425.04, -21469.32, 28112.32, 31575.37, 837.03, 2517.61, 0.00, 0.00, 0.00
35, 24563.40, -85891.54, 18349.13, -20586.00, 25278.10, 29866.78, 1115.37, 2199.19, 0.00, 0.00, 0.00
36, 20801.02, -88968.08, 17706.38, -20525.65, 24295.99, 28910.48, 1658.10, 2711.96, 0.00, 0.00, 0.00
37, 26230.20, -84839.75, 20825.07, -21413.84, 27061.95, 30551.23, 1375.97, 3039.46, -0.00, 0.96, 0.20
38, 30191.91, -81544.44, 21722.56, -21555.98, 28295.14, 31620.92, 836.60, 2585.16, 0.00, 0.00, 0.00
39, 25697.55, -84869.46, 18954.48, -20734.73, 25822.32, 30242.27, 1008.87, 2199.77, 0.00, 0.00, 0.00
40, 20565.57, -88963.52, 17454.32, -20414.72, 24110.51, 28888.71, 1643.93, 2600.98, 0.00, 0.00, 0.00
41, 24899.04, -85725.77, 20290.27, -21248.75, 26555.41, 30231.54, 1529.11, 3055.77, 0.00, 0.00, 0.00
42, 30009.56, -81571.66, 21882.49, -21597.86, 28421.05, 31652.62, 953.03, 2701.05, 0.00, 0.00, 0.00
43, 26870.57, -83802.37, 19520.52, -20883.95, 26416.50, 30637.56, 954.35, 2230.26, 0.00, 0.00, 0.00
44, 20780.39, -88592.12, 17334.87, -20371.67, 24106.02, 28990.84, 1517.30, 2491.28, 0.00, 0.00, 0.00
45, 23620.09, -86536.07, 19665.89, -21107.33, 26013.50, 29936.05, 1558.99, 3011.63, 0.00, 0.00, 0.00
46, 29582.13, -81763.53, 21889.24, -21653.39, 28409.04, 31644.57, 984.21, 2798.77, 0.00, 0.00, 0.00
47, 28025.69, -82732.07, 20124.88, -21068.02, 27047.62, 31096.01, 852.47, 2288.13, 0.01, 0.95, 0.19
48, 21412.10, -87883.88, 17404.19, -20351.98, 24331.44, 29252.40, 1402.66, 2404.22, 0.00, 0.00, 0.00
49, 22547.88, -87164.54, 19074.38, -20918.71, 25579.09, 29725.32, 1614.40, 2984.54, 0.00, 0.00, 0.00
50, 28887.75, -82156.23, 21751.20, -21632.29, 28301.17, 31553.98, 1056.25, 2886.24, 0.00, 0.00, 0.00
51, 28955.05, -81869.32, 20656.21, -21233.24, 27623.25, 31454.69, 794.87, 2336.23, 0.00, 0.00, 0.00
52, 22354.54, -87014.16, 17619.23, -20392.08, 24693.40, 29561.84, 1293.94, 2311.80, 0.00, 0.00, 0.00
53, 21695.99, -87765.89, 18481.92, -20746.62, 25146.67, 29516.26, 1672.49, 2930.07, 0.00, 0.00, 0.00
54, 28121.69, -82834.98, 21469.88, -21562.79, 28015.85, 31376.73, 1193.96, 2981.25, 0.00, 0.00, 0.00
55, 29766.85, -81398.16, 21069.92, -21337.67, 27999.22, 31700.43, 813.09, 2438.33, 0.00, 0.00, 0.00
56, 23643.94, -86142.55, 17956.27, -20476.92, 25035.72, 29892.87, 1176.22, 2253.30, 0.00, 0.00, 0.00
57, 21069.27, -88313.02, 17917.38, -20575.07, 24604.20, 29305.44, 1659.24, 2800.47, 0.02, 0.95, 0.19
58, 26905.31, -83774.70, 21008.34, -21437.87, 27405.25, 31031.46, 1305.63, 3010.04, 0.00, 0.00, 0.00
59, 29852.88, -81152.05, 21378.64, -21442.56, 28138.25, 31799.40, 839.51, 2545.17, 0.00, 0.00, 0.00
60, 24420.84, -85113.27, 18401.34, -20590.92, 25439.26, 30213.52, 1070.27, 2255.25, 0.00, 0.00, 0.00
61, 20042.65, -88524.64, 17461.38, -20431.64, 24236.93, 29126.74, 1626.38, 2704.40, 0.00, 0.00, 0.00
62, 25001.90, -84706.94, 20465.46, -21307.96, 26919.75, 30631.39, 1408.70, 3032.08, 0.00, 0.00, 0.00
63, 29301.30, -81156.88, 21590.42, -21534.77, 28386.36, 31793.81, 861.17, 2648.44, 0.00, 0.00, 0.00
64, 25198.19, -84189.16, 18943.04, -20751.72, 26101.05, 30538.09, 968.88, 2268.23, 0.00, 0.00, 0.00
65, 19653.64, -88634.77, 17201.19, -20347.84, 24206.58, 29083.42, 1560.33, 2609.99, 0.00, 0.00, 0.00
66, 23438.35, -85891.36, 19881.52, -21152.75, 26428.52, 30243.27, 1506.53, 3037.89, 0.00, 0.00, 0.00
67, 28766.76, -81636.97, 21697.35, -21566.53, 28424.00, 31709.26, 944.65, 2749.80, 0.03, 0.98, 0.19
68, 26062.60, -83561.50, 19527.15, -20893.76, 26629.29, 30835.35, 907.73, 2301.29, 0.00, 0.00, 0.00
69, 19638.67, -88634.97, 17119.40, -20301.78, 24169.21, 29100.63, 1482.73, 2524.34, 0.00, 0.00, 0.00
70, 21825.45, -87134.20, 19242.01, -20972.57, 25812.75, 29838.97, 1613.55, 3034.70, 0.00, 0.00, 0.00
71, 27856.84, -82380.28, 21630.97, -21569.41, 28241.88, 31510.77, 1034.24, 2840.59, 0.00, 0.00, 0.00
72, 26783.71, -83013.55, 20083.62, -21059.05, 27120.58, 31104.66, 855.74, 2331.94, 0.00, 0.00, 0.00
73, 20104.57, -88231.32, 17244.71, -20324.20, 24368.47, 29284.29, 1396.47, 2411.35, 0.00, 0.00, 0.00
74, 20598.32, -88057.06, 18654.01, -20803.80, 25306.40, 29553.32, 1650.70, 2967.82, 0.00, 0.00, 0.00
75, 26984.01, -83074.55, 21469.61, -21550.50, 28029.71, 31354.94, 1119.96, 2917.60, 0.00, 0.00, 0.00
76, 27566.58, -82386.76, 20613.63, -21215.11, 27599.46, 31424.47, 848.72, 2391.88, 0.00, 0.00, 0.00
77, 21043.50, -87401.33, 17541.11, -20380.14, 24743.13, 29613.18, 1280.84, 2306.43, 0.03, 0.98, 0.19
78, 19694.50, -88615.55, 18104.62, -20648.34, 24925.88, 29393.68, 1682.33, 2877.25, 0.00, 0.00, 0.00
79, 25947.69, -83787.95, 21152.10, -21471.17, 27759.55, 31161.88, 1258.87, 2959.80, 0.00, 0.00, 0.00
80, 28084.27, -81899.49, 21048.84, -21352.20, 28083.71, 31672.40, 835.58, 2463.56, 0.00, 0.00, 0.00
81, 22233.75, -86341.92, 17988.30, -20509.09, 25365.81, 30033.84, 1147.14, 2288.57, 0.00, 0.00, 0.00
82, 19135.64, -88900.87, 17651.64, -20522.88, 24763.59, 29335.72, 1654.16, 2798.24, 0.00, 0.00, 0.00
83, 24834.89, -84565.85, 20754.29, -21381.39, 27515.53, 30959.24, 1323.13, 3009.89, 0.00, 0.00, 0.00
84, 28388.86, -81597.59, 21414.74, -21462.50, 28496.04, 31863.77, 836.02, 2544.99, 0.00, 0.00, 0.00
85, 23522.15, -85215.77, 18561.80, -20645.59, 26010.79, 30466.99, 1019.71, 2237.25, 0.00, 0.00, 0.00
86, 18836.64, -88967.00, 17341.91, -20394.76, 24601.29, 29301.37, 1594.95, 2675.53, 0.00, 0.00, 0.00
87, 23577.29, -85412.05, 20270.10, -21247.37, 27052.05, 30684.61, 1434.71, 3031.79, 0.01, 0.97, 0.19
88, 28342.59, -81545.33, 21628.64, -21529.94, 28623.06, 31929.60, 880.37, 2638.82, 0.00, 0.00, 0.00
89, 24695.41, -84204.27, 19112.39, -20768.28, 26521.04, 30828.62, 958.51, 2265.48, 0.00, 0.00, 0.00
90, 18835.97, -88837.36, 17128.92, -20298.27, 24462.15, 29326.00, 1570.90, 2599.35, 0.00, 0.00, 0.00
91, 22306.79, -86298.00, 19686.72, -21064.10, 26499.65, 30383.15, 1564.76, 3038.97, 0.00, 0.00, 0.00
92, 28061.54, -81704.19, 21708.71, -21549.54, 28614.90, 31921.44, 977.91, 2751.19, 0.00, 0.00, 0.00
93, 25895.75, -83183.80, 19693.41, -20938.26, 27035.06, 31223.06, 880.32, 2303.82, 0.00, 0.00, 0.00
94, 19262.33, -88371.66, 17090.75, -20288.32, 24499.43, 29482.15, 1430.80, 2484.11, 0.00, 0.00, 0.00
95, 21132.14, -87071.35, 19069.37, -20928.32, 26008.13, 30123.91, 1577.18, 2999.25, 0.00, 0.00, 0.00
96, 27609.01, -81944.64, 21671.67, -21589.75, 28594.94, 31880.36, 1006.03, 2831.94, 0.00, 0.00, 0.00
97, 27021.27, -82182.27, 20288.39, -21107.96, 27632.66, 31592.96, 801.94, 2316.85, -0.01, 0.97, 0.19
98, 20032.71, -87615.41, 17243.72, -20294.51, 24751.67, 29701.53, 1325.48, 2383.05, 0.00, 0.00, 0.00
99, 20062.66, -87738.80, 18472.29, -20756.63, 25566.68, 29870.98, 1643.95, 2987.04, 0.00, 0.00, 0.00
100, 26831.90, -82413.18, 21497.93, -21557.97, 28431.06, 31744.35, 1118.91, 2954.30, 0.00, 0.00, 0.00
101, 27828.30, -81406.59, 20804.89, -21235.68, 28096.39, 31865.05, 766.46, 2419.80, 0.00, 0.00, 0.00
102, 21083.68, -86601.30, 17583.09, -20362.80, 25094.39, 30001.31, 1189.18, 2327.04, 0.00, 0.00, 0.00
103, 19179.83, -88217.95, 17917.85, -20572.32, 25073.38, 29646.82, 1690.48, 2891.62, 0.00, 0.00, 0.00
104, 25831.55, -83037.38, 21178.23, -21483.87, 28037.54, 31498.05, 1228.59, 2975.33, 0.00, 0.00, 0.00
105, 28540.18, -80702.89, 21263.82, -21406.76, 28447.60, 32110.74, 758.91, 2466.20, 0.00, 0.00, 0.00
106, 22526.85, -85291.33, 18062.98, -20509.92, 25517.62, 30397.19, 1056.25, 2250.28, 0.00, 0.00, 0.00
107, 18773.47, -88334.18, 17446.88, -20463.22, 24661.82, 29526.61, 1616.43, 2775.62, -0.03, 0.95, 0.19
108, 24765.87, -83698.54, 20714.05, -21356.44, 27574.54, 31231.33, 1339.38, 3055.24, 0.00, 0.00, 0.00
109, 28997.05, -80184.53, 21601.42, -21523.77, 28745.59, 32288.28, 789.40, 2581.31, 0.00, 0.00, 0.00
110, 24127.10, -83848.61, 18634.67, -20675.12, 26138.08, 30856.98, 932.38, 2229.97, 0.00, 0.00, 0.00
111, 18749.78, -88148.10, 17097.90, -20351.13, 24492.01, 29519.93, 1560.87, 2684.85, 0.00, 0.00, 0.00
112, 23599.35, -84454.03, 20130.90, -21230.67, 27108.60, 30932.82, 1449.94, 3093.24, 0.00, 0.00, 0.00
113, 29044.41, -80027.98, 21767.78, -21589.35, 28923.20, 32338.64, 853.52, 2698.55, 0.00, 0.00, 0.00
114, 25554.82, -82587.30, 19239.60, -20806.25, 26778.24, 31257.64, 878.18, 2254.35, 0.00, 0.00, 0.00
115, 19031.73, -87756.92, 16951.96, -20261.83, 24479.16, 29574.11, 1513.53, 2583.57, 0.00, 0.00, 0.00
116, 22328.63, -85297.96, 19517.45, -21059.10, 26574.19, 30611.85, 1541.58, 3112.23, 0.00, 0.00, 0.00
117, 28751.41, -80147.27, 21840.87, -21609.60, 28940.75, 32304.73, 927.33, 2838.92, -0.03, 0.96, 0.20
118, 26892.59, -81402.30, 19902.84, -20986.14, 27378.63, 31649.71, 804.89, 2327.35, 0.00, 0.00, 0.00
119, 19806.86, -86954.70, 17056.84, -20255.15, 24627.84, 29781.87, 1394.06, 2482.05, 0.00, 0.00, 0.00
120, 21291.00, -85911.52, 18894.00, -20881.09, 26045.73, 30346.31, 1606.29, 3057.58, 0.00, 0.00, 0.00
121, 28232.11, -80391.33, 21713.96, -21596.12, 28791.71, 32201.73, 1021.52, 2913.68, 0.00, 0.00, 0.00
122, 28164.27, -80223.13, 20485.89, -21157.18, 27946.21, 32024.57, 756.25, 2382.61, 0.00, 0.00, 0.00
123, 21040.34, -85763.04, 17292.58, -20307.92, 24931.80, 30088.38, 1254.98, 2382.56, 0.00, 0.00, 0.00
124, 20498.98, -86316.40, 18277.49, -20698.97, 25511.68, 30094.88, 1627.18, 2961.54, 0.00, 0.00, 0.00
125, 27527.65, -80775.40, 21469.99, -21550.57, 28472.59, 32004.10, 1124.87, 2963.68, 0.00, 0.00, 0.00
126, 29219.85, -79210.73, 21030.09, -21321.26, 28374.82, 32326.23, 738.66, 2431.67, 0.00, 0.00, 0.00
127, 22569.63, -84328.84, 17721.27, -20411.59, 25346.59, 30475.84, 1123.98, 2304.04, -0.02, 0.96, 0.21
128, 20031.43, -86433.05, 17746.70, -20536.42, 25075.57, 29940.92, 1637.89, 2883.53, 0.00, 0.00, 0.00
129, 26650.70, -81272.15, 21070.86, -21453.90, 28056.11, 31742.14, 1250.83, 3021.80, 0.00, 0.00, 0.00
130, 29973.15, -78442.91, 21431.01, -21439.64, 28715.33, 32501.58, 764.90, 2511.80, 0.00, 0.00, 0.00
131, 24274.80, -82771.19, 18268.95, -20541.65, 25879.47, 30851.62, 1030.28, 2260.32, 0.00, 0.00, 0.00
132, 19943.52, -86266.87, 17338.45, -20408.01, 24725.88, 29774.78, 1593.63, 2759.05, 0.00, 0.00, 0.00
133, 25709.27, -81843.44, 20573.80, -21340.28, 27490.21, 31317.79, 1336.37, 3049.29, 0.00, 0.00, 0.00
134, 30462.16, -77938.50, 21745.90, -21552.83, 28901.41, 32451.69, 770.49, 2594.79, 0.00, 0.00, 0.00
135, 26032.05, -81236.90, 18927.12, -20712.00, 26453.09, 31136.47, 896.91, 2205.58, 0.00, 0.00, 0.00
136, 20246.16, -85843.64, 17119.78, -20301.51, 24454.60, 29698.29, 1526.18, 2600.54, 0.00, 0.00, 0.00
137, 24667.70, -82487.86, 20011.27, -21175.77, 26742.70, 30988.12, 1438.83, 3045.40, -0.02, 0.96, 0.20
138, 30541.18, -77723.49, 21903.10, -21606.22, 28663.63, 32489.87, 832.65, 2717.10, 0.00, 0.00, 0.00
139, 27617.26, -79794.25, 19572.48, -20878.03, 26721.49, 31571.66, 827.33, 2268.21, 0.00, 0.00, 0.00
140, 20828.23, -85130.57, 17040.66, -20246.37, 24293.30, 29821.67, 1452.04, 2526.78, 0.00, 0.00, 0.00
141, 23527.42, -83150.72, 19338.71, -20982.34, 26174.70, 30649.31, 1547.88, 3042.92, 0.00, 0.00, 0.00
142, 30196.45, -77838.18, 21845.92, -21608.79, 28727.18, 32371.20, 960.39, 2850.65, 0.00, 0.00, 0.00
143, 28973.63, -78600.04, 20142.79, -21051.16, 27487.26, 31873.83, 769.64, 2330.64, 0.00, 0.00, 0.00
144, 21777.15, -84226.42, 17135.21, -20279.65, 24662.20, 29980.80, 1313.59, 2417.01, 0.00, 0.00, 0.00
145, 22501.54, -83798.95, 18673.14, -20809.56, 25737.16, 30293.86, 1621.28, 2980.54, 0.00, 0.00, 0.00
146, 29460.16, -78303.99, 21634.57, -21570.75, 28498.16, 32097.51, 1066.42, 2885.61, 0.00, 0.00, 0.00
147, 29988.96, -77668.66, 20678.51, -21208.27, 27894.60, 32082.20, 748.69, 2354.38, -0.02, 0.96, 0.21
148, 22911.32, -83151.44, 17403.60, -20329.38, 24856.44, 30180.06, 1212.72, 2327.00, 0.00, 0.00, 0.00
149, 21571.02, -84334.18, 18048.27, -20622.66, 25096.81, 29970.65, 1639.95, 2918.11, 0.00, 0.00, 0.00
150, 28420.49, -78978.75, 21305.35, -21502.00, 28011.45, 31792.99, 1170.85, 2973.47, 0.00, 0.00, 0.00
151, 30589.12, -77074.80, 21129.57, -21336.71, 28156.47, 32208.59, 742.21, 2464.88, 0.00, 0.00, 0.00
152, 24143.86, -82030.27, 17853.59, -20435.91, 25199.65, 30426.29, 1083.84, 2271.23, 0.00, 0.00, 0.00
153, 20877.27, -84707.01, 17549.40, -20471.72, 24593.69, 29717.11, 1626.74, 2795.38, 0.00, 0.00, 0.00
154, 27156.23, -79845.37, 20868.97, -21392.32, 27446.62, 31421.90, 1294.79, 3015.72, 0.00, 0.00, 0.00
155, 30918.18, -76694.48, 21499.40, -21470.39, 28339.42, 32308.13, 763.18, 2542.09, 0.00, 0.00, 0.00
156, 25597.51, -80715.08, 18430.42, -20593.38, 25689.87, 30812.28, 977.40, 2255.25, 0.00, 0.00, 0.00
157, 20633.03, -84698.16, 17164.93, -20353.43, 24325.47, 29633.56, 1587.82, 2731.96, -0.02, 0.95, 0.21
158, 25891.86, -80682.55, 20291.00, -21280.34, 26969.41, 31106.14, 1361.29, 3066.79, 0.00, 0.00, 0.00
159, 30988.08, -76517.80, 21692.46, -21593.60, 28578.47, 32383.99, 755.62, 2640.88, 0.00, 0.00, 0.00
160, 27091.56, -79384.41, 19043.37, -20787.86, 26402.86, 31250.51, 856.54, 2235.22, 0.00, 0.00, 0.00
161, 20825.86, -84346.41, 16951.36, -20287.05, 24350.06, 29705.22, 1493.41, 2543.25, 0.00, 0.00, 0.00
162, 24602.99, -81524.63, 19654.96, -21093.14, 26535.59, 30809.55, 1488.67, 3024.03, 0.00, 0.00, 0.00
163, 30692.21, -76635.68, 21764.99, -21592.88, 28668.88, 32363.83, 893.27, 2749.09, 0.00, 0.00, 0.00
164, 28332.98, -78283.34, 19654.13, -20941.77, 26999.45, 31608.70, 816.42, 2291.08, 0.00, 0.00, 0.00
165, 21362.57, -83754.62, 16956.28, -20262.68, 24440.09, 29850.51, 1405.95, 2504.18, 0.00, 0.00, 0.00
166, 23308.35, -82379.72, 18992.57, -20923.62, 25936.83, 30498.69, 1564.91, 3021.96, 0.00, 0.00, 0.00
167, 30053.10, -77035.33, 21686.64, -21600.19, 28469.55, 32236.98, 980.88, 2826.91, -0.03, 0.95, 0.21
168, 29407.56, -77322.46, 20264.74, -21106.46, 27448.88, 31937.24, 760.94, 2310.48, 0.00, 0.00, 0.00
169, 22263.81, -82881.02, 17184.87, -20301.02, 24607.48, 30076.30, 1278.50, 2359.99, 0.00, 0.00, 0.00
170, 22241.21, -83043.92, 18400.78, -20765.64, 25369.10, 30218.95, 1582.64, 2913.75, 0.00, 0.00, 0.00
171, 29122.38, -77647.32, 21472.25, -21558.12, 28153.41, 32021.69, 1088.08, 2923.81, 0.00, 0.00, 0.00
172, 30246.47, -76545.54, 20817.97, -21270.52, 27878.79, 32191.79, 762.37, 2437.57, 0.00, 0.00, 0.00
173, 23498.63, -81724.68, 17576.47, -20416.55, 24997.52, 30421.82, 1142.51, 2348.54, 0.00, 0.00, 0.00
174, 21495.09, -83416.35, 17873.93, -20607.71, 24954.34, 30048.21, 1602.80, 2887.42, 0.00, 0.00, 0.00
175, 28046.43, -78337.23, 21115.56, -21470.57, 27772.91, 31770.72, 1209.48, 2986.48, 0.00, 0.00, 0.00
176, 30780.32, -75988.33, 21244.93, -21409.75, 28225.89, 32375.32, 745.54, 2510.35, 0.00, 0.00, 0.00
177, 24843.02, -80497.15, 18083.41, -20520.33, 25518.18, 30759.46, 1037.52, 2308.56, -0.03, 0.96, 0.21
178, 21004.56, -83595.19, 17430.65, -20455.24, 24697.56, 29906.28, 1584.47, 2805.99, 0.00, 0.00, 0.00
179, 26768.13, -79182.08, 20620.89, -21342.09, 27383.32, 31446.71, 1314.55, 3041.69, 0.00, 0.00, 0.00
180, 30940.45, -75740.94, 21542.92, -21512.68, 28500.62, 32436.81, 770.53, 2587.86, 0.00, 0.00, 0.00
181, 26199.78, -79278.77, 18676.47, -20674.40, 26101.36, 31104.20, 924.04, 2256.52, 0.00, 0.00, 0.00
182, 20887.91, -83494.20, 17152.59, -20362.82, 24525.81, 29850.44, 1510.55, 2667.73, 0.00, 0.00, 0.00
183, 25525.42, -79983.91, 20099.49, -21217.59, 26882.76, 31154.38, 1385.90, 3053.00, 0.00, 0.00, 0.00
184, 30887.16, -75651.98, 21748.67, -21552.76, 28588.84, 32477.06, 838.35, 2702.57, 0.00, 0.00, 0.00
185, 27581.85, -78045.83, 19313.47, -20810.05, 26625.89, 31479.73, 880.12, 2307.82, 0.00, 0.00, 0.00
186, 21230.42, -83025.46, 17054.22, -20282.08, 24470.67, 29931.64, 1461.60, 2602.10, 0.00, 0.00, 0.00
187, 24307.59, -80754.34, 19476.66, -21022.44, 26340.46, 30842.57, 1494.75, 3078.13, -0.02, 0.96, 0.22
188, 30546.27, -75779.70, 21748.52, -21580.59, 28544.36, 32423.75, 904.55, 2834.67, 0.00, 0.00, 0.00
189, 28865.18, -76884.09, 19906.22, -20978.65, 27145.23, 31835.57, 796.68, 2349.73, 0.00, 0.00, 0.00
190, 21962.22, -82249.30, 17085.63, -20280.43, 24570.89, 30100.67, 1347.61, 2496.98, 0.00, 0.00, 0.00
191, 23205.49, -81412.80, 18801.82, -20847.74, 25807.10, 30563.97, 1555.41, 3017.22, 0.00, 0.00, 0.00
192, 29880.01, -76159.01, 21574.60, -21548.00, 28363.11, 32271.65, 1017.92, 2885.14, 0.00, 0.00, 0.00
193, 29926.77, -75899.68, 20443.31, -21153.02, 27663.48, 32162.35, 758.62, 2393.92, 0.00, 0.00, 0.00
194, 23033.31, -81212.89, 17318.11, -20337.00, 24899.13, 30382.59, 1218.35, 2397.09, 0.00, 0.00, 0.00
195, 22338.42, -81879.45, 18201.63, -20701.83, 25410.69, 30360.08, 1552.57, 2955.30, 0.00, 0.00, 0.00
196, 29038.89, -76657.25, 21311.29, -21510.02, 28164.63, 32099.58, 1081.96, 2966.95, 0.00, 0.00, 0.00
197, 30731.55, -75119.67, 20942.06, -21285.10, 28141.05, 32409.78, 727.75, 2457.37, -0.02, 0.96, 0.22
198, 24320.75, -80014.82, 17726.03, -20414.72, 25364.38, 30700.12, 1101.70, 2332.92, 0.00, 0.00, 0.00
199, 21691.79, -82173.77, 17675.18, -20522.57, 25064.55, 30176.17, 1610.17, 2879.42, 0.00, 0.00, 0.00
200, 27969.14, -77330.64, 20898.19, -21411.65, 27781.79, 31840.01, 1231.22, 3009.64, 0.00, 0.00, 0.00
201, 31211.19, -74600.09, 21308.63, -21408.08, 28441.95, 32573.60, 749.92, 2533.55, 0.00, 0.00, 0.00
202, 25761.75, -78698.39, 18259.45, -20554.64, 25869.89, 31092.57, 983.48, 2305.90, 0.00, 0.00, 0.00
203, 21420.55, -82164.49, 17286.10, -20404.13, 24772.97, 30110.79, 1531.83, 2745.64, 0.00, 0.00, 0.00
204, 26766.19, -78097.57, 20395.25, -21273.32, 27274.49, 31541.57, 1334.69, 3033.11, 0.00, 0.00, 0.00
205, 31338.06, -74366.69, 21565.39, -21495.87, 28569.80, 32626.95, 793.84, 2658.25, 0.00, 0.00, 0.00
206, 27153.19, -77445.30, 18855.10, -20703.24, 26354.40, 31447.00, 902.18, 2325.72, 0.00, 0.00, 0.00
207, 21473.79, -81917.04, 17053.02, -20293.10, 24591.66, 30096.67, 1503.27, 2688.60, -0.02, 0.96, 0.22
208, 25498.47, -78908.90, 19793.99, -21105.41, 26714.20, 31216.85, 1433.84, 3077.19, 0.00, 0.00, 0.00
209, 31133.72, -74384.66, 21654.79, -21545.61, 28562.69, 32617.90, 841.86, 2758.56, 0.00, 0.00, 0.00
210, 28477.69, -76239.41, 19449.41, -20874.32, 26879.09, 31823.92, 821.74, 2340.21, 0.00, 0.00, 0.00
211, 21951.71, -81318.37, 16975.99, -20271.49, 24626.59, 30232.99, 1394.61, 2557.17, 0.00, 0.00, 0.00
212, 24323.97, -79615.99, 19148.38, -20941.51, 26212.58, 30944.09, 1515.31, 3032.62, 0.00, 0.00, 0.00
213, 30612.75, -74646.35, 21588.16, -21543.30, 28477.55, 32520.83, 952.90, 2840.30, 0.00, 0.00, 0.00
214, 29561.88, -75242.70, 20003.31, -21038.27, 27386.52, 32127.35, 769.55, 2384.01, 0.00, 0.00, 0.00
215, 22699.18, -80542.59, 17077.31, -20287.52, 24817.37, 30406.35, 1293.03, 2477.80, 0.00, 0.00, 0.00
216, 23216.98, -80279.91, 18506.60, -20782.29, 25736.40, 30687.78, 1553.42, 2984.32, 0.00, 0.00, 0.00
217, 29816.85, -75128.84, 21397.26, -21510.16, 28271.22, 32367.02, 1042.87, 2900.41, -0.02, 0.95, 0.21
218, 30419.36, -74438.26, 20528.80, -21181.23, 27817.21, 32399.03, 748.20, 2412.89, 0.00, 0.00, 0.00
219, 23763.39, -79527.13, 17395.56, -20362.60, 25117.44, 30693.71, 1156.95, 2366.74, 0.00, 0.00, 0.00
220, 22351.25, -80757.61, 17934.44, -20625.05, 25275.71, 30467.91, 1559.48, 2880.25, 0.00, 0.00, 0.00
221, 28780.64, -75799.26, 21072.24, -21441.51, 27890.93, 32105.98, 1157.91, 2915.94, 0.00, 0.00, 0.00
222, 30964.85, -73894.95, 20981.34, -21297.68, 28104.93, 32536.34, 758.80, 2451.36, 0.00, 0.00, 0.00
223, 24965.02, -78432.31, 17860.81, -20455.11, 25496.48, 30960.92, 1067.14, 2294.70, 0.00, 0.00, 0.00
224, 21758.91, -81029.36, 17492.70, -20474.38, 24916.05, 30298.24, 1568.60, 2801.03, 0.00, 0.00, 0.00
225, 27631.38, -76550.09, 20671.25, -21347.46, 27462.51, 31835.39, 1266.20, 2995.65, 0.00, 0.00, 0.00
226, 31287.72, -73522.73, 21330.47, -21426.38, 28335.15, 32670.56, 751.76, 2560.57, 0.00, 0.00, 0.00
227, 26323.78, -77214.75, 18400.18, -20609.65, 25979.74, 31326.37, 946.57, 2291.21, 0.00, 0.00, 0.00
228, 21537.94, -81009.18, 17138.60, -20356.11, 24684.86, 30231.13, 1535.25, 2691.44, -0.02, 0.95, 0.21
229, 26356.91, -77393.98, 20120.99, -21191.89, 26985.04, 31510.91, 1377.56, 2994.98, 0.00, 0.00, 0.00
230, 31261.10, -73437.16, 21545.63, -21484.18, 28464.23, 32683.03, 837.36, 2628.52, 0.00, 0.00, 0.00
231, 27660.10, -76038.04, 19022.07, -20765.17, 26517.91, 31675.66, 879.74, 2269.17, 0.00, 0.00, 0.00
232, 21725.43, -80677.99, 16985.63, -20302.67, 24619.24, 30276.09, 1444.73, 2582.77, 0.00, 0.00, 0.00
233, 25105.95, -78210.83, 19523.42, -21030.51, 26469.58, 31199.59, 1460.87, 2993.30, 0.00, 0.00, 0.00
234, 30910.38, -73610.69, 21613.04, -21508.28, 28410.92, 32612.18, 915.66, 2733.08, 0.00, 0.00, 0.00
235, 28807.80, -75036.05, 19624.94, -20899.46, 26960.00, 31949.94, 826.25, 2313.38, 0.00, 0.00, 0.00
236, 22181.54, -80175.28, 16990.03, -20250.28, 24629.86, 30326.58, 1367.06, 2511.49, 0.00, 0.00, 0.00
237, 23878.10, -79026.80, 18905.24, -20854.85, 25917.21, 30853.43, 1537.20, 3004.48, 0.00, 0.00, 0.00
238, 30216.61, -74081.55, 21515.30, -21494.58, 28206.36, 32404.73, 1005.07, 2819.76, -0.02, 0.96, 0.21
239, 29765.91, -74216.04, 20202.11, -21069.33, 27379.12, 32167.49, 771.02, 2335.38, 0.00, 0.00, 0.00
240, 23014.72, -79401.75, 17191.04, -20291.81, 24821.83, 30477.90, 1247.14, 2400.76, 0.00, 0.00, 0.00
241, 22834.14, -79704.17, 18297.76, -20685.94, 25430.09, 30548.98, 1574.26, 2929.49, 0.00, 0.00, 0.00
242, 29305.51, -74712.24, 21263.28, -21450.23, 27915.25, 32159.13, 1102.68, 2890.15, 0.00, 0.00, 0.00
243, 30472.54, -73594.32, 20659.11, -21209.10, 27730.06, 32333.05, 749.32, 2402.07, 0.00, 0.00, 0.00
244, 24110.92, -78420.31, 17513.28, -20389.53, 25152.71, 30724.19, 1113.99, 2337.14, 0.00, 0.00, 0.00
245, 22054.04, -80158.63, 17708.50, -20545.34, 25029.77, 30327.58, 1557.51, 2863.84, 0.00, 0.00, 0.00
246, 28220.95, -75463.64, 20843.67, -21386.51, 27533.53, 31876.02, 1169.42, 2957.94, 0.00, 0.00, 0.00
247, 30936.80, -73167.45, 21030.46, -21330.98, 28001.91, 32447.76, 746.95, 2504.85, 0.00, 0.00, 0.00
248, 25364.56, -77343.20, 17981.82, -20490.78, 25570.86, 30996.24, 1029.77, 2316.47, -0.02, 0.96, 0.21
249, 21602.07, -80364.40, 17276.18, -20417.63, 24736.81, 30181.80, 1560.20, 2807.36, 0.00, 0.00, 0.00
250, 27024.80, -76291.48, 20370.13, -21263.53, 27097.53, 31567.17, 1308.69, 3034.34, 0.00, 0.00, 0.00
251, 31118.19, -72955.22, 21333.42, -21438.36, 28180.99, 32516.29, 794.69, 2616.12, 0.00, 0.00, 0.00
252, 26683.36, -76213.68, 18556.44, -20656.30, 26033.25, 31315.42, 907.44, 2294.99, 0.00, 0.00, 0.00
253, 21493.73, -80302.30, 16994.54, -20333.61, 24552.16, 30122.13, 1467.93, 2688.60, 0.00, 0.00, 0.00
254, 25774.94, -77143.78, 19807.38, -21141.93, 26622.09, 31254.18, 1364.78, 3056.51, 0.00, 0.00, 0.00
255, 30938.93, -73032.94, 21452.58, -21482.39, 28213.91, 32469.44, 856.14, 2730.44, 0.00, 0.00, 0.00
0, 27927.30, -75163.98, 19141.21, -20811.17, 26526.31, 31616.92, 862.08, 2353.88, 0.00, 0.00, 0.00
1, 21744.74, -79971.12, 16873.38, -20270.13, 24528.11, 30155.10, 1432.43, 2621.75, 0.00, 0.00, 0.00
2, 24503.84, -78013.53, 19191.81, -20954.02, 26128.14, 30912.06, 1498.33, 3041.18, -0.02, 0.96, 0.21
3, 30443.99, -73352.59, 21441.31, -21500.34, 28156.83, 32347.02, 937.07, 2797.68, 0.00, 0.00, 0.00
4, 28983.08, -74268.48, 19703.35, -20965.94, 27006.74, 31872.31, 794.69, 2370.92, 0.00, 0.00, 0.00
5, 22353.29, -79372.20, 16939.13, -20275.22, 24670.80, 30270.05, 1313.37, 2522.91, 0.00, 0.00, 0.00
6, 23349.46, -78778.66, 18553.98, -20799.30, 25663.94, 30614.02, 1530.11, 3002.91, 0.00, 0.00, 0.00
7, 29655.64, -73907.91, 21259.41, -21462.84, 27952.42, 32127.97, 1038.71, 2891.51, 0.00, 0.00, 0.00
8, 29786.13, -73597.32, 20202.51, -21098.50, 27390.01, 32040.40, 780.05, 2452.75, 0.00, 0.00, 0.00
9, 23208.44, -78612.55, 17163.88, -20317.98, 24887.44, 30428.75, 1206.35, 2493.74, 0.00, 0.00, 0.00
10, 22325.17, -79468.80, 17941.37, -20618.25, 25183.29, 30311.33, 1562.03, 3009.06, 0.00, 0.00, 0.00
11, 28586.05, -74702.14, 20957.53, -21394.89, 27579.26, 31824.17, 1132.94, 3008.50, 0.00, 0.00, 0.00
12, 30287.87, -73186.91, 20659.38, -21224.48, 27650.74, 32139.93, 763.63, 2555.01, -0.02, 0.96, 0.21
13, 24211.45, -77768.60, 17554.03, -20407.50, 25181.45, 30612.57, 1076.46, 2450.24, 0.00, 0.00, 0.00
14, 21545.94, -79967.52, 17454.19, -20496.86, 24805.94, 30089.92, 1553.36, 2930.38, 0.00, 0.00, 0.00
15, 27372.64, -75584.12, 20568.77, -21309.46, 27199.97, 31534.24, 1259.50, 3053.83, 0.00, 0.00, 0.00
16, 30551.10, -72949.79, 21022.75, -21334.00, 27903.94, 32232.06, 794.74, 2624.05, 0.00, 0.00, 0.00
17, 25418.87, -76757.79, 18083.59, -20528.27, 25661.21, 30907.25, 988.95, 2448.48, 0.00, 0.00, 0.00
18, 21149.82, -80153.17, 17088.15, -20367.71, 24622.10, 29979.68, 1520.50, 2887.44, 0.00, 0.00, 0.00
19, 26118.33, -76466.92, 20088.58, -21190.86, 26828.04, 31246.58, 1354.09, 3127.68, 0.00, 0.00, 0.00
20, 30620.28, -72832.58, 21312.37, -21446.32, 28126.36, 32316.91, 819.59, 2747.21, 0.00, 0.00, 0.00
21, 26727.90, -75643.93, 18703.40, -20697.76, 26221.30, 31281.13, 904.04, 2430.73, 0.00, 0.00, 0.00
22, 21191.00, -79978.20, 16890.38, -20296.66, 24566.22, 30005.72, 1468.15, 2759.03, -0.02, 0.96, 0.21
23, 24891.21, -77303.75, 19519.24, -21055.39, 26393.41, 30964.38, 1433.93, 3110.45, 0.00, 0.00, 0.00
24, 30300.83, -73035.48, 21367.22, -21461.00, 28133.40, 32232.42, 903.14, 2820.43, 0.00, 0.00, 0.00
25, 27869.16, -74698.99, 19281.96, -20844.72, 26692.59, 31541.84, 852.96, 2449.66, 0.00, 0.00, 0.00
26, 21565.45, -79571.34, 16855.58, -20260.09, 24598.79, 30065.73, 1394.32, 2683.64, 0.00, 0.00, 0.00
27, 23680.22, -78137.92, 18917.00, -20886.83, 25913.83, 30651.86, 1513.73, 3122.92, 0.00, 0.00, 0.00
28, 29726.23, -73442.09, 21337.27, -21477.68, 27994.53, 32088.48, 974.71, 2914.13, 0.00, 0.00, 0.00
29, 28859.72, -73888.31, 19868.82, -21006.64, 27095.21, 31775.71, 791.99, 2494.03, 0.00, 0.00, 0.00
30, 22265.76, -78934.34, 16995.51, -20292.41, 24730.53, 30194.95, 1259.83, 2590.68, 0.00, 0.00, 0.00
31, 22601.03, -78865.11, 18321.70, -20734.13, 25461.34, 30372.02, 1529.49, 3057.92, 0.00, 0.00, 0.00
32, 28922.37, -74019.52, 21165.13, -21442.14, 27768.71, 31896.12, 1073.67, 2978.71, -0.01, 0.96, 0.21
33, 29640.89, -73247.34, 20391.90, -21144.35, 27464.04, 31971.13, 779.72, 2532.09, 0.00, 0.00, 0.00
34, 23290.32, -78051.71, 17331.86, -20356.67, 25027.22, 30417.30, 1167.45, 2510.84, 0.00, 0.00, 0.00
35, 21784.93, -79380.36, 17790.27, -20587.12, 25068.96, 30153.17, 1549.13, 2996.34, 0.00, 0.00, 0.00
36, 27899.51, -74759.92, 20838.15, -21374.88, 27434.60, 31622.33, 1146.94, 3035.68, 0.00, 0.00, 0.00
37, 30185.25, -72793.08, 20821.28, -21275.06, 27764.35, 32098.13, 767.94, 2599.80, 0.00, 0.00, 0.00
38, 24516.53, -77021.34, 17780.01, -20466.40, 25428.01, 30689.93, 1060.63, 2458.09, 0.00, 0.00, 0.00
39, 21267.84, -79660.03, 17335.99, -20445.83, 24781.98, 30000.53, 1544.86, 2900.54, 0.00, 0.00, 0.00
40, 26781.97, -75554.50, 20405.67, -21277.68, 27038.44, 31341.28, 1265.35, 3074.68, 0.00, 0.00, 0.00
41, 30443.50, -72559.05, 21135.07, -21391.04, 27947.30, 32162.95, 784.32, 2657.98, 0.00, 0.00, 0.00
42, 25805.00, -75955.31, 18322.55, -20604.11, 25868.46, 30972.88, 961.82, 2419.78, -0.01, 0.95, 0.21
43, 21117.53, -79654.59, 17035.72, -20363.15, 24602.63, 29938.78, 1489.36, 2800.18, 0.00, 0.00, 0.00
44, 25637.32, -76348.44, 19892.31, -21159.95, 26600.50, 31060.90, 1336.77, 3061.18, 0.00, 0.00, 0.00
45, 30448.06, -72512.45, 21327.86, -21457.70, 28031.90, 32170.35, 818.72, 2731.72, 0.00, 0.00, 0.00
46, 27112.02, -74877.16, 18913.40, -20758.60, 26332.75, 31270.45, 862.35, 2412.92, 0.00, 0.00, 0.00
47, 21313.04, -79382.51, 16881.76, -20299.79, 24546.71, 29943.31, 1421.75, 2702.84, 0.00, 0.00, 0.00
48, 24450.66, -77165.10, 19312.49, -21011.80, 26156.10, 30746.90, 1434.83, 3063.06, 0.00, 0.00, 0.00
49, 30078.21, -72759.75, 21371.37, -21484.36, 28016.41, 32062.59, 894.90, 2832.14, 0.00, 0.00, 0.00
50, 28280.43, -73909.77, 19536.50, -20940.01, 26849.72, 31563.66, 785.35, 2447.94, 0.00, 0.00, 0.00
51, 21904.13, -78799.44, 16947.72, -20292.12, 24711.33, 30079.84, 1323.29, 2598.03, 0.00, 0.00, 0.00
52, 23388.87, -77853.85, 18737.38, -20840.92, 25783.14, 30504.72, 1518.11, 3028.86, -0.01, 0.96, 0.21
53, 29529.07, -73114.30, 21304.10, -21469.32, 27940.98, 31960.94, 1021.90, 2895.11, 0.00, 0.00, 0.00
54, 29315.97, -73037.90, 20099.67, -21087.69, 27326.93, 31848.64, 777.42, 2474.74, 0.00, 0.00, 0.00
55, 22837.42, -77954.73, 17145.44, -20332.85, 24978.79, 30309.17, 1225.17, 2562.38, 0.00, 0.00, 0.00
56, 22538.36, -78364.81, 18178.25, -20700.13, 25442.97, 30337.24, 1547.79, 3060.78, 0.00, 0.00, 0.00
57, 28763.03, -73626.40, 21068.33, -21420.84, 27725.42, 31810.58, 1103.64, 3007.56, 0.00, 0.00, 0.00
58, 30049.71, -72410.53, 20548.38, -21197.37, 27679.91, 32035.12, 777.19, 2584.69, 0.00, 0.00, 0.00
59, 23974.95, -76959.11, 17491.83, -20409.47, 25330.87, 30568.87, 1115.20, 2516.16, 0.00, 0.00, 0.00
60, 21854.80, -78740.45, 17626.59, -20548.79, 25113.99, 30163.90, 1536.03, 2978.44, 0.00, 0.00, 0.00
61, 27762.03, -74302.80, 20688.42, -21338.27, 27388.24, 31574.79, 1189.87, 3045.78, 0.00, 0.00, 0.00
62, 30555.33, -71940.67, 20942.04, -21333.69, 27923.63, 32195.03, 759.15, 2618.22, -0.02, 0.96, 0.21
63, 25280.16, -75823.98, 17977.44, -20554.80, 25719.10, 30904.17, 981.35, 2441.39, 0.00, 0.00, 0.00
64, 21542.01, -78810.66, 17230.49, -20456.63, 24853.64, 30110.93, 1497.75, 2872.22, 0.00, 0.00, 0.00
65, 26705.17, -74990.19, 20217.35, -21269.27, 26979.22, 31365.33, 1279.84, 3078.13, 0.00, 0.00, 0.00
66, 30825.69, -71646.70, 21202.35, -21452.76, 28091.98, 32315.06, 776.70, 2696.58, 0.00, 0.00, 0.00
67, 26685.26, -74625.14, 18529.62, -20697.96, 26203.73, 31269.49, 906.23, 2441.08, 0.00, 0.00, 0.00
68, 21610.52, -78588.66, 16970.32, -20377.79, 24772.79, 30149.98, 1440.32, 2800.63, 0.00, 0.00, 0.00
69, 25660.36, -75654.41, 19678.45, -21149.60, 26611.29, 31159.36, 1346.54, 3115.81, 0.00, 0.00, 0.00
70, 30776.29, -71596.28, 21329.22, -21504.10, 28190.38, 32348.76, 848.14, 2824.50, 0.00, 0.00, 0.00
71, 28025.02, -73475.70, 19112.84, -20859.47, 26715.38, 31624.57, 856.43, 2483.79, 0.00, 0.00, 0.00
72, 22027.71, -78093.08, 16863.34, -20327.73, 24822.57, 30261.04, 1394.44, 2714.40, -0.03, 0.96, 0.21
73, 24580.28, -76325.08, 19076.07, -20976.89, 26198.54, 30924.78, 1461.98, 3082.19, 0.00, 0.00, 0.00
74, 30404.94, -71787.05, 21319.88, -21501.73, 28127.84, 32294.87, 931.78, 2909.82, 0.00, 0.00, 0.00
75, 29135.39, -72520.73, 19669.00, -20993.63, 27149.88, 31911.99, 781.06, 2555.30, 0.00, 0.00, 0.00
76, 22739.41, -77385.78, 16947.72, -20323.66, 24965.56, 30434.76, 1265.91, 2681.81, 0.00, 0.00, 0.00
77, 23572.13, -76936.36, 18465.92, -20803.53, 25768.50, 30710.13, 1491.15, 3123.75, 0.00, 0.00, 0.00
78, 29718.37, -72230.09, 21141.11, -21458.28, 27907.07, 32138.14, 1006.97, 3012.59, 0.00, 0.00, 0.00
79, 30011.75, -71761.30, 20169.50, -21127.03, 27490.54, 32129.71, 737.09, 2584.20, 0.00, 0.00, 0.00
80, 23733.66, -76474.84, 17205.97, -20367.58, 25195.49, 30662.37, 1160.90, 2587.01, 0.00, 0.00, 0.00
81, 22795.56, -77363.20, 17905.36, -20650.96, 25378.19, 30536.08, 1513.86, 3039.12, 0.00, 0.00, 0.00
82, 28869.27, -72778.08, 20847.94, -21400.50, 27598.68, 31958.30, 1095.59, 3059.13, -0.03, 0.96, 0.21
83, 30681.21, -71163.05, 20600.95, -21248.60, 27779.62, 32316.33, 744.25, 2645.37, 0.00, 0.00, 0.00
84, 24954.34, -75398.51, 17590.91, -20481.33, 25558.82, 30963.96, 1040.50, 2541.13, 0.00, 0.00, 0.00
85, 22276.28, -77587.62, 17417.53, -20531.17, 25107.02, 30427.61, 1484.87, 2975.75, 0.00, 0.00, 0.00
86, 27861.74, -73435.52, 20439.46, -21327.52, 27262.44, 31733.89, 1176.80, 3088.21, 0.00, 0.00, 0.00
87, 31053.41, -70788.11, 20938.85, -21372.54, 28003.22, 32435.84, 734.68, 2691.22, 0.00, 0.00, 0.00
88, 26210.57, -74309.78, 18102.28, -20593.89, 25976.04, 31251.49, 953.28, 2489.36, 0.00, 0.00, 0.00
89, 22021.68, -77610.10, 17077.80, -20414.83, 24927.78, 30363.59, 1462.61, 2896.58, 0.00, 0.00, 0.00
90, 26722.87, -74175.40, 19947.39, -21194.88, 26868.12, 31481.87, 1282.77, 3115.81, 0.00, 0.00, 0.00
91, 31099.52, -70669.15, 21156.84, -21426.07, 28092.52, 32461.97, 781.77, 2761.40, 0.00, 0.00, 0.00
92, 27465.00, -73227.91, 18671.28, -20730.21, 26392.51, 31551.23, 843.98, 2479.66, -0.03, 0.96, 0.21
93, 22086.23, -77391.95, 16877.04, -20326.70, 24815.44, 30355.81, 1400.76, 2792.27, 0.00, 0.00, 0.00
94, 25535.93, -74945.82, 19398.21, -21030.58, 26410.66, 31192.28, 1405.01, 3115.45, 0.00, 0.00, 0.00
95, 30857.79, -70769.17, 21262.21, -21463.75, 28076.20, 32420.67, 869.68, 2850.41, 0.00, 0.00, 0.00
96, 28642.62, -72222.15, 19257.12, -20883.28, 26819.54, 31832.88, 793.08, 2523.53, 0.00, 0.00, 0.00
97, 22565.81, -76858.68, 16862.80, -20313.24, 24867.66, 30460.80, 1320.90, 2735.92, 0.00, 0.00, 0.00
98, 24505.92, -75566.38, 18824.39, -20898.39, 25994.72, 30976.25, 1449.24, 3140.13, 0.00, 0.00, 0.00
99, 30351.84, -71059.52, 21193.16, -21448.87, 27939.63, 32312.02, 950.24, 2955.06, 0.00, 0.00, 0.00
100, 29647.98, -71347.15, 19810.66, -21015.24, 27202.36, 32075.98, 752.16, 2551.38, 0.00, 0.00, 0.00
101, 23329.95, -76109.72, 17009.07, -20328.60, 25027.72, 30624.71, 1185.80, 2632.16, 0.00, 0.00, 0.00
102, 23530.20, -76145.57, 18248.25, -20721.36, 25598.47, 30741.56, 1484.07, 3094.40, -0.03, 0.95, 0.20
103, 29585.73, -71544.45, 21022.06, -21402.24, 27727.05, 32136.58, 1040.16, 3022.13, 0.00, 0.00, 0.00
104, 30397.77, -70678.05, 20316.08, -21140.55, 27544.03, 32253.92, 737.59, 2612.70, 0.00, 0.00, 0.00
105, 24314.32, -75207.23, 17340.33, -20372.92, 25318.74, 30832.89, 1122.91, 2608.56, 0.00, 0.00, 0.00
106, 22772.00, -76546.01, 17757.97, -20575.16, 25293.41, 30566.61, 1530.67, 3082.60, 0.00, 0.00, 0.00
107, 28650.22, -72143.09, 20740.79, -21342.61, 27462.43, 31937.71, 1148.23, 3116.91, 0.00, 0.00, 0.00
108, 30942.05, -70169.08, 20763.45, -21264.73, 27846.50, 32417.87, 751.67, 2691.66, 0.00, 0.00, 0.00
109, 25558.46, -74115.59, 17820.98, -20500.48, 25735.78, 31147.18, 1009.38, 2548.59, 0.00, 0.00, 0.00
110, 22346.87, -76699.52, 17335.01, -20464.61, 25080.62, 30482.91, 1492.81, 2970.32, 0.00, 0.00, 0.00
111, 27608.72, -72824.55, 20295.07, -21246.72, 27137.68, 31714.08, 1243.25, 3124.48, 0.00, 0.00, 0.00
112, 31173.22, -69920.14, 21030.22, -21345.40, 28035.97, 32479.77, 782.42, 2736.59, -0.02, 0.96, 0.21
113, 26764.34, -73089.38, 18312.69, -20617.49, 26143.40, 31398.61, 902.14, 2546.40, 0.00, 0.00, 0.00
114, 22145.39, -76701.15, 17011.53, -20360.70, 24915.40, 30403.65, 1442.27, 2953.74, 0.00, 0.00, 0.00
115, 26410.11, -73622.38, 19772.60, -21106.97, 26718.40, 31418.71, 1367.86, 3192.30, 0.00, 0.00, 0.00
116, 31105.87, -69894.17, 21211.60, -21401.01, 28101.93, 32476.48, 855.24, 2862.32, 0.00, 0.00, 0.00
117, 27973.52, -72057.57, 18889.82, -20743.36, 26579.17, 31678.54, 862.53, 2573.74, 0.00, 0.00, 0.00
118, 22353.17, -76377.07, 16878.23, -20294.85, 24871.68, 30435.16, 1376.60, 2837.04, 0.00, 0.00, 0.00
119, 25282.59, -74338.99, 19212.40, -20960.55, 26277.49, 31154.62, 1424.05, 3175.11, 0.00, 0.00, 0.00
120, 30790.33, -70048.69, 21259.32, -21427.81, 28024.17, 32420.06, 916.85, 2910.80, 0.00, 0.00, 0.00
121, 29123.49, -71072.76, 19463.14, -20904.33, 26943.80, 31964.20, 794.29, 2555.12, 0.00, 0.00, 0.00
122, 22926.81, -75775.36, 16898.05, -20279.89, 24893.70, 30561.38, 1298.90, 2745.00, -0.02, 0.95, 0.22
123, 24270.10, -74947.09, 18621.53, -20812.78, 25810.12, 30933.54, 1468.87, 3157.56, 0.00, 0.00, 0.00
124, 30195.13, -70406.25, 21145.73, -21411.38, 27806.22, 32285.78, 978.13, 2999.43, 0.00, 0.00, 0.00
125, 30036.61, -70269.84, 19994.51, -21044.52, 27271.68, 32188.93, 766.84, 2609.32, 0.00, 0.00, 0.00
126, 23787.51, -74952.21, 17106.39, -20328.15, 25083.64, 30755.55, 1183.88, 2660.93, 0.00, 0.00, 0.00
127, 23369.46, -75455.66, 18047.71, -20658.53, 25440.67, 30730.00, 1505.86, 3134.74, 0.00, 0.00, 0.00
128, 29370.82, -70931.60, 20899.48, -21365.36, 27587.13, 32105.62, 1097.49, 3111.56, 0.00, 0.00, 0.00
129, 30730.76, -69651.32, 20454.28, -21185.54, 27629.64, 32371.76, 746.95, 2683.28, 0.00, 0.00, 0.00
130, 24895.13, -73962.81, 17468.58, -20434.05, 25461.59, 31021.13, 1063.81, 2613.70, 0.00, 0.00, 0.00
131, 22753.49, -75750.87, 17558.64, -20532.54, 25204.70, 30604.21, 1513.44, 3046.92, 0.00, 0.00, 0.00
132, 28426.30, -71535.39, 20544.16, -21301.64, 27335.98, 31911.14, 1184.37, 3125.06, -0.02, 0.95, 0.22
133, 31200.08, -69200.80, 20812.92, -21301.30, 27920.17, 32511.57, 747.17, 2724.34, 0.00, 0.00, 0.00
134, 26141.46, -72880.05, 17917.78, -20548.96, 25888.75, 31309.34, 958.20, 2555.94, 0.00, 0.00, 0.00
135, 22417.59, -75839.17, 17138.91, -20412.89, 25028.68, 30527.54, 1487.42, 2969.52, 0.00, 0.00, 0.00
136, 27341.23, -72247.90, 20061.76, -21169.29, 26981.42, 31664.17, 1302.39, 3172.34, 0.00, 0.00, 0.00
137, 31361.17, -69002.78, 21065.45, -21361.61, 28067.62, 32564.14, 814.34, 2834.49, 0.00, 0.00, 0.00
138, 27405.38, -71806.14, 18464.24, -20662.18, 26318.53, 31599.40, 905.78, 2572.10, 0.00, 0.00, 0.00
139, 22421.21, -75671.43, 16893.96, -20340.98, 24909.30, 30523.59, 1418.02, 2879.64, 0.00, 0.00, 0.00
140, 26242.31, -72944.34, 19517.45, -21057.13, 26553.89, 31431.78, 1358.56, 3158.15, 0.00, 0.00, 0.00
141, 31256.43, -68991.70, 21180.83, -21413.22, 28064.02, 32570.76, 860.12, 2870.39, 0.00, 0.00, 0.00
142, 28630.01, -70757.17, 19025.00, -20804.47, 26704.21, 31893.57, 831.66, 2554.49, -0.02, 0.95, 0.22
143, 22775.78, -75230.52, 16800.08, -20292.57, 24887.35, 30601.86, 1350.27, 2798.06, 0.00, 0.00, 0.00
144, 25195.40, -73580.73, 18937.18, -20913.12, 26138.20, 31216.91, 1430.13, 3184.14, 0.00, 0.00, 0.00
145, 30876.97, -69187.16, 21148.88, -21432.84, 27984.74, 32508.78, 917.99, 2988.27, 0.00, 0.00, 0.00
146, 29738.30, -69804.65, 19569.80, -20968.10, 27116.67, 32179.45, 765.64, 2599.08, 0.00, 0.00, 0.00
147, 23469.87, -74540.92, 16865.66, -20313.04, 25021.48, 30755.40, 1248.43, 2731.14, 0.00, 0.00, 0.00
148, 24225.96, -74155.95, 18332.83, -20779.21, 25761.99, 31002.16, 1473.11, 3160.69, 0.00, 0.00, 0.00
149, 30248.08, -69560.52, 20987.15, -21426.31, 27839.52, 32390.49, 1007.01, 3046.90, 0.00, 0.00, 0.00
150, 30630.45, -69010.14, 20065.14, -21133.89, 27501.72, 32416.69, 727.55, 2629.48, 0.00, 0.00, 0.00
151, 24478.00, -73594.81, 17114.46, -20391.59, 25314.22, 30999.48, 1112.40, 2638.15, 0.00, 0.00, 0.00
152, 23474.54, -74527.69, 17784.68, -20639.47, 25466.48, 30858.59, 1483.31, 3101.44, -0.03, 0.95, 0.22
153, 29401.73, -70077.55, 20702.59, -21369.14, 27589.32, 32215.30, 1105.09, 3101.26, 0.00, 0.00, 0.00
154, 31265.26, -68415.20, 20502.56, -21245.27, 27812.56, 32593.60, 740.63, 2705.14, 0.00, 0.00, 0.00
155, 25668.68, -72521.23, 17535.86, -20473.35, 25693.06, 31285.02, 1032.27, 2629.06, 0.00, 0.00, 0.00
156, 22979.52, -74702.01, 17332.95, -20513.22, 25232.93, 30756.54, 1480.20, 3061.41, 0.00, 0.00, 0.00
157, 28425.25, -70671.92, 20296.05, -21290.55, 27279.30, 32011.81, 1192.87, 3179.67, 0.00, 0.00, 0.00
158, 31660.42, -67986.27, 20837.05, -21334.43, 28046.61, 32731.42, 757.81, 2827.07, 0.00, 0.00, 0.00
159, 27008.80, -71322.45, 18055.45, -20599.86, 26122.73, 31632.21, 926.37, 2634.78, 0.00, 0.00, 0.00
160, 22790.29, -74631.69, 16983.14, -20395.83, 25044.55, 30733.00, 1445.80, 2997.59, 0.00, 0.00, 0.00
161, 27320.51, -71358.23, 19801.12, -21154.23, 26858.41, 31767.97, 1297.72, 3208.35, 0.00, 0.00, 0.00
162, 31691.73, -67866.09, 21040.43, -21399.72, 28091.76, 32753.26, 809.31, 2900.94, -0.03, 0.96, 0.22
163, 28212.86, -70287.83, 18597.01, -20734.30, 26489.65, 31907.94, 876.93, 2616.18, 0.00, 0.00, 0.00
164, 22926.56, -74354.93, 16789.65, -20354.17, 24937.33, 30770.44, 1387.66, 2865.76, 0.00, 0.00, 0.00
165, 26237.95, -72023.89, 19233.47, -21027.51, 26423.31, 31566.61, 1376.60, 3187.38, 0.00, 0.00, 0.00
166, 31525.19, -67880.62, 21085.74, -21463.53, 28066.93, 32778.07, 848.92, 2948.20, 0.00, 0.00, 0.00
167, 29462.97, -69187.41, 19124.85, -20911.06, 26922.05, 32256.67, 766.73, 2629.19, 0.00, 0.00, 0.00
168, 23501.88, -73700.61, 16750.58, -20323.12, 25043.03, 30940.78, 1299.13, 2843.95, 0.00, 0.00, 0.00
169, 25284.54, -72545.58, 18632.70, -20865.35, 26085.18, 31378.34, 1462.56, 3218.27, 0.00, 0.00, 0.00
170, 31065.28, -68100.55, 20986.30, -21434.56, 28020.77, 32683.68, 975.45, 3043.21, 0.00, 0.00, 0.00
171, 30478.46, -68282.21, 19640.25, -21023.98, 27392.80, 32481.53, 777.48, 2677.87, 0.00, 0.00, 0.00
172, 24320.91, -72877.50, 16879.17, -20349.74, 25326.89, 31101.96, 1217.86, 2768.13, -0.02, 0.95, 0.22
173, 24408.15, -72988.30, 18043.91, -20725.52, 25827.87, 31176.68, 1494.68, 3190.24, 0.00, 0.00, 0.00
174, 30326.09, -68503.67, 20758.31, -21396.12, 27881.77, 32517.09, 1062.80, 3134.52, 0.00, 0.00, 0.00
175, 31239.13, -67535.66, 20102.42, -21169.00, 27766.14, 32682.50, 750.28, 2725.71, 0.00, 0.00, 0.00
176, 25338.41, -71879.38, 17191.13, -20437.85, 25625.60, 31334.02, 1082.25, 2681.56, 0.00, 0.00, 0.00
177, 23720.97, -73266.22, 17548.02, -20614.05, 25509.02, 31039.44, 1459.81, 3112.32, 0.00, 0.00, 0.00
178, 29456.33, -68990.55, 20474.73, -21362.75, 27556.93, 32351.76, 1121.92, 3157.97, 0.00, 0.00, 0.00
179, 31796.96, -66972.66, 20530.59, -21293.48, 27949.09, 32845.53, 737.12, 2766.70, 0.00, 0.00, 0.00
180, 26551.70, -70787.77, 17638.74, -20536.11, 25879.45, 31612.05, 993.67, 2632.59, 0.00, 0.00, 0.00
181, 23324.80, -73368.98, 17140.72, -20492.17, 25151.95, 30948.54, 1473.67, 3033.33, 0.00, 0.00, 0.00
182, 28420.67, -69644.62, 20057.25, -21255.53, 27067.54, 32107.34, 1233.62, 3188.88, -0.01, 0.96, 0.22
183, 32036.06, -66698.41, 20835.27, -21382.84, 27984.94, 32901.90, 766.64, 2798.35, 0.00, 0.00, 0.00
184, 27830.18, -69675.59, 18196.09, -20673.13, 26217.72, 31906.49, 896.39, 2608.02, 0.00, 0.00, 0.00
185, 23273.87, -73213.29, 16895.55, -20408.37, 25005.81, 30937.65, 1408.32, 2973.12, 0.00, 0.00, 0.00
186, 27371.81, -70286.22, 19583.75, -21127.63, 26702.42, 31871.35, 1308.31, 3234.88, 0.00, 0.00, 0.00
187, 32044.69, -66581.95, 21038.13, -21439.77, 28101.69, 32927.58, 817.63, 2980.00, 0.00, 0.00, 0.00
188, 29086.88, -68581.90, 18785.05, -20805.81, 26698.33, 32198.76, 850.84, 2656.97, 0.00, 0.00, 0.00
189, 23556.75, -72802.83, 16779.68, -20359.15, 25050.34, 30990.74, 1334.11, 2894.19, 0.00, 0.00, 0.00
190, 26358.81, -70871.50, 19044.45, -21004.09, 26370.05, 31659.19, 1373.20, 3233.98, 0.00, 0.00, 0.00
191, 31797.66, -66644.49, 21079.17, -21461.09, 28091.80, 32888.87, 925.23, 3009.71, 0.00, 0.00, 0.00
192, 30247.59, -67557.03, 19345.50, -20947.09, 27111.23, 32471.00, 814.97, 2651.25, -0.01, 0.96, 0.22
193, 24188.25, -72119.73, 16825.81, -20336.42, 25140.12, 31120.40, 1269.44, 2809.84, 0.00, 0.00, 0.00
194, 25398.67, -71401.13, 18477.40, -20832.72, 25959.72, 31434.22, 1464.64, 3223.19, 0.00, 0.00, 0.00
195, 31234.97, -66944.86, 20965.49, -21429.98, 27892.29, 32755.68, 1007.93, 3099.83, 0.00, 0.00, 0.00
196, 31176.28, -66717.30, 19862.16, -21089.67, 27416.36, 32693.78, 770.42, 2713.79, 0.00, 0.00, 0.00
197, 25091.24, -71236.37, 17034.91, -20380.70, 25305.66, 31323.94, 1171.95, 2756.26, 0.00, 0.00, 0.00
198, 24598.70, -71790.94, 17928.47, -20682.05, 25569.39, 31269.44, 1501.90, 3179.51, 0.00, 0.00, 0.00
199, 30461.76, -67391.16, 20729.86, -21368.96, 27595.42, 32579.19, 1113.94, 3147.77, 0.00, 0.00, 0.00
200, 31887.04, -66048.42, 20316.53, -21204.00, 27676.87, 32868.33, 767.40, 2763.21, 0.00, 0.00, 0.00
201, 26222.37, -70193.80, 17389.54, -20448.18, 25605.62, 31574.65, 1065.78, 2700.92, 0.00, 0.00, 0.00
202, 24060.49, -71982.88, 17440.46, -20544.09, 25309.55, 31151.69, 1486.61, 3114.40, -0.02, 0.96, 0.22
203, 29574.24, -67907.37, 20348.71, -21294.66, 27322.19, 32391.68, 1186.12, 3190.91, 0.00, 0.00, 0.00
204, 32362.29, -65559.30, 20635.89, -21310.26, 27932.84, 32993.92, 761.93, 2777.72, 0.00, 0.00, 0.00
205, 27471.95, -69077.37, 17800.77, -20563.85, 26021.86, 31847.23, 974.94, 2612.07, 0.00, 0.00, 0.00
206, 23772.06, -71993.55, 17002.50, -20441.36, 25159.46, 31078.96, 1463.44, 3013.66, 0.00, 0.00, 0.00
207, 28524.20, -68554.85, 19834.89, -21179.91, 26992.21, 32136.80, 1276.60, 3192.23, 0.00, 0.00, 0.00
208, 32486.34, -65360.32, 20831.45, -21376.45, 28075.47, 33016.10, 820.11, 2864.93, 0.00, 0.00, 0.00
209, 28722.64, -67977.66, 18329.28, -20709.58, 26453.71, 32136.24, 905.65, 2619.22, 0.00, 0.00, 0.00
210, 23798.55, -71770.16, 16780.21, -20364.85, 25075.68, 31080.08, 1423.43, 2925.75, 0.00, 0.00, 0.00
211, 27429.41, -69213.05, 19335.17, -21056.71, 26593.97, 31900.10, 1382.79, 3208.77, 0.00, 0.00, 0.00
212, 32349.10, -65354.64, 20967.57, -21431.68, 28065.97, 32994.39, 869.91, 2928.03, -0.02, 0.97, 0.21
213, 29844.79, -67005.14, 18869.28, -20838.71, 26808.86, 32370.51, 838.62, 2608.96, 0.00, 0.00, 0.00
214, 24127.68, -71340.44, 16696.62, -20326.14, 25052.04, 31129.86, 1365.83, 2844.97, 0.00, 0.00, 0.00
215, 26376.35, -69838.07, 18742.81, -20921.77, 26160.46, 31661.67, 1443.01, 3178.44, 0.00, 0.00, 0.00
216, 31937.40, -65553.87, 20920.90, -21428.75, 27939.26, 32905.84, 951.71, 2987.67, 0.00, 0.00, 0.00
217, 30892.90, -66076.54, 19399.08, -20979.59, 27153.77, 32615.49, 801.94, 2646.83, 0.00, 0.00, 0.00
218, 24808.09, -70624.23, 16780.59, -20342.37, 25169.23, 31275.14, 1247.45, 2763.70, 0.00, 0.00, 0.00
219, 25445.29, -70337.09, 18187.14, -20763.18, 25801.24, 31460.37, 1467.59, 3165.10, 0.00, 0.00, 0.00
220, 31289.89, -65906.77, 20778.56, -21373.77, 27770.97, 32771.59, 1030.77, 3081.32, 0.00, 0.00, 0.00
221, 31732.73, -65295.93, 19910.89, -21087.26, 27513.50, 32839.61, 800.86, 2696.25, 0.00, 0.00, 0.00
222, 25751.18, -69710.35, 17038.58, -20385.46, 25432.02, 31489.56, 1163.45, 2687.13, -0.02, 0.96, 0.22
223, 24687.03, -70686.27, 17661.48, -20636.96, 25520.91, 31314.30, 1504.67, 3133.31, 0.00, 0.00, 0.00
224, 30433.73, -66403.16, 20493.44, -21352.31, 27525.61, 32589.04, 1114.64, 3102.44, 0.00, 0.00, 0.00
225, 32271.22, -64766.77, 20309.08, -21219.65, 27774.19, 32948.88, 769.95, 2721.03, 0.00, 0.00, 0.00
226, 26839.48, -68714.27, 17429.40, -20482.06, 25773.66, 31712.07, 1056.81, 2658.58, 0.00, 0.00, 0.00
227, 24148.40, -70887.68, 17221.33, -20512.29, 25282.82, 31180.44, 1499.65, 3066.64, 0.00, 0.00, 0.00
228, 29421.69, -67020.67, 20136.89, -21267.62, 27213.00, 32360.01, 1217.88, 3166.24, 0.00, 0.00, 0.00
229, 32592.93, -64399.26, 20674.80, -21335.99, 27970.99, 33046.38, 773.59, 2777.43, 0.00, 0.00, 0.00
230, 28055.37, -67625.00, 17956.59, -20609.29, 26156.14, 31992.72, 949.50, 2585.63, 0.00, 0.00, 0.00
231, 23922.98, -70845.35, 16910.46, -20414.88, 25110.60, 31133.07, 1450.00, 2965.79, 0.00, 0.00, 0.00
232, 28300.44, -67708.26, 19663.83, -21134.47, 26820.37, 32108.82, 1316.79, 3193.75, -0.02, 0.96, 0.22
233, 32617.70, -64262.85, 20897.43, -21400.39, 28040.04, 33078.14, 828.94, 2862.54, 0.00, 0.00, 0.00
234, 29241.29, -66580.23, 18519.18, -20739.45, 26536.59, 32269.73, 877.04, 2588.13, 0.00, 0.00, 0.00
235, 24017.08, -70574.89, 16747.16, -20351.06, 25043.81, 31155.04, 1386.48, 2879.46, 0.00, 0.00, 0.00
236, 27196.46, -68370.38, 19141.27, -21003.58, 26426.89, 31875.62, 1384.13, 3176.36, 0.00, 0.00, 0.00
237, 32332.42, -64372.66, 20973.47, -21419.54, 28010.91, 33025.59, 889.82, 2923.00, 0.00, 0.00, 0.00
238, 30311.67, -65644.92, 19075.71, -20880.31, 26932.02, 32519.62, 815.95, 2602.70, 0.00, 0.00, 0.00
239, 24416.38, -70090.09, 16723.89, -20334.63, 25108.29, 31235.89, 1298.50, 2801.79, 0.00, 0.00, 0.00
240, 26130.91, -68996.68, 18576.00, -20877.36, 26072.71, 31661.20, 1436.75, 3166.39, 0.00, 0.00, 0.00
241, 31793.81, -64672.91, 20902.28, -21409.77, 27911.49, 32916.50, 985.09, 3008.41, 0.00, 0.00, 0.00
242, 31228.20, -64839.75, 19598.08, -21020.63, 27298.43, 32728.34, 791.05, 2626.80, -0.02, 0.96, 0.21
243, 25145.06, -69369.11, 16881.89, -20353.95, 25289.19, 31383.05, 1210.37, 2711.65, 0.00, 0.00, 0.00
244, 25187.53, -69534.58, 18009.49, -20720.87, 25719.77, 31430.53, 1477.34, 3109.37, 0.00, 0.00, 0.00
245, 30998.40, -65173.19, 20666.85, -21389.10, 27667.90, 32711.42, 1055.09, 3049.81, 0.00, 0.00, 0.00
246, 31898.11, -64238.29, 20009.59, -21163.39, 27564.95, 32866.81, 760.43, 2660.48, 0.00, 0.00, 0.00
247, 26065.04, -68528.45, 17127.45, -20421.11, 25501.55, 31548.41, 1110.97, 2631.40, 0.00, 0.00, 0.00
248, 24401.46, -69964.02, 17455.39, -20586.76, 25362.61, 31225.19, 1496.18, 3080.99, 0.00, 0.00, 0.00
249, 30012.98, -65817.64, 20329.22, -21332.17, 27338.24, 32473.22, 1137.06, 3154.43, 0.00, 0.00, 0.00
250, 32330.19, -63829.58, 20388.90, -21263.71, 27761.27, 32956.53, 770.51, 2744.37, 0.00, 0.00, 0.00
251, 27176.88, -67552.53, 17554.41, -20522.86, 25820.55, 31772.85, 1023.89, 2625.99, 0.00, 0.00, 0.00
252, 23974.77, -70104.66, 17064.42, -20477.59, 25129.19, 31124.02, 1477.38, 3023.95, -0.02, 0.96, 0.21
253, 28951.16, -66496.28, 19930.45, -21216.92, 26962.04, 32214.96, 1245.69, 3143.24, 0.00, 0.00, 0.00
254, 32512.67, -63602.80, 20704.78, -21363.44, 27876.11, 32990.70, 787.61, 2788.74, 0.00, 0.00, 0.00
255, 28389.51, -66504.06, 18106.83, -20677.71, 26184.46, 32039.44, 917.49, 2578.41, 0.00, 0.00, 0.00
0, 23836.41, -70032.51, 16799.95, -20398.02, 24977.47, 31073.17, 1435.72, 2904.16, 0.00, 0.00, 0.00
1, 27814.24, -67221.35, 19444.77, -21087.84, 26571.64, 31942.94, 1356.33, 3167.09, 0.00, 0.00, 0.00
2, 32409.65, -63599.41, 20886.54, -21406.78, 27919.29, 32959.66, 870.00, 2901.41, 0.00, 0.00, 0.00
3, 29496.61, -65563.66, 18680.34, -20806.77, 26563.66, 32249.14, 845.92, 2596.36, 0.00, 0.00, 0.00
4, 24006.06, -69742.96, 16716.18, -20354.15, 24953.46, 31069.95, 1365.33, 2847.93, 0.00, 0.00, 0.00
5, 26716.14, -67897.60, 18958.55, -20969.20, 26205.77, 31699.53, 1436.64, 3172.72, 0.00, 0.00, 0.00
6, 32058.12, -63772.92, 20966.47, -21430.72, 27881.19, 32878.03, 948.12, 2964.85, -0.02, 0.96, 0.21
7, 30529.58, -64670.59, 19263.60, -20932.99, 26955.33, 32480.77, 822.61, 2628.19, 0.00, 0.00, 0.00
8, 24492.84, -69213.41, 16751.76, -20333.89, 25035.45, 31148.45, 1281.40, 2781.47, 0.00, 0.00, 0.00
9, 25647.60, -68552.28, 18375.62, -20827.31, 25815.59, 31441.71, 1456.24, 3175.42, 0.00, 0.00, 0.00
10, 31364.82, -64222.13, 20817.99, -21413.22, 27687.42, 32694.57, 995.81, 3041.47, 0.00, 0.00, 0.00
11, 31269.29, -64039.31, 19724.05, -21061.56, 27251.49, 32613.85, 781.82, 2656.26, 0.00, 0.00, 0.00
12, 25228.88, -68523.95, 16936.12, -20365.25, 25220.93, 31271.61, 1179.66, 2703.51, 0.00, 0.00, 0.00
13, 24701.18, -69119.84, 17814.41, -20673.24, 25472.96, 31209.52, 1490.66, 3123.70, 0.00, 0.00, 0.00
14, 30493.12, -64801.28, 20592.91, -21361.96, 27457.57, 32488.26, 1097.09, 3088.65, 0.00, 0.00, 0.00
15, 31894.91, -63489.70, 20191.76, -21200.79, 27546.74, 32774.56, 750.04, 2685.58, 0.00, 0.00, 0.00
16, 26249.84, -67622.49, 17300.94, -20458.82, 25517.02, 31498.44, 1054.96, 2613.99, -0.02, 0.95, 0.21
17, 24072.34, -69432.43, 17364.69, -20551.62, 25212.81, 31081.40, 1483.78, 3059.06, 0.00, 0.00, 0.00
18, 29514.38, -65436.83, 20252.80, -21285.28, 27162.60, 32290.51, 1172.30, 3170.17, 0.00, 0.00, 0.00
19, 32264.38, -63135.72, 20553.30, -21296.43, 27762.56, 32872.71, 774.26, 2783.15, 0.00, 0.00, 0.00
20, 27405.00, -66626.41, 17760.54, -20569.91, 25893.67, 31748.62, 987.03, 2608.29, 0.00, 0.00, 0.00
21, 23689.72, -69561.91, 16967.28, -20440.65, 25024.23, 30967.29, 1466.36, 2978.33, 0.00, 0.00, 0.00
22, 28402.07, -66166.93, 19791.78, -21175.64, 26819.61, 32017.40, 1297.65, 3167.96, 0.00, 0.00, 0.00
23, 32324.87, -63022.17, 20775.28, -21352.02, 27882.19, 32871.39, 836.76, 2841.20, 0.00, 0.00, 0.00
24, 28532.34, -65674.34, 18276.33, -20680.28, 26284.85, 31966.46, 908.58, 2577.02, 0.00, 0.00, 0.00
25, 23633.04, -69444.61, 16752.65, -20358.21, 24947.41, 30938.23, 1407.44, 2894.17, 0.00, 0.00, 0.00
26, 27247.60, -66908.91, 19284.03, -21044.88, 26442.98, 31755.26, 1370.07, 3181.66, -0.02, 0.95, 0.21
27, 32109.26, -63109.07, 20900.87, -21401.71, 27897.50, 32826.02, 885.55, 2929.11, 0.00, 0.00, 0.00
28, 29659.06, -64709.28, 18845.83, -20840.79, 26690.37, 32240.58, 846.82, 2610.48, 0.00, 0.00, 0.00
29, 23949.65, -69037.23, 16677.82, -20334.03, 24958.83, 31009.80, 1340.48, 2821.44, 0.00, 0.00, 0.00
30, 26138.58, -67595.79, 18719.27, -20909.18, 26041.17, 31516.18, 1437.35, 3163.69, 0.00, 0.00, 0.00
31, 31666.95, -63353.67, 20904.09, -21424.53, 27804.29, 32747.00, 954.98, 2961.47, 0.00, 0.00, 0.00
32, 30628.97, -63880.88, 19399.44, -20984.49, 27049.92, 32465.08, 781.93, 2614.28, 0.00, 0.00, 0.00
33, 24566.04, -68417.28, 16784.60, -20351.51, 25093.95, 31139.02, 1238.06, 2743.21, 0.00, 0.00, 0.00
34, 25161.04, -68176.55, 18172.39, -20762.91, 25709.40, 31308.82, 1497.08, 3134.70, 0.00, 0.00, 0.00
35, 30978.20, -63786.98, 20758.91, -21396.54, 27660.62, 32604.98, 1062.83, 3040.93, 0.00, 0.00, 0.00
36, 31414.01, -63201.59, 19895.27, -21108.12, 27418.04, 32655.21, 794.47, 2653.13, 0.00, 0.00, 0.00
37, 25486.11, -67577.03, 17064.46, -20408.28, 25388.81, 31343.04, 1150.11, 2663.86, -0.02, 0.95, 0.23
38, 24386.49, -68595.31, 17679.80, -20631.87, 25447.04, 31154.06, 1517.86, 3083.67, 0.00, 0.00, 0.00
39, 30093.45, -64364.46, 20508.48, -21336.97, 27422.24, 32405.74, 1148.41, 3083.56, 0.00, 0.00, 0.00
40, 31965.03, -62707.53, 20334.86, -21234.51, 27685.50, 32791.37, 781.46, 2698.10, 0.00, 0.00, 0.00
41, 26541.27, -66655.94, 17456.71, -20486.74, 25692.61, 31556.73, 1055.18, 2605.52, 0.00, 0.00, 0.00
42, 23802.13, -68883.18, 17225.53, -20505.40, 25173.34, 30997.73, 1496.63, 3010.42, 0.00, 0.00, 0.00
43, 29010.95, -65090.29, 20104.25, -21237.51, 27059.56, 32140.64, 1243.52, 3133.18, 0.00, 0.00, 0.00
44, 32200.99, -62466.13, 20652.77, -21313.97, 27825.08, 32840.41, 810.70, 2812.10, 0.00, 0.00, 0.00
45, 27710.75, -65659.72, 17969.82, -20602.00, 26035.06, 31811.85, 963.49, 2638.71, 0.00, 0.00, 0.00
46, 23542.31, -68918.67, 16904.33, -20406.34, 24976.55, 30937.54, 1452.26, 2983.31, 0.00, 0.00, 0.00
47, 27898.75, -65809.41, 19632.36, -21134.00, 26656.89, 31904.57, 1318.35, 3185.32, -0.02, 0.96, 0.23
48, 32192.75, -62397.62, 20844.01, -21385.16, 27859.01, 32857.15, 837.94, 2856.37, 0.00, 0.00, 0.00
49, 28845.06, -64701.28, 18480.89, -20739.15, 26384.06, 32060.54, 889.00, 2582.50, 0.00, 0.00, 0.00
50, 23604.18, -68716.44, 16710.90, -20344.83, 24895.39, 30944.49, 1404.34, 2888.72, 0.00, 0.00, 0.00
51, 26751.88, -66547.42, 19093.69, -20991.28, 26261.91, 31658.59, 1422.33, 3217.44, 0.00, 0.00, 0.00
52, 31873.23, -62573.53, 20904.00, -21400.23, 27837.42, 32791.89, 931.53, 2956.87, 0.00, 0.00, 0.00
53, 29894.59, -63816.26, 19027.21, -20878.45, 26788.88, 32303.23, 841.01, 2626.42, 0.00, 0.00, 0.00
54, 24001.93, -68261.42, 16689.22, -20331.24, 24974.68, 31032.00, 1302.79, 2805.55, 0.00, 0.00, 0.00
55, 25662.13, -67226.36, 18528.34, -20854.62, 25911.39, 31424.72, 1453.80, 3162.37, 0.00, 0.00, 0.00
56, 31310.26, -62924.70, 20843.63, -21404.41, 27743.86, 32674.05, 998.65, 3027.54, 0.00, 0.00, 0.00
57, 30745.67, -63096.65, 19538.91, -21008.05, 27157.44, 32494.23, 799.34, 2695.71, -0.02, 0.95, 0.23
58, 24664.99, -67630.68, 16833.23, -20353.32, 25164.84, 31155.22, 1196.65, 2775.21, 0.00, 0.00, 0.00
59, 24688.10, -67814.77, 17982.80, -20718.48, 25589.57, 31216.45, 1487.08, 3178.51, 0.00, 0.00, 0.00
60, 30536.91, -63422.80, 20694.38, -21373.90, 27559.32, 32525.18, 1080.35, 3130.99, 0.00, 0.00, 0.00
61, 31459.74, -62475.38, 20046.70, -21136.72, 27468.48, 32680.10, 770.73, 2737.84, 0.00, 0.00, 0.00
62, 25659.15, -66739.55, 17180.47, -20415.57, 25432.11, 31387.46, 1114.03, 2704.00, 0.00, 0.00, 0.00
63, 23991.04, -68183.16, 17505.06, -20561.50, 25282.82, 31064.14, 1511.98, 3132.62, 0.00, 0.00, 0.00
64, 29570.78, -64072.95, 20366.24, -21281.74, 27237.16, 32285.62, 1182.59, 3193.35, 0.00, 0.00, 0.00
65, 31926.11, -62057.25, 20452.54, -21246.70, 27678.81, 32788.51, 775.40, 2800.83, 0.00, 0.00, 0.00
66, 26779.02, -65781.74, 17618.49, -20502.05, 25736.33, 31614.62, 1007.15, 2667.61, 0.00, 0.00, 0.00
67, 23528.72, -68388.58, 17102.17, -20436.91, 25035.61, 30939.89, 1495.73, 3074.80, -0.02, 0.96, 0.22
68, 28530.82, -64764.71, 19971.39, -21190.26, 26888.01, 32054.84, 1272.57, 3234.66, 0.00, 0.00, 0.00
69, 32137.09, -61844.23, 20744.61, -21322.85, 27819.94, 32846.29, 815.50, 2899.33, 0.00, 0.00, 0.00
70, 27984.43, -64784.09, 18128.36, -20621.65, 26124.09, 31866.19, 928.02, 2677.36, 0.00, 0.00, 0.00
71, 23404.96, -68342.00, 16816.58, -20351.93, 24917.25, 30893.22, 1426.26, 2994.15, 0.00, 0.00, 0.00
72, 27415.84, -65505.50, 19470.36, -21064.55, 26524.77, 31790.95, 1330.67, 3245.58, 0.00, 0.00, 0.00
73, 32074.15, -61830.22, 20911.60, -21394.78, 27889.70, 32845.30, 851.69, 2963.46, 0.00, 0.00, 0.00
74, 29179.26, -63782.94, 18682.73, -20777.64, 26543.57, 32150.61, 854.82, 2661.18, 0.00, 0.00, 0.00
75, 23659.41, -67997.24, 16686.11, -20310.63, 24922.26, 30957.23, 1363.93, 2909.10, 0.00, 0.00, 0.00
76, 26340.03, -66187.85, 18897.64, -20925.59, 26158.67, 31567.97, 1427.58, 3226.59, 0.00, 0.00, 0.00
77, 31725.64, -62031.65, 20908.89, -21400.32, 27839.68, 32770.20, 931.44, 3005.21, -0.02, 0.96, 0.22
78, 30241.75, -62895.10, 19211.46, -20922.04, 26917.96, 32394.96, 789.78, 2656.80, 0.00, 0.00, 0.00
79, 24218.61, -67426.98, 16715.64, -20321.06, 24995.60, 31074.91, 1246.20, 2817.24, 0.00, 0.00, 0.00
80, 25344.87, -66795.33, 18329.62, -20786.05, 25762.31, 31348.57, 1462.09, 3228.40, 0.00, 0.00, 0.00
81, 31119.21, -62416.77, 20802.79, -21389.54, 27664.37, 32637.52, 1005.22, 3120.84, 0.00, 0.00, 0.00
82, 31092.50, -62184.38, 19712.43, -21057.73, 27243.96, 32582.61, 744.72, 2716.14, 0.00, 0.00, 0.00
83, 25025.93, -66701.72, 16898.83, -20352.74, 25196.49, 31223.49, 1156.57, 2761.36, 0.00, 0.00, 0.00
84, 24477.19, -67319.16, 17776.86, -20654.67, 25445.36, 31148.59, 1491.89, 3180.30, 0.00, 0.00, 0.00
85, 30274.56, -62995.26, 20544.76, -21343.14, 27425.95, 32422.12, 1093.42, 3143.26, 0.00, 0.00, 0.00
86, 31671.08, -61695.15, 20144.91, -21173.65, 27511.91, 32680.93, 749.45, 2782.46, 0.00, 0.00, 0.00
87, 26057.95, -65795.73, 17281.77, -20449.14, 25497.93, 31436.52, 1072.28, 2745.42, -0.02, 0.96, 0.22
88, 23844.39, -67639.53, 17325.46, -20524.24, 25165.92, 30999.03, 1505.48, 3160.45, 0.00, 0.00, 0.00
89, 29303.78, -63631.10, 20215.65, -21265.09, 27111.35, 32212.01, 1213.21, 3232.89, 0.00, 0.00, 0.00
90, 32090.31, -61305.11, 20510.50, -21277.83, 27710.64, 32806.41, 787.34, 2852.62, 0.00, 0.00, 0.00
91, 27220.76, -64813.51, 17714.40, -20546.26, 25828.00, 31678.77, 974.40, 2695.22, 0.00, 0.00, 0.00
92, 23466.51, -67784.28, 16922.19, -20414.34, 24939.49, 30890.58, 1456.53, 3066.50, 0.00, 0.00, 0.00
93, 28186.80, -64381.29, 19751.65, -21153.73, 26730.74, 31945.18, 1286.75, 3259.96, 0.00, 0.00, 0.00
94, 32173.99, -61176.16, 20755.63, -21349.54, 27818.53, 32840.72, 828.60, 2945.40, 0.00, 0.00, 0.00
95, 28416.08, -63805.78, 18261.49, -20677.35, 26208.27, 31949.22, 897.15, 2687.64, 0.00, 0.00, 0.00
96, 23448.41, -67642.57, 16702.74, -20340.15, 24840.12, 30890.20, 1404.14, 3007.58, 0.00, 0.00, 0.00
97, 27036.47, -65138.37, 19224.73, -21025.30, 26337.30, 31687.75, 1365.11, 3291.09, -0.02, 0.95, 0.22
98, 31931.12, -61310.86, 20841.73, -21391.36, 27822.62, 32775.46, 881.87, 3005.15, 0.00, 0.00, 0.00
99, 29508.95, -62897.49, 18799.45, -20833.12, 26639.72, 32198.87, 834.26, 2694.50, 0.00, 0.00, 0.00
100, 23745.55, -67277.83, 16613.34, -20320.53, 24915.09, 30951.64, 1323.04, 2901.46, 0.00, 0.00, 0.00
101, 25940.43, -65832.45, 18664.64, -20897.61, 26029.50, 31475.30, 1437.19, 3263.71, 0.00, 0.00, 0.00
102, 31500.63, -61561.71, 20845.71, -21410.51, 27808.05, 32719.00, 953.82, 3095.49, 0.00, 0.00, 0.00
103, 30454.09, -62096.30, 19313.70, -20968.19, 27048.58, 32432.38, 784.14, 2743.86, 0.00, 0.00, 0.00
104, 24364.03, -66668.14, 16696.75, -20335.68, 25081.76, 31085.78, 1233.95, 2842.90, 0.00, 0.00, 0.00
105, 24918.01, -66462.28, 18072.19, -20752.97, 25672.77, 31256.32, 1473.90, 3247.22, 0.00, 0.00, 0.00
106, 30775.36, -62045.02, 20667.03, -21396.81, 27597.09, 32556.23, 1015.86, 3170.57, 0.00, 0.00, 0.00
107, 31244.09, -61435.24, 19802.10, -21107.38, 27333.10, 32616.31, 757.90, 2768.22, -0.02, 0.95, 0.22
108, 25290.64, -65840.91, 16959.21, -20388.52, 25269.25, 31290.29, 1136.56, 2757.56, 0.00, 0.00, 0.00
109, 24156.22, -66893.45, 17554.08, -20608.78, 25300.56, 31083.65, 1495.96, 3177.70, 0.00, 0.00, 0.00
110, 29899.17, -62629.41, 20381.50, -21319.00, 27279.59, 32355.06, 1141.03, 3188.32, 0.00, 0.00, 0.00
111, 31800.56, -60953.32, 20205.22, -21212.86, 27535.25, 32740.25, 777.57, 2797.68, 0.00, 0.00, 0.00
112, 26377.34, -64912.44, 17340.46, -20467.96, 25540.24, 31499.84, 1043.85, 2706.73, 0.00, 0.00, 0.00
113, 23598.77, -67176.84, 17116.63, -20478.24, 25009.41, 30932.22, 1499.58, 3117.80, 0.00, 0.00, 0.00
114, 28849.75, -63344.15, 20019.99, -21233.20, 26919.46, 32100.43, 1235.34, 3242.48, 0.00, 0.00, 0.00
115, 32072.88, -60693.19, 20567.61, -21318.24, 27697.34, 32805.03, 780.77, 2870.34, 0.00, 0.00, 0.00
116, 27582.41, -63892.64, 17870.35, -20612.64, 25916.15, 31777.07, 928.67, 2653.11, 0.00, 0.00, 0.00
117, 23390.43, -67175.20, 16811.60, -20402.56, 24868.68, 30900.01, 1436.35, 3009.71, -0.01, 0.95, 0.22
118, 27763.93, -64045.93, 19556.84, -21128.34, 26588.54, 31884.14, 1309.72, 3245.38, 0.00, 0.00, 0.00
119, 32077.19, -60622.87, 20769.55, -21376.25, 27820.52, 32823.13, 816.58, 2922.94, 0.00, 0.00, 0.00
120, 28742.40, -62923.40, 18415.85, -20747.00, 26360.15, 32025.00, 839.82, 2626.55, 0.00, 0.00, 0.00
121, 23492.04, -66953.91, 16642.73, -20354.53, 24872.78, 30906.36, 1357.85, 2901.84, 0.00, 0.00, 0.00
122, 26649.04, -64770.41, 19032.04, -21013.25, 26251.94, 31630.71, 1368.84, 3233.14, 0.00, 0.00, 0.00
123, 31828.23, -60744.93, 20868.10, -21424.21, 27842.31, 32781.18, 885.75, 3016.21, 0.00, 0.00, 0.00
124, 29888.51, -61959.91, 19003.63, -20904.13, 26787.71, 32306.36, 776.97, 2689.38, 0.00, 0.00, 0.00
125, 23956.38, -66451.47, 16638.30, -20336.67, 24940.90, 31011.37, 1269.56, 2858.34, 0.00, 0.00, 0.00
126, 25611.48, -65417.99, 18468.26, -20852.88, 25877.37, 31407.13, 1477.85, 3220.91, 0.00, 0.00, 0.00
127, 31303.24, -61073.95, 20804.62, -21409.30, 27714.44, 32672.66, 1008.24, 3077.88, -0.02, 0.95, 0.22
128, 30810.25, -61188.21, 19533.79, -21022.02, 27119.57, 32520.56, 797.49, 2735.47, 0.00, 0.00, 0.00
129, 24726.01, -65733.35, 16828.25, -20353.19, 25096.29, 31181.55, 1200.89, 2826.29, 0.00, 0.00, 0.00
130, 24712.51, -65947.79, 17941.43, -20702.63, 25507.97, 31225.05, 1484.89, 3233.25, 0.00, 0.00, 0.00
131, 30569.52, -61545.79, 20639.67, -21365.14, 27474.72, 32519.91, 1083.12, 3170.62, 0.00, 0.00, 0.00
132, 31544.14, -60555.97, 20018.76, -21150.27, 27384.64, 32700.24, 766.75, 2788.85, 0.00, 0.00, 0.00
133, 25694.80, -64877.81, 17131.47, -20414.70, 25311.70, 31383.48, 1093.69, 2782.86, 0.00, 0.00, 0.00
134, 23977.86, -66358.66, 17444.40, -20566.71, 25185.59, 31058.11, 1490.35, 3182.42, 0.00, 0.00, 0.00
135, 29624.31, -62177.32, 20334.48, -21296.90, 27202.56, 32316.53, 1178.72, 3215.23, 0.00, 0.00, 0.00
136, 32023.70, -60131.71, 20425.74, -21260.69, 27649.73, 32825.10, 778.67, 2821.15, 0.00, 0.00, 0.00
137, 26827.03, -63921.41, 17571.26, -20525.40, 25664.45, 31621.21, 990.83, 2667.32, -0.02, 0.95, 0.22
138, 23517.83, -66570.53, 17033.68, -20461.28, 24976.38, 30948.52, 1468.96, 3081.81, 0.00, 0.00, 0.00
139, 28601.85, -62852.23, 19922.33, -21219.67, 26916.08, 32112.75, 1267.32, 3275.00, 0.00, 0.00, 0.00
140, 32278.29, -59867.31, 20713.74, -21352.69, 27846.34, 32925.21, 823.28, 2907.02, 0.00, 0.00, 0.00
141, 28031.34, -62910.03, 18068.68, -20637.46, 26051.65, 31898.20, 945.79, 2668.53, 0.00, 0.00, 0.00
142, 23351.76, -66559.45, 16726.28, -20374.38, 24831.40, 30906.72, 1442.74, 3017.71, 0.00, 0.00, 0.00
143, 27450.78, -63621.22, 19391.03, -21094.88, 26543.59, 31856.04, 1356.06, 3281.64, 0.00, 0.00, 0.00
144, 32182.22, -59886.40, 20835.16, -21396.25, 27906.55, 32900.38, 884.46, 2998.55, 0.00, 0.00, 0.00
145, 29206.64, -61933.46, 18587.87, -20787.63, 26446.65, 32163.31, 873.71, 2692.98, 0.00, 0.00, 0.00
146, 23514.35, -66311.27, 16553.28, -20307.32, 24757.42, 30914.52, 1392.11, 2949.67, 0.00, 0.00, 0.00
147, 26332.46, -64349.30, 18830.63, -20949.42, 26150.18, 31606.24, 1447.10, 3308.86, -0.03, 0.96, 0.22
148, 31904.34, -60014.12, 20890.68, -21433.85, 27892.92, 32861.67, 933.34, 3060.18, 0.00, 0.00, 0.00
149, 30275.53, -61034.48, 19133.99, -20925.46, 26809.46, 32400.19, 795.68, 2656.53, 0.00, 0.00, 0.00
150, 23949.13, -65864.51, 16555.09, -20296.08, 24756.48, 30965.39, 1270.88, 2840.62, 0.00, 0.00, 0.00
151, 25229.49, -65063.89, 18257.89, -20815.58, 25741.59, 31349.26, 1483.71, 3287.99, 0.00, 0.00, 0.00
152, 31325.14, -60379.93, 20816.63, -21424.55, 27781.79, 32744.86, 1030.39, 3183.25, 0.00, 0.00, 0.00
153, 31176.32, -60271.97, 19668.01, -21051.19, 27189.71, 32618.06, 789.93, 2763.48, 0.00, 0.00, 0.00
154, 24741.53, -65143.11, 16760.81, -20326.23, 24943.36, 31130.19, 1191.46, 2783.93, 0.00, 0.00, 0.00
155, 24281.64, -65659.27, 17709.62, -20658.40, 25383.65, 31125.12, 1518.44, 3246.01, 0.00, 0.00, 0.00
156, 30527.68, -60904.01, 20625.21, -21390.04, 27616.61, 32582.79, 1108.07, 3249.18, 0.00, 0.00, 0.00
157, 31913.93, -59628.46, 20173.88, -21184.11, 27554.02, 32817.23, 774.91, 2804.76, -0.02, 0.96, 0.22
158, 25774.44, -64245.13, 17117.59, -20394.00, 25226.42, 31350.76, 1105.47, 2759.17, 0.00, 0.00, 0.00
159, 23526.71, -66109.84, 17211.13, -20510.72, 25041.42, 30939.13, 1556.69, 3239.80, 0.00, 0.00, 0.00
160, 29479.58, -61624.85, 20274.55, -21301.68, 27312.18, 32328.69, 1233.88, 3329.96, 0.00, 0.00, 0.00
161, 32342.95, -59228.07, 20548.47, -21298.33, 27826.60, 32924.23, 792.73, 2912.12, 0.00, 0.00, 0.00
162, 26975.94, -63213.91, 17584.70, -20496.48, 25604.41, 31605.37, 1028.49, 2732.48, 0.00, 0.00, 0.00
163, 23075.65, -66317.31, 16816.98, -20383.92, 24766.83, 30811.39, 1547.05, 3157.21, 0.00, 0.00, 0.00
164, 28329.18, -62399.68, 19829.37, -21209.03, 26915.59, 32086.96, 1316.81, 3344.76, 0.00, 0.00, 0.00
165, 32499.12, -59031.98, 20826.68, -21392.50, 27967.57, 32996.43, 799.50, 2951.84, 0.00, 0.00, 0.00
166, 28278.20, -62105.82, 18138.24, -20653.68, 26021.81, 31910.33, 903.59, 2677.56, 0.00, 0.00, 0.00
167, 23035.51, -66203.48, 16534.66, -20309.96, 24591.52, 30769.19, 1463.75, 3030.76, -0.01, 0.96, 0.22
168, 27033.00, -63293.63, 19231.60, -21050.71, 26419.63, 31750.25, 1407.04, 3342.73, 0.00, 0.00, 0.00
169, 32215.32, -59203.76, 20918.19, -21418.87, 27956.20, 32913.19, 887.83, 3036.06, 0.00, 0.00, 0.00
170, 29474.78, -61105.67, 18737.94, -20802.41, 26488.11, 32185.93, 850.13, 2688.40, 0.00, 0.00, 0.00
171, 23419.71, -65770.50, 16499.72, -20275.87, 24645.41, 30842.68, 1381.05, 2938.78, 0.00, 0.00, 0.00
172, 25919.10, -64030.79, 18694.53, -20910.10, 26037.32, 31502.06, 1471.82, 3336.69, 0.00, 0.00, 0.00
173, 31764.94, -59494.39, 20953.02, -21445.65, 27926.07, 32839.54, 942.84, 3131.28, 0.00, 0.00, 0.00
174, 30569.25, -60192.78, 19357.93, -20969.71, 26974.33, 32475.61, 775.85, 2727.76, 0.00, 0.00, 0.00
175, 24164.65, -65070.93, 16642.79, -20285.41, 24860.59, 31013.85, 1285.58, 2861.72, 0.00, 0.00, 0.00
176, 24930.22, -64658.21, 18124.45, -20745.99, 25692.64, 31288.96, 1538.11, 3305.31, 0.00, 0.00, 0.00
177, 31050.82, -59982.94, 20787.12, -21404.83, 27763.41, 32684.31, 1051.18, 3167.58, -0.02, 0.97, 0.22
178, 31394.16, -59503.05, 19859.44, -21096.22, 27347.89, 32669.82, 778.09, 2741.96, 0.00, 0.00, 0.00
179, 25137.44, -64213.16, 16918.91, -20349.99, 25112.05, 31215.10, 1175.39, 2752.48, 0.00, 0.00, 0.00
180, 24105.08, -65162.98, 17576.45, -20614.83, 25307.63, 31074.27, 1525.35, 3204.90, 0.00, 0.00, 0.00
181, 30146.67, -60605.97, 20503.48, -21358.10, 27459.77, 32476.70, 1152.59, 3234.54, 0.00, 0.00, 0.00
182, 32039.08, -58947.56, 20308.48, -21230.54, 27609.14, 32852.88, 781.10, 2840.82, 0.00, 0.00, 0.00
183, 26380.44, -63142.94, 17345.54, -20465.53, 25420.59, 31516.92, 1051.22, 2705.30, 0.00, 0.00, 0.00
184, 23620.52, -65382.18, 17121.39, -20490.60, 24980.73, 30976.05, 1503.24, 3127.19, 0.00, 0.00, 0.00
185, 29101.95, -61315.88, 20083.87, -21256.75, 27055.76, 32243.64, 1246.98, 3290.91, 0.00, 0.00, 0.00
186, 32331.71, -58668.25, 20624.60, -21315.79, 27763.75, 32931.14, 812.49, 2936.42, 0.00, 0.00, 0.00
187, 27626.60, -62094.86, 17861.57, -20582.87, 25816.80, 31792.65, 986.87, 2758.74, -0.02, 0.97, 0.21
188, 23416.56, -65396.64, 16803.86, -20396.53, 24821.48, 30925.52, 1494.57, 3133.54, 0.00, 0.00, 0.00
189, 27977.74, -62070.32, 19608.87, -21142.76, 26695.74, 32008.81, 1336.57, 3350.55, 0.00, 0.00, 0.00
190, 32348.25, -58596.71, 20817.45, -21386.71, 27884.45, 32968.40, 844.09, 3007.87, 0.00, 0.00, 0.00
191, 28906.39, -61021.22, 18408.52, -20735.09, 26286.54, 32108.26, 877.44, 2731.56, 0.00, 0.00, 0.00
192, 23599.91, -65108.59, 16614.74, -20334.19, 24804.87, 30967.85, 1392.63, 3028.95, 0.00, 0.00, 0.00
193, 26855.60, -62802.99, 19023.48, -21005.92, 26328.70, 31770.95, 1411.80, 3337.29, 0.00, 0.00, 0.00
194, 32065.52, -58745.75, 20848.66, -21408.21, 27900.70, 32934.36, 929.09, 3078.26, 0.00, 0.00, 0.00
195, 30037.73, -60076.10, 18953.12, -20864.88, 26717.66, 32372.77, 845.43, 2745.67, 0.00, 0.00, 0.00
196, 24095.36, -64589.70, 16601.38, -20315.86, 24872.26, 31064.48, 1324.97, 2923.88, 0.00, 0.00, 0.00
197, 25804.02, -63465.70, 18433.08, -20853.78, 25935.11, 31534.49, 1463.50, 3299.92, -0.01, 0.96, 0.21
198, 31510.46, -59098.10, 20755.47, -21408.43, 27777.61, 32814.93, 990.54, 3138.59, 0.00, 0.00, 0.00
199, 30990.78, -59279.75, 19469.46, -21011.91, 27082.78, 32595.39, 797.22, 2763.26, 0.00, 0.00, 0.00
200, 24879.50, -63879.25, 16755.38, -20343.91, 25021.01, 31217.99, 1234.71, 2853.51, 0.00, 0.00, 0.00
201, 24917.84, -63999.79, 17874.27, -20707.17, 25595.47, 31348.32, 1523.74, 3283.18, 0.00, 0.00, 0.00
202, 30767.78, -59576.16, 20543.24, -21358.05, 27593.43, 32670.27, 1103.53, 3194.85, 0.00, 0.00, 0.00
203, 31727.36, -58644.20, 19933.78, -21137.35, 27387.17, 32790.12, 803.68, 2804.34, 0.00, 0.00, 0.00
204, 25910.90, -62981.38, 17071.84, -20423.75, 25258.70, 31439.38, 1118.68, 2789.30, 0.00, 0.00, 0.00
205, 24245.43, -64374.68, 17375.57, -20582.63, 25253.76, 31194.18, 1513.64, 3223.88, 0.00, 0.00, 0.00
206, 29857.59, -60184.57, 20228.62, -21293.10, 27282.78, 32487.32, 1196.06, 3264.09, 0.00, 0.00, 0.00
207, 32211.59, -58206.87, 20319.54, -21244.86, 27613.28, 32941.80, 795.97, 2842.83, -0.01, 0.96, 0.21
208, 27070.15, -61993.21, 17507.32, -20508.28, 25578.42, 31700.74, 1022.19, 2684.35, 0.00, 0.00, 0.00
209, 23810.42, -64576.96, 16976.71, -20451.04, 24987.82, 31068.86, 1493.50, 3107.36, 0.00, 0.00, 0.00
210, 28791.42, -60899.61, 19803.58, -21186.39, 26958.79, 32252.76, 1291.06, 3328.60, 0.00, 0.00, 0.00
211, 32401.06, -57995.98, 20594.03, -21320.57, 27792.92, 33013.70, 838.35, 2965.36, 0.00, 0.00, 0.00
212, 28276.50, -60981.08, 18023.62, -20636.05, 25972.75, 31969.56, 938.95, 2706.95, 0.00, 0.00, 0.00
213, 23713.26, -64513.39, 16708.89, -20377.84, 24846.85, 31038.53, 1444.84, 3054.08, 0.00, 0.00, 0.00
214, 27716.59, -61601.96, 19320.24, -21087.48, 26597.32, 32028.78, 1352.77, 3305.69, 0.00, 0.00, 0.00
215, 32346.44, -57959.34, 20764.46, -21401.82, 27877.27, 33044.80, 854.71, 2974.91, 0.00, 0.00, 0.00
216, 29476.25, -59964.21, 18581.94, -20780.39, 26401.72, 32272.88, 858.93, 2681.49, 0.00, 0.00, 0.00
217, 23995.20, -64154.02, 16601.62, -20336.38, 24820.63, 31112.93, 1374.59, 2968.94, -0.02, 0.96, 0.21
218, 26629.93, -62306.54, 18764.54, -20925.03, 26192.47, 31794.86, 1447.59, 3324.46, 0.00, 0.00, 0.00
219, 31980.43, -58169.45, 20774.94, -21389.10, 27832.68, 32982.57, 961.35, 3101.22, 0.00, 0.00, 0.00
220, 30548.80, -59050.71, 19132.82, -20920.12, 26809.26, 32554.85, 822.52, 2709.99, 0.00, 0.00, 0.00
221, 24551.20, -63593.15, 16636.56, -20315.03, 24884.40, 31214.46, 1290.54, 2857.83, 0.00, 0.00, 0.00
222, 25628.26, -62931.60, 18193.92, -20783.23, 25788.19, 31559.63, 1498.64, 3275.72, 0.00, 0.00, 0.00
223, 31359.32, -58568.05, 20642.30, -21377.81, 27659.88, 32846.47, 1045.53, 3119.70, 0.00, 0.00, 0.00
224, 31335.74, -58383.74, 19600.00, -21027.34, 27131.13, 32722.48, 826.63, 2762.30, 0.00, 0.00, 0.00
225, 25346.52, -62873.38, 16839.96, -20340.20, 25081.90, 31352.63, 1216.14, 2816.34, 0.00, 0.00, 0.00
226, 24770.67, -63459.26, 17662.30, -20639.76, 25451.21, 31338.84, 1526.87, 3255.13, 0.00, 0.00, 0.00
227, 30521.93, -59138.89, 20389.08, -21320.93, 27448.77, 32644.95, 1145.01, 3232.49, -0.02, 0.97, 0.21
228, 31984.27, -57821.50, 20024.70, -21163.66, 27466.47, 32894.82, 819.48, 2826.94, 0.00, 0.00, 0.00
229, 26439.92, -61917.48, 17180.18, -20438.35, 25413.33, 31607.02, 1094.01, 2752.06, 0.00, 0.00, 0.00
230, 24182.98, -63761.81, 17176.64, -20510.41, 25171.88, 31193.13, 1511.45, 3174.26, 0.00, 0.00, 0.00
231, 29555.62, -59785.89, 20019.63, -21240.62, 27141.41, 32415.57, 1226.64, 3242.32, 0.00, 0.00, 0.00
232, 32358.73, -57466.40, 20358.24, -21263.39, 27679.62, 32997.90, 807.32, 2866.92, 0.00, 0.00, 0.00
233, 27598.35, -60925.71, 17622.83, -20535.60, 25772.66, 31856.06, 1012.33, 2713.43, 0.00, 0.00, 0.00
234, 23846.49, -63875.27, 16791.17, -20386.64, 24953.53, 31086.65, 1521.33, 3092.88, 0.00, 0.00, 0.00
235, 28467.05, -60510.21, 19559.29, -21126.58, 26765.39, 32167.91, 1345.42, 3271.36, 0.00, 0.00, 0.00
236, 32441.75, -57340.05, 20581.24, -21324.21, 27777.81, 33024.68, 874.78, 2955.33, 0.00, 0.00, 0.00
237, 28781.65, -59926.23, 18147.78, -20663.83, 26146.35, 32121.09, 936.18, 2707.49, -0.02, 0.95, 0.21
238, 23904.94, -63678.26, 16601.24, -20336.80, 24834.71, 31100.75, 1420.32, 3002.02, 0.00, 0.00, 0.00
239, 27414.19, -61189.06, 19056.78, -20994.59, 26361.18, 31930.05, 1394.73, 3299.92, 0.00, 0.00, 0.00
240, 32262.91, -57410.54, 20679.21, -21349.89, 27771.62, 32986.12, 917.99, 3053.05, 0.00, 0.00, 0.00
241, 29913.23, -58978.03, 18686.91, -20802.34, 26531.70, 32372.54, 866.22, 2712.32, 0.00, 0.00, 0.00
242, 24251.40, -63278.73, 16522.61, -20293.06, 24838.60, 31150.31, 1362.41, 2933.02, 0.00, 0.00, 0.00
243, 26325.79, -61889.79, 18486.63, -20848.07, 25969.82, 31679.24, 1466.30, 3292.95, 0.00, 0.00, 0.00
244, 31812.14, -57680.39, 20662.55, -21373.12, 27698.26, 32915.49, 990.43, 3109.08, 0.00, 0.00, 0.00
245, 30891.29, -58150.05, 19235.49, -20930.42, 26924.20, 32624.96, 827.73, 2770.25, 0.00, 0.00, 0.00
246, 24933.35, -62620.33, 16662.67, -20307.70, 24993.92, 31303.77, 1243.47, 2865.47, 0.00, 0.00, 0.00
247, 25444.20, -62407.79, 17983.52, -20725.41, 25645.50, 31504.92, 1480.76, 3273.44, -0.02, 0.95, 0.21
248, 31146.13, -58106.20, 20523.62, -21334.78, 27542.06, 32775.55, 1084.93, 3181.55, 0.00, 0.00, 0.00
249, 31671.59, -57477.80, 19723.85, -21072.24, 27265.35, 32820.29, 812.93, 2785.27, 0.00, 0.00, 0.00
250, 25849.70, -61797.74, 16926.53, -20367.36, 25241.24, 31493.81, 1149.97, 2778.77, 0.00, 0.00, 0.00
251, 24657.30, -62863.70, 17459.84, -20574.36, 25335.95, 31306.75, 1516.19, 3194.62, 0.00, 0.00, 0.00
252, 30245.57, -58707.01, 20235.35, -21281.74, 27290.52, 32568.68, 1167.61, 3212.59, 0.00, 0.00, 0.00
253, 32155.67, -57049.38, 20112.79, -21175.91, 27515.02, 32941.31, 804.06, 2849.58, 0.00, 0.00, 0.00
254, 26885.71, -60909.66, 17318.82, -20445.63, 25551.55, 31711.71, 1064.79, 2748.50, 0.00, 0.00, 0.00
255, 24129.49, -63117.77, 17048.35, -20459.78, 25105.34, 31194.00, 1489.32, 3143.64, 0.00, 0.00, 0.00
0, 29198.48, -59398.95, 19848.59, -21174.57, 26999.36, 32347.96, 1255.43, 3263.60, 0.00, 0.00, 0.00
1, 32392.84, -56805.75, 20424.20, -21263.08, 27701.46, 33013.59, 837.23, 2896.65, -0.02, 0.95, 0.21
2, 28051.51, -59940.54, 17810.50, -20580.30, 25881.46, 31962.14, 969.04, 2695.22, 0.00, 0.00, 0.00
3, 23908.99, -63157.00, 16725.16, -20369.32, 24923.89, 31127.17, 1452.33, 3061.41, 0.00, 0.00, 0.00
4, 28107.38, -60104.18, 19360.66, -21064.93, 26691.80, 32138.32, 1336.61, 3309.60, 0.00, 0.00, 0.00
5, 32370.89, -56746.16, 20601.85, -21311.47, 27812.19, 33052.26, 873.37, 2988.56, 0.00, 0.00, 0.00
6, 29173.14, -59012.14, 18349.91, -20694.67, 26237.21, 32211.41, 892.42, 2689.18, 0.00, 0.00, 0.00
7, 24002.49, -62978.09, 16584.41, -20309.73, 24809.74, 31113.38, 1383.28, 2971.44, 0.00, 0.00, 0.00
8, 27024.04, -60807.74, 18857.54, -20947.36, 26332.23, 31916.12, 1397.57, 3285.35, 0.00, 0.00, 0.00
9, 32130.38, -56843.86, 20687.52, -21361.34, 27842.36, 33051.03, 929.18, 3054.84, 0.00, 0.00, 0.00
10, 30281.88, -58072.40, 18896.75, -20850.11, 26640.28, 32496.44, 836.11, 2704.14, 0.00, 0.00, 0.00
11, 24442.28, -62524.82, 16561.55, -20288.37, 24808.16, 31175.50, 1294.14, 2873.74, -0.02, 0.96, 0.21
12, 25989.83, -61471.99, 18297.99, -20811.96, 25937.63, 31670.10, 1452.24, 3281.44, 0.00, 0.00, 0.00
13, 31595.17, -57166.91, 20621.96, -21371.53, 27761.47, 32958.50, 989.96, 3156.02, 0.00, 0.00, 0.00
14, 31159.43, -57327.17, 19427.00, -20988.60, 27014.12, 32709.45, 784.61, 2763.17, 0.00, 0.00, 0.00
15, 25194.48, -61843.92, 16771.32, -20324.46, 24960.30, 31318.95, 1205.38, 2809.68, 0.00, 0.00, 0.00
16, 25120.43, -62007.89, 17794.85, -20666.69, 25609.00, 31470.72, 1498.33, 3258.21, 0.00, 0.00, 0.00
17, 30830.07, -57665.55, 20413.85, -21305.95, 27632.28, 32799.08, 1089.40, 3229.83, 0.00, 0.00, 0.00
18, 31830.58, -56737.87, 19862.83, -21085.34, 27373.69, 32881.83, 777.13, 2820.45, 0.00, 0.00, 0.00
19, 26128.32, -61041.41, 17061.58, -20363.27, 25195.49, 31478.50, 1108.51, 2776.73, 0.00, 0.00, 0.00
20, 24415.35, -62440.33, 17311.52, -20524.64, 25270.17, 31261.35, 1514.49, 3231.08, 0.00, 0.00, 0.00
21, 29904.22, -58277.84, 20099.98, -21236.48, 27388.02, 32607.80, 1185.09, 3272.92, -0.02, 0.95, 0.21
22, 32286.22, -56301.92, 20241.02, -21195.73, 27647.16, 33040.14, 792.30, 2840.21, 0.00, 0.00, 0.00
23, 27275.01, -60057.28, 17509.60, -20468.59, 25505.62, 31745.98, 1027.69, 2685.47, 0.00, 0.00, 0.00
24, 24006.18, -62636.11, 16933.64, -20417.51, 24950.49, 31134.77, 1481.99, 3097.84, 0.00, 0.00, 0.00
25, 28851.05, -58993.23, 19678.90, -21149.51, 26992.64, 32371.56, 1258.49, 3261.23, 0.00, 0.00, 0.00
26, 32457.95, -56101.07, 20505.45, -21280.87, 27774.52, 33114.64, 810.72, 2862.14, 0.00, 0.00, 0.00
27, 28446.57, -59065.98, 18025.99, -20599.75, 25846.01, 32019.05, 920.36, 2629.46, 0.00, 0.00, 0.00
28, 23890.06, -62621.94, 16704.08, -20340.04, 24705.94, 31059.00, 1419.29, 3033.51, 0.00, 0.00, 0.00
29, 27735.96, -59731.61, 19212.44, -21032.16, 26642.00, 32131.21, 1352.37, 3318.18, 0.00, 0.00, 0.00
30, 32359.94, -56071.76, 20667.67, -21345.29, 27938.49, 33167.55, 871.67, 3004.90, 0.00, 0.00, 0.00
31, 29591.99, -58086.93, 18575.55, -20744.36, 26311.00, 32319.46, 854.91, 2682.19, -0.01, 0.96, 0.21
32, 24118.74, -62340.40, 16598.96, -20286.71, 24671.74, 31071.83, 1347.99, 2942.41, 0.00, 0.00, 0.00
33, 26677.74, -60453.64, 18677.09, -20907.24, 26279.75, 31867.82, 1396.49, 3305.53, 0.00, 0.00, 0.00
34, 31985.52, -56305.41, 20671.99, -21354.54, 27981.12, 33093.16, 944.58, 3074.66, 0.00, 0.00, 0.00
35, 30615.68, -57231.95, 19118.94, -20867.81, 26785.66, 32568.81, 847.15, 2728.43, 0.00, 0.00, 0.00
36, 24659.96, -61847.34, 16667.27, -20277.90, 24721.88, 31128.94, 1292.94, 2869.27, 0.00, 0.00, 0.00
37, 25692.44, -61129.31, 18154.35, -20772.21, 25859.16, 31597.72, 1472.38, 3318.85, 0.00, 0.00, 0.00
38, 31378.74, -56693.99, 20553.57, -21334.18, 27885.25, 32987.38, 1043.27, 3189.28, 0.00, 0.00, 0.00
39, 31430.82, -56512.18, 19589.43, -20993.79, 27159.11, 32800.49, 806.00, 2748.80, 0.00, 0.00, 0.00
40, 25444.64, -61151.40, 16876.44, -20296.99, 24802.21, 31257.60, 1191.59, 2772.20, 0.00, 0.00, 0.00
41, 24754.36, -61779.26, 17608.86, -20585.89, 25325.60, 31282.14, 1515.07, 3259.93, -0.02, 0.96, 0.21
42, 30476.18, -57326.52, 20291.54, -21272.31, 27601.88, 32755.01, 1134.28, 3262.84, 0.00, 0.00, 0.00
43, 31984.32, -56007.57, 19988.79, -21106.46, 27458.85, 32958.74, 789.91, 2813.08, 0.00, 0.00, 0.00
44, 26429.13, -60309.25, 17212.72, -20372.41, 25007.51, 31444.50, 1084.53, 2687.86, 0.00, 0.00, 0.00
45, 24098.20, -62215.45, 17150.83, -20462.78, 24873.91, 31046.75, 1508.25, 3148.67, 0.00, 0.00, 0.00
46, 29477.01, -58020.90, 19927.81, -21212.52, 27300.82, 32538.64, 1223.62, 3304.35, 0.00, 0.00, 0.00
47, 32365.32, -55626.74, 20320.73, -21230.18, 27774.66, 33135.41, 814.05, 2892.56, 0.00, 0.00, 0.00
48, 27613.81, -59287.29, 17664.76, -20491.61, 25430.96, 31758.14, 996.53, 2634.47, 0.00, 0.00, 0.00
49, 23775.55, -62387.32, 16810.03, -20351.40, 24589.60, 30916.42, 1471.71, 3067.58, 0.00, 0.00, 0.00
50, 28357.99, -58826.23, 19466.47, -21096.98, 26970.35, 32256.11, 1300.78, 3341.72, 0.00, 0.00, 0.00
51, 32416.96, -55496.72, 20504.06, -21299.96, 28093.57, 33221.91, 832.07, 2987.15, -0.01, 0.95, 0.21
52, 28766.92, -58273.07, 18151.34, -20626.79, 25999.57, 32089.97, 896.10, 2665.07, 0.00, 0.00, 0.00
53, 23749.82, -62303.70, 16585.69, -20280.68, 24460.59, 30870.69, 1413.86, 2968.11, 0.00, 0.00, 0.00
54, 27194.88, -59668.89, 18939.44, -20965.98, 26512.59, 31935.12, 1383.64, 3317.40, 0.00, 0.00, 0.00
55, 32183.09, -55633.78, 20601.60, -21346.36, 28160.07, 33183.20, 878.33, 3054.99, 0.00, 0.00, 0.00
56, 29880.68, -57324.67, 18705.46, -20775.25, 26481.14, 32390.63, 809.69, 2674.39, 0.00, 0.00, 0.00
57, 24063.11, -61988.96, 16549.14, -20234.94, 24348.11, 30879.72, 1363.08, 2880.60, 0.00, 0.00, 0.00
58, 26140.61, -60438.85, 18450.20, -20832.34, 25979.68, 31642.56, 1464.11, 3347.40, 0.00, 0.00, 0.00
59, 31732.64, -55942.08, 20593.40, -21348.73, 28066.17, 33111.52, 964.39, 3154.90, 0.00, 0.00, 0.00
60, 30847.31, -56497.18, 19226.48, -20902.12, 26908.17, 32681.24, 811.50, 2703.96, 0.00, 0.00, 0.00
61, 24726.50, -61380.32, 16674.18, -20243.62, 24418.01, 31022.43, 1267.41, 2776.13, -0.01, 0.95, 0.21
62, 25121.66, -61188.17, 17895.32, -20679.90, 25418.83, 31321.99, 1502.24, 3292.14, 0.00, 0.00, 0.00
63, 30968.99, -56492.76, 20394.87, -21331.21, 27908.61, 32943.90, 1049.97, 3279.14, 0.00, 0.00, 0.00
64, 31601.48, -55810.23, 19666.12, -21059.92, 27427.56, 32961.67, 764.63, 2814.64, 0.00, 0.00, 0.00
65, 25662.57, -60521.64, 16920.11, -20321.65, 24756.46, 31285.78, 1125.23, 2733.35, 0.00, 0.00, 0.00
66, 24353.48, -61699.73, 17387.73, -20543.02, 25016.00, 31097.85, 1503.62, 3218.11, 0.00, 0.00, 0.00
67, 30082.25, -57134.99, 20121.08, -21270.23, 27666.56, 32736.45, 1144.92, 3303.41, 0.00, 0.00, 0.00
68, 32133.04, -55324.84, 20061.38, -21163.99, 27833.46, 33155.59, 765.61, 2871.77, 0.00, 0.00, 0.00
69, 26758.44, -59555.08, 17313.13, -20401.58, 25187.62, 31572.13, 1031.73, 2691.62, 0.00, 0.00, 0.00
70, 23824.23, -62027.59, 16993.32, -20408.82, 24660.88, 30920.20, 1489.97, 3138.12, 0.00, 0.00, 0.00
71, 28974.97, -57966.43, 19741.80, -21160.02, 27259.87, 32425.70, 1243.74, 3341.54, -0.01, 0.95, 0.21
72, 32318.23, -55134.71, 20354.62, -21236.03, 28084.77, 33225.93, 807.17, 2957.16, 0.00, 0.00, 0.00
73, 27884.18, -58576.88, 17803.86, -20504.06, 25658.44, 31868.58, 969.80, 2674.21, 0.00, 0.00, 0.00
74, 23567.21, -62147.21, 16719.24, -20294.36, 24375.65, 30794.31, 1480.67, 3062.66, 0.00, 0.00, 0.00
75, 27836.93, -58818.25, 19294.00, -21042.02, 26778.71, 32105.13, 1356.04, 3401.33, 0.00, 0.00, 0.00
76, 32305.73, -55097.45, 20537.03, -21312.25, 28224.13, 33273.95, 868.72, 3075.22, 0.00, 0.00, 0.00
77, 29091.76, -57531.46, 18311.78, -20651.71, 26168.37, 32223.53, 896.13, 2699.55, 0.00, 0.00, 0.00
78, 23698.28, -61945.60, 16535.87, -20239.08, 24222.09, 30789.88, 1409.03, 2961.56, 0.00, 0.00, 0.00
79, 26700.14, -59662.44, 18755.19, -20908.18, 26221.95, 31768.42, 1417.19, 3375.69, 0.00, 0.00, 0.00
80, 31988.12, -55310.04, 20582.78, -21346.94, 28218.65, 33214.76, 912.04, 3132.95, 0.00, 0.00, 0.00
81, 30176.69, -56588.67, 18859.22, -20801.54, 26709.28, 32555.00, 841.90, 2722.24, -0.01, 0.96, 0.21
82, 24180.96, -61453.13, 16569.26, -20215.72, 24296.39, 30898.22, 1331.23, 2869.27, 0.00, 0.00, 0.00
83, 25664.96, -60407.40, 18236.79, -20766.13, 25724.11, 31469.36, 1466.36, 3358.26, 0.00, 0.00, 0.00
84, 31414.44, -55733.43, 20508.53, -21345.51, 28110.92, 33064.67, 989.24, 3248.04, 0.00, 0.00, 0.00
85, 31074.89, -55814.18, 19358.80, -20955.63, 27211.75, 32828.48, 802.11, 2786.95, 0.00, 0.00, 0.00
86, 24939.76, -60750.50, 16728.96, -20244.89, 24517.74, 31084.03, 1239.47, 2779.37, 0.00, 0.00, 0.00
87, 24732.96, -61075.85, 17722.16, -20607.28, 25234.92, 31184.50, 1522.98, 3267.13, 0.00, 0.00, 0.00
88, 30604.03, -56347.76, 20329.27, -21299.29, 27863.04, 32856.13, 1080.73, 3248.33, 0.00, 0.00, 0.00
89, 31721.42, -55264.30, 19814.57, -21077.56, 27605.05, 33020.30, 766.49, 2804.65, 0.00, 0.00, 0.00
90, 25907.26, -59889.42, 17055.14, -20320.51, 24853.93, 31331.58, 1130.10, 2717.41, 0.00, 0.00, 0.00
91, 24036.15, -61537.61, 17270.54, -20479.47, 24813.10, 30969.21, 1522.60, 3231.86, -0.01, 0.96, 0.21
92, 29629.65, -57078.84, 20024.86, -21224.12, 27504.13, 32596.58, 1179.55, 3384.46, 0.00, 0.00, 0.00
93, 32141.65, -54884.53, 20187.07, -21175.75, 27910.71, 33170.55, 810.97, 2945.24, 0.00, 0.00, 0.00
94, 27036.04, -58895.55, 17466.32, -20406.54, 25289.28, 31635.54, 1054.13, 2723.07, 0.00, 0.00, 0.00
95, 23599.11, -61776.57, 16870.16, -20352.45, 24475.34, 30825.65, 1511.45, 3164.65, 0.00, 0.00, 0.00
96, 28543.13, -57877.49, 19585.22, -21132.90, 27050.10, 32308.87, 1273.13, 3405.36, 0.00, 0.00, 0.00
97, 32289.02, -54723.33, 20404.46, -21275.37, 28088.32, 33242.07, 804.57, 3034.14, 0.00, 0.00, 0.00
98, 28233.07, -57853.24, 17930.30, -20561.64, 25782.04, 31973.81, 908.29, 2736.39, 0.00, 0.00, 0.00
99, 23475.66, -61771.32, 16579.61, -20270.26, 24283.36, 30752.11, 1428.10, 3093.32, 0.00, 0.00, 0.00
100, 27367.54, -58755.96, 19072.09, -21000.38, 26577.18, 31972.13, 1358.43, 3445.57, 0.00, 0.00, 0.00
101, 32098.56, -54851.16, 20518.81, -21309.37, 28181.41, 33204.88, 874.80, 3119.43, -0.02, 0.96, 0.21
102, 29340.42, -56910.11, 18469.98, -20687.81, 26336.03, 32301.38, 876.77, 2721.97, 0.00, 0.00, 0.00
103, 23691.24, -61496.62, 16506.61, -20196.16, 24273.35, 30816.21, 1390.12, 2957.07, 0.00, 0.00, 0.00
104, 26192.55, -59597.37, 18557.51, -20839.29, 26081.71, 31695.42, 1434.02, 3412.55, 0.00, 0.00, 0.00
105, 31649.69, -55141.84, 20547.76, -21320.19, 28085.79, 33180.43, 939.69, 3227.08, 0.00, 0.00, 0.00
106, 30264.17, -56081.64, 18995.05, -20813.47, 26747.15, 32614.72, 815.79, 2785.43, 0.00, 0.00, 0.00
107, 24201.11, -60963.13, 16592.77, -20200.59, 24374.02, 30940.56, 1286.30, 2873.72, 0.00, 0.00, 0.00
108, 25133.15, -60349.91, 18046.31, -20687.10, 25623.57, 31376.13, 1497.50, 3353.92, 0.00, 0.00, 0.00
109, 30942.90, -55667.51, 20456.45, -21293.12, 28066.30, 32984.38, 1031.58, 3262.66, 0.00, 0.00, 0.00
110, 31087.34, -55391.96, 19528.74, -20948.03, 27376.95, 32853.55, 806.36, 2823.25, 0.00, 0.00, 0.00
111, 25044.01, -60225.03, 16846.42, -20228.53, 24673.17, 31139.06, 1206.57, 2815.14, -0.02, 0.96, 0.20
112, 24270.24, -60984.52, 17560.07, -20537.36, 25098.21, 31091.81, 1510.04, 3307.03, 0.00, 0.00, 0.00
113, 30038.51, -56370.79, 20216.77, -21244.82, 27631.74, 32724.18, 1117.86, 3325.87, 0.00, 0.00, 0.00
114, 31592.27, -54965.89, 19921.75, -21061.91, 27520.70, 32983.46, 803.97, 2883.87, 0.00, 0.00, 0.00
115, 26008.62, -59388.29, 17168.02, -20314.70, 24839.87, 31354.94, 1107.77, 2742.47, 0.00, 0.00, 0.00
116, 23632.81, -61417.47, 17119.98, -20420.75, 24615.77, 30880.97, 1516.88, 3212.24, 0.00, 0.00, 0.00
117, 29006.28, -57163.60, 19862.09, -21172.15, 27290.07, 32438.95, 1218.73, 3367.96, 0.00, 0.00, 0.00
118, 31922.04, -54676.79, 20244.80, -21189.88, 27934.07, 33108.74, 804.06, 2968.00, 0.00, 0.00, 0.00
119, 27162.64, -58396.10, 17618.52, -20447.91, 25468.98, 31678.99, 984.35, 2715.94, 0.00, 0.00, 0.00
120, 23245.61, -61651.43, 16756.59, -20300.10, 24461.88, 30720.95, 1471.95, 3103.41, 0.00, 0.00, 0.00
121, 27828.10, -58067.71, 19409.70, -21064.93, 26923.88, 32105.11, 1316.41, 3414.70, 0.00, 0.00, 0.00
122, 31929.20, -54657.86, 20468.23, -21274.32, 28110.96, 33141.02, 846.71, 3067.44, -0.02, 0.96, 0.20
123, 28282.94, -57450.73, 18131.69, -20575.81, 25960.72, 31986.53, 943.49, 2730.22, 0.00, 0.00, 0.00
124, 23240.20, -61562.49, 16573.28, -20229.15, 24333.11, 30711.43, 1462.63, 3046.81, 0.00, 0.00, 0.00
125, 26685.66, -58921.77, 18921.27, -20941.95, 26450.29, 31804.36, 1388.67, 3411.19, 0.00, 0.00, 0.00
126, 31669.56, -54855.18, 20565.46, -21317.17, 28170.97, 33095.02, 889.67, 3139.95, 0.00, 0.00, 0.00
127, 29354.30, -56560.51, 18662.88, -20732.16, 26479.48, 32288.30, 857.70, 2730.13, 0.00, 0.00, 0.00
128, 23512.45, -61278.49, 16508.13, -20198.38, 24298.98, 30735.48, 1369.63, 2921.84, 0.00, 0.00, 0.00
129, 25519.39, -59799.25, 18373.60, -20794.97, 25898.18, 31464.17, 1469.20, 3380.05, 0.00, 0.00, 0.00
130, 31090.09, -55302.95, 20512.22, -21316.39, 28014.40, 32952.15, 993.91, 3217.96, 0.00, 0.00, 0.00
131, 30200.76, -55859.98, 19164.18, -20873.38, 26855.69, 32530.21, 821.74, 2761.74, 0.00, 0.00, 0.00
132, 24095.13, -60746.27, 16634.93, -20223.39, 24349.34, 30864.43, 1255.23, 2833.06, -0.01, 0.96, 0.20
133, 24472.90, -60573.67, 17845.16, -20655.74, 25348.13, 31155.34, 1501.19, 3359.65, 0.00, 0.00, 0.00
134, 30303.51, -55909.27, 20361.54, -21295.58, 27814.58, 32761.58, 1074.67, 3316.28, 0.00, 0.00, 0.00
135, 30871.54, -55309.37, 19637.82, -20994.70, 27306.92, 32731.92, 799.05, 2852.84, 0.00, 0.00, 0.00
136, 24882.50, -60083.77, 16904.71, -20253.68, 24659.94, 31025.54, 1174.07, 2792.58, 0.00, 0.00, 0.00
137, 23562.52, -61279.74, 17376.42, -20494.67, 24945.84, 30839.17, 1535.52, 3294.18, 0.00, 0.00, 0.00
138, 29272.27, -56747.70, 20104.77, -21235.34, 27561.24, 32462.58, 1160.79, 3364.70, 0.00, 0.00, 0.00
139, 31293.58, -54988.69, 20036.06, -21129.13, 27697.77, 32855.25, 791.94, 2907.31, 0.00, 0.00, 0.00
140, 25904.80, -59242.54, 17289.16, -20377.03, 25065.09, 31278.92, 1057.64, 2720.16, 0.00, 0.00, 0.00
141, 22975.71, -61709.23, 16971.93, -20393.75, 24578.11, 30648.15, 1514.02, 3178.44, 0.00, 0.00, 0.00
142, 28168.85, -57625.79, 19733.26, -21157.87, 27161.19, 32162.57, 1244.50, 3360.56, -0.01, 0.96, 0.20
143, 31489.40, -54846.91, 20346.88, -21222.89, 27928.35, 32935.99, 804.95, 2981.10, 0.00, 0.00, 0.00
144, 27027.91, -58333.13, 17784.25, -20490.27, 25517.94, 31571.28, 959.87, 2732.48, 0.00, 0.00, 0.00
145, 22691.02, -61906.55, 16686.54, -20287.05, 24306.63, 30529.67, 1478.08, 3108.01, 0.00, 0.00, 0.00
146, 26988.52, -58566.35, 19288.93, -21028.03, 26688.34, 31845.80, 1360.84, 3427.04, 0.00, 0.00, 0.00
147, 31406.17, -54937.14, 20552.41, -21280.34, 28035.75, 32946.25, 891.97, 3077.48, 0.00, 0.00, 0.00
148, 28147.53, -57428.67, 18346.49, -20627.11, 25985.76, 31888.14, 924.31, 2703.67, 0.00, 0.00, 0.00
149, 22729.00, -61845.31, 16551.02, -20211.56, 24141.85, 30486.77, 1421.91, 2975.82, 0.00, 0.00, 0.00
150, 25736.56, -59560.40, 18763.46, -20896.00, 26138.75, 31477.87, 1413.26, 3419.84, 0.00, 0.00, 0.00
151, 30993.80, -55297.48, 20605.31, -21315.40, 28016.82, 32850.22, 928.54, 3190.38, 0.00, 0.00, 0.00
152, 29105.84, -56677.11, 18865.90, -20769.22, 26474.57, 32153.27, 853.08, 2760.91, -0.01, 0.96, 0.20
153, 23113.78, -61512.96, 16557.70, -20199.67, 24192.32, 30555.04, 1332.14, 2912.61, 0.00, 0.00, 0.00
154, 24592.64, -60461.62, 18222.30, -20736.07, 25645.41, 31151.38, 1485.45, 3402.14, 0.00, 0.00, 0.00
155, 30298.77, -55889.29, 20503.28, -21283.20, 27902.15, 32665.38, 1032.90, 3270.44, 0.00, 0.00, 0.00
156, 29920.76, -56054.95, 19346.39, -20902.59, 26952.92, 32377.66, 823.19, 2825.80, 0.00, 0.00, 0.00
157, 23786.14, -60971.33, 16700.55, -20222.03, 24367.67, 30684.94, 1227.54, 2848.46, 0.00, 0.00, 0.00
158, 23606.19, -61252.96, 17677.26, -20587.19, 25154.92, 30829.49, 1524.43, 3348.60, 0.00, 0.00, 0.00
159, 29438.99, -56599.84, 20271.89, -21256.04, 27686.61, 32450.78, 1126.91, 3327.19, 0.00, 0.00, 0.00
160, 30523.92, -55588.92, 19751.34, -21036.57, 27386.23, 32574.56, 807.75, 2896.70, 0.00, 0.00, 0.00
161, 24693.02, -60236.36, 16973.71, -20280.01, 24685.78, 30897.46, 1133.68, 2798.66, 0.00, 0.00, 0.00
162, 22764.94, -61930.13, 17155.25, -20426.05, 24687.19, 30531.83, 1537.00, 3285.91, -0.02, 0.97, 0.21
163, 28339.71, -57515.82, 19904.99, -21194.30, 27331.24, 32145.96, 1195.73, 3430.19, 0.00, 0.00, 0.00
164, 30806.80, -55406.48, 20054.12, -21144.59, 27679.30, 32666.20, 802.23, 2980.52, 0.00, 0.00, 0.00
165, 25684.19, -59451.93, 17357.09, -20380.72, 25094.91, 31134.84, 1039.89, 2770.52, 0.00, 0.00, 0.00
166, 22236.41, -62344.54, 16760.77, -20324.96, 24351.64, 30342.89, 1505.35, 3214.25, 0.00, 0.00, 0.00
167, 27097.94, -58544.67, 19464.72, -21072.40, 26885.59, 31774.77, 1306.12, 3457.19, 0.00, 0.00, 0.00
168, 30776.88, -55495.45, 20292.19, -21208.03, 27864.22, 32647.49, 859.27, 3068.29, 0.00, 0.00, 0.00
169, 26698.96, -58668.28, 17840.92, -20511.23, 25578.20, 31381.13, 971.88, 2772.71, 0.00, 0.00, 0.00
170, 21960.16, -62561.73, 16505.94, -20230.47, 24151.91, 30210.13, 1476.20, 3132.93, 0.00, 0.00, 0.00
171, 25802.09, -59604.32, 18967.67, -20955.90, 26400.81, 31405.03, 1383.73, 3486.94, 0.00, 0.00, 0.00
172, 30524.57, -55750.86, 20427.08, -21285.23, 27939.81, 32608.60, 857.99, 3164.90, -0.02, 0.96, 0.22
173, 27730.56, -57877.36, 18369.29, -20674.16, 26059.74, 31663.79, 836.92, 2761.96, 0.00, 0.00, 0.00
174, 22092.55, -62463.58, 16402.34, -20183.22, 24049.27, 30197.83, 1401.81, 2999.09, 0.00, 0.00, 0.00
175, 24590.27, -60601.43, 18446.47, -20793.76, 25870.98, 31049.48, 1480.96, 3459.80, 0.00, 0.00, 0.00
176, 30007.57, -56227.42, 20444.38, -21282.39, 27888.45, 32479.61, 971.76, 3243.37, 0.00, 0.00, 0.00
177, 28610.12, -57221.76, 18911.23, -20787.93, 26526.36, 31900.88, 846.93, 2790.86, 0.00, 0.00, 0.00
178, 22476.15, -62186.15, 16468.50, -20167.24, 24079.56, 30218.04, 1298.73, 2891.67, 0.00, 0.00, 0.00
179, 23422.93, -61568.13, 17929.76, -20674.96, 25335.32, 30686.84, 1485.34, 3407.95, 0.00, 0.00, 0.00
180, 29235.68, -56906.13, 20347.33, -21284.63, 27738.40, 32287.29, 1040.79, 3311.81, 0.00, 0.00, 0.00
181, 29340.11, -56686.95, 19398.10, -20947.29, 27002.34, 32135.95, 788.17, 2849.53, 0.00, 0.00, 0.00
182, 23276.23, -61548.59, 16702.92, -20236.08, 24359.11, 30442.07, 1198.23, 2853.94, -0.02, 0.95, 0.21
183, 22509.30, -62314.58, 17420.88, -20527.86, 24894.97, 30418.89, 1514.76, 3354.97, 0.00, 0.00, 0.00
184, 28297.60, -57722.39, 20103.29, -21233.53, 27477.74, 32040.13, 1116.09, 3363.87, 0.00, 0.00, 0.00
185, 29884.08, -56322.59, 19840.93, -21071.46, 27400.53, 32312.15, 810.00, 2899.74, 0.00, 0.00, 0.00
186, 24273.79, -60772.29, 17076.42, -20310.00, 24764.08, 30704.21, 1147.23, 2783.22, 0.00, 0.00, 0.00
187, 21850.26, -62838.42, 17000.78, -20400.39, 24560.61, 30227.78, 1541.26, 3271.54, 0.00, 0.00, 0.00
188, 27253.71, -58591.92, 19773.20, -21165.63, 27159.98, 31780.74, 1216.11, 3419.57, 0.00, 0.00, 0.00
189, 30201.23, -56122.70, 20188.90, -21172.78, 27720.95, 32441.66, 835.26, 3008.10, 0.00, 0.00, 0.00
190, 25433.18, -59862.35, 17554.93, -20426.41, 25265.20, 31022.90, 1045.37, 2763.03, 0.00, 0.00, 0.00
191, 21539.10, -63084.33, 16696.08, -20293.57, 24332.20, 30118.39, 1521.57, 3176.25, 0.00, 0.00, 0.00
192, 26173.42, -59479.78, 19369.87, -21049.42, 26779.85, 31502.48, 1330.40, 3444.14, -0.02, 0.95, 0.21
193, 30277.22, -56115.19, 20434.37, -21246.94, 27925.24, 32491.95, 860.59, 3082.82, 0.00, 0.00, 0.00
194, 26652.38, -58913.74, 18101.43, -20569.84, 25787.90, 31348.86, 940.49, 2754.74, 0.00, 0.00, 0.00
195, 21597.15, -63023.16, 16525.72, -20223.05, 24211.83, 30108.13, 1447.41, 3071.00, 0.00, 0.00, 0.00
196, 25082.88, -60364.04, 18902.45, -20912.72, 26316.67, 31201.02, 1412.79, 3456.52, 0.00, 0.00, 0.00
197, 30105.99, -56304.98, 20557.75, -21283.80, 27969.27, 32467.32, 922.66, 3175.07, 0.00, 0.00, 0.00
198, 27791.85, -58035.09, 18650.54, -20707.91, 26276.35, 31656.19, 875.20, 2762.03, 0.00, 0.00, 0.00
199, 21992.39, -62695.72, 16497.11, -20195.29, 24206.04, 30179.97, 1364.64, 2965.00, 0.00, 0.00, 0.00
200, 24069.86, -61162.98, 18373.11, -20784.62, 25837.48, 30935.91, 1467.53, 3413.09, 0.00, 0.00, 0.00
201, 29711.37, -56656.39, 20534.44, -21303.67, 27911.99, 32397.38, 989.15, 3214.81, 0.00, 0.00, 0.00
202, 28865.20, -57204.08, 19177.97, -20865.55, 26774.84, 31980.67, 827.64, 2795.85, -0.02, 0.95, 0.21
203, 22766.23, -62059.59, 16609.67, -20223.25, 24366.53, 30377.79, 1257.38, 2876.02, 0.00, 0.00, 0.00
204, 23198.18, -61833.73, 17827.84, -20644.34, 25396.41, 30704.43, 1507.47, 3342.23, 0.00, 0.00, 0.00
205, 29100.16, -57166.35, 20371.51, -21293.59, 27746.90, 32275.76, 1077.11, 3321.96, 0.00, 0.00, 0.00
206, 29715.19, -56560.57, 19626.69, -21006.71, 27206.34, 32241.52, 793.20, 2896.41, 0.00, 0.00, 0.00
207, 23785.56, -61226.39, 16854.02, -20282.73, 24721.83, 30644.96, 1160.28, 2841.73, 0.00, 0.00, 0.00
208, 22530.94, -62318.34, 17325.78, -20514.81, 25073.92, 30541.82, 1527.25, 3331.77, 0.00, 0.00, 0.00
209, 28288.90, -57823.22, 20089.79, -21245.49, 27489.61, 32084.50, 1149.08, 3366.57, 0.00, 0.00, 0.00
210, 30317.99, -56117.43, 20019.59, -21129.13, 27535.13, 32415.19, 808.75, 2928.88, 0.00, 0.00, 0.00
211, 24983.84, -60258.11, 17252.95, -20391.43, 25121.19, 30957.34, 1059.79, 2822.49, 0.00, 0.00, 0.00
212, 22117.56, -62596.84, 16914.88, -20405.33, 24762.67, 30426.94, 1497.90, 3277.75, -0.02, 0.96, 0.20
213, 27309.38, -58596.53, 19689.67, -21134.96, 27106.34, 31832.37, 1268.55, 3444.52, 0.00, 0.00, 0.00
214, 30626.74, -55895.88, 20313.04, -21205.79, 27747.59, 32522.21, 839.51, 3046.61, 0.00, 0.00, 0.00
215, 26222.89, -59262.34, 17737.25, -20499.52, 25545.49, 31271.72, 986.45, 2801.81, 0.00, 0.00, 0.00
216, 21944.36, -62680.91, 16611.03, -20296.23, 24523.97, 30354.74, 1471.26, 3192.92, 0.00, 0.00, 0.00
217, 26241.19, -59410.40, 19229.34, -21031.11, 26659.66, 31574.05, 1348.75, 3473.68, 0.00, 0.00, 0.00
218, 30663.78, -55874.11, 20503.46, -21284.98, 27836.24, 32576.19, 872.28, 3129.07, 0.00, 0.00, 0.00
219, 27458.47, -58263.60, 18268.48, -20654.93, 26012.06, 31623.31, 906.90, 2811.98, 0.00, 0.00, 0.00
220, 22147.02, -62449.48, 16456.63, -20254.35, 24457.46, 30417.91, 1411.56, 3088.83, 0.00, 0.00, 0.00
221, 25171.73, -60206.07, 18692.92, -20897.18, 26224.88, 31324.31, 1425.93, 3462.40, 0.00, 0.00, 0.00
222, 30399.69, -56094.96, 20557.88, -21316.46, 27846.99, 32545.88, 940.99, 3222.25, -0.02, 0.96, 0.20
223, 28561.97, -57394.85, 18805.51, -20801.79, 26497.97, 31926.16, 842.64, 2835.97, 0.00, 0.00, 0.00
224, 22660.38, -61995.51, 16475.45, -20244.69, 24559.40, 30545.54, 1320.52, 3017.06, 0.00, 0.00, 0.00
225, 24187.74, -60931.25, 18159.74, -20766.80, 25837.16, 31101.83, 1469.09, 3446.55, 0.00, 0.00, 0.00
226, 29882.29, -56507.98, 20478.02, -21314.76, 27776.94, 32451.76, 1011.35, 3285.82, 0.00, 0.00, 0.00
227, 29487.40, -56672.76, 19301.85, -20930.98, 26942.14, 32179.85, 811.39, 2868.69, 0.00, 0.00, 0.00
228, 23448.95, -61329.00, 16633.18, -20270.62, 24766.76, 30723.21, 1225.39, 2927.85, 0.00, 0.00, 0.00
229, 23321.07, -61547.88, 17633.89, -20618.79, 25445.52, 30875.09, 1510.96, 3381.08, 0.00, 0.00, 0.00
230, 29116.14, -57103.03, 20284.05, -21278.88, 27540.05, 32272.43, 1092.29, 3337.43, 0.00, 0.00, 0.00
231, 30176.62, -56140.41, 19765.20, -21057.31, 27270.45, 32362.89, 794.49, 2937.53, 0.00, 0.00, 0.00
232, 24436.78, -60517.14, 16959.07, -20332.00, 25037.53, 30938.37, 1130.95, 2885.74, -0.01, 0.97, 0.21
233, 22640.19, -62015.56, 17176.85, -20490.60, 25079.13, 30689.30, 1509.77, 3321.98, 0.00, 0.00, 0.00
234, 28160.02, -57840.59, 19975.26, -21205.46, 27196.89, 32030.96, 1186.97, 3365.23, 0.00, 0.00, 0.00
235, 30608.50, -55818.50, 20140.55, -21167.46, 27485.67, 32482.02, 805.91, 2987.20, 0.00, 0.00, 0.00
236, 25599.01, -59582.66, 17403.31, -20444.83, 25375.78, 31219.22, 1037.99, 2851.28, 0.00, 0.00, 0.00
237, 22266.16, -62247.80, 16794.32, -20377.21, 24779.17, 30586.44, 1495.56, 3251.75, 0.00, 0.00, 0.00
238, 27102.81, -58658.35, 19529.88, -21095.24, 26771.38, 31769.65, 1286.66, 3430.05, 0.00, 0.00, 0.00
239, 30769.28, -55730.77, 20352.58, -21247.39, 27592.29, 32532.78, 825.58, 3073.32, 0.00, 0.00, 0.00
240, 26759.89, -58692.80, 17843.26, -20560.30, 25731.69, 31467.48, 946.62, 2829.46, 0.00, 0.00, 0.00
241, 22115.35, -62339.80, 16479.07, -20276.83, 24570.36, 30488.74, 1451.37, 3177.52, 0.00, 0.00, 0.00
242, 25967.76, -59535.08, 19010.67, -20964.39, 26343.97, 31471.79, 1376.58, 3451.11, -0.01, 0.96, 0.21
243, 30595.27, -55911.01, 20464.94, -21270.10, 27616.18, 32473.64, 896.77, 3140.40, 0.00, 0.00, 0.00
244, 27857.47, -57865.76, 18372.37, -20691.39, 26128.47, 31706.51, 866.60, 2828.99, 0.00, 0.00, 0.00
245, 22295.08, -62183.56, 16363.35, -20221.33, 24503.81, 30475.48, 1371.86, 3094.87, 0.00, 0.00, 0.00
246, 24814.08, -60422.08, 18463.46, -20827.71, 25915.01, 31171.27, 1438.85, 3442.93, 0.00, 0.00, 0.00
247, 30136.43, -56316.43, 20470.71, -21293.37, 27545.89, 32356.94, 960.88, 3222.90, 0.00, 0.00, 0.00
248, 28778.81, -57194.00, 18898.87, -20831.78, 26513.84, 31911.67, 827.98, 2859.35, 0.00, 0.00, 0.00
249, 22792.70, -61790.75, 16421.22, -20243.50, 24585.76, 30549.80, 1249.44, 2990.06, 0.00, 0.00, 0.00
250, 23745.58, -61231.89, 17908.96, -20703.28, 25519.81, 30901.24, 1462.61, 3408.91, 0.00, 0.00, 0.00
251, 29467.38, -56871.57, 20356.43, -21291.49, 27427.40, 32211.34, 1040.09, 3301.13, 0.00, 0.00, 0.00
252, 29557.10, -56634.20, 19380.77, -20970.41, 26887.52, 32104.95, 797.62, 2890.97, -0.01, 0.96, 0.21
253, 23590.21, -61173.46, 16638.86, -20288.43, 24787.82, 30703.65, 1176.39, 2885.83, 0.00, 0.00, 0.00
254, 22880.12, -61881.29, 17396.32, -20563.04, 25157.31, 30671.82, 1498.75, 3327.24, 0.00, 0.00, 0.00
255, 28566.82, -57608.09, 20121.06, -21233.78, 27171.52, 31983.33, 1123.33, 3299.25, 0.00, 0.00, 0.00
0, 30108.65, -56270.07, 19833.46, -21092.71, 27169.06, 32229.43, 770.76, 2877.74, 0.00, 0.00, 0.00
1, 24624.76, -60386.39, 17044.37, -20382.85, 25088.76, 30923.50, 1039.22, 2802.46, 0.00, 0.00, 0.00
2, 22280.26, -62323.32, 16992.64, -20442.75, 24863.48, 30514.44, 1477.92, 3234.30, 0.00, 0.00, 0.00
3, 27572.60, -58399.05, 19798.59, -21151.61, 26868.65, 31755.03, 1234.80, 3350.73, 0.00, 0.00, 0.00
4, 30425.42, -56073.06, 20181.14, -21173.00, 27395.19, 32326.86, 838.48, 2984.47, 0.00, 0.00, 0.00
5, 25738.77, -59544.00, 17495.56, -20469.62, 25454.52, 31166.04, 1003.19, 2796.07, 0.00, 0.00, 0.00
6, 21930.75, -62567.89, 16634.95, -20336.11, 24648.74, 30409.46, 1462.94, 3176.16, -0.01, 0.95, 0.21
7, 26460.66, -59257.36, 19340.99, -21052.44, 26512.70, 31507.40, 1281.40, 3379.72, 0.00, 0.00, 0.00
8, 30468.91, -56081.15, 20397.44, -21254.72, 27521.66, 32364.34, 830.95, 3047.55, 0.00, 0.00, 0.00
9, 26903.34, -58657.97, 18023.73, -20600.87, 25871.00, 31455.34, 916.60, 2755.46, 0.00, 0.00, 0.00
10, 21927.20, -62545.86, 16420.84, -20250.95, 24540.14, 30387.58, 1410.84, 3082.26, 0.00, 0.00, 0.00
11, 25310.91, -60142.30, 18818.25, -20904.47, 26131.38, 31235.64, 1382.77, 3412.95, 0.00, 0.00, 0.00
12, 30246.74, -56297.36, 20504.33, -21284.83, 27560.84, 32337.79, 908.44, 3147.95, 0.00, 0.00, 0.00
13, 27994.08, -57843.09, 18569.40, -20744.56, 26281.36, 31720.39, 843.85, 2818.98, 0.00, 0.00, 0.00
14, 22280.15, -62245.36, 16384.16, -20229.67, 24558.26, 30456.40, 1315.02, 3035.34, 0.00, 0.00, 0.00
15, 24291.25, -60893.04, 18298.12, -20783.37, 25758.51, 31018.86, 1431.32, 3415.41, 0.00, 0.00, 0.00
16, 29770.04, -56694.80, 20460.36, -21280.58, 27481.74, 32243.26, 979.25, 3239.80, -0.01, 0.95, 0.21
17, 28908.31, -57178.24, 19066.60, -20866.45, 26646.61, 31925.15, 804.84, 2853.71, 0.00, 0.00, 0.00
18, 22917.38, -61743.07, 16479.36, -20251.95, 24677.67, 30575.75, 1227.13, 2949.74, 0.00, 0.00, 0.00
19, 23327.22, -61606.39, 17738.52, -20645.63, 25389.66, 30797.24, 1488.98, 3378.22, 0.00, 0.00, 0.00
20, 29041.53, -57283.50, 20279.94, -21260.42, 27314.01, 32091.47, 1066.00, 3278.20, 0.00, 0.00, 0.00
21, 29639.93, -56643.43, 19538.13, -21012.40, 26997.82, 32132.53, 774.44, 2866.68, 0.00, 0.00, 0.00
22, 23853.87, -60997.48, 16782.94, -20329.09, 24941.51, 30810.61, 1108.22, 2855.55, 0.00, 0.00, 0.00
23, 22555.39, -62155.86, 17242.27, -20517.98, 25069.87, 30621.84, 1460.78, 3265.81, 0.00, 0.00, 0.00
24, 28117.55, -58007.07, 19995.20, -21190.44, 27064.90, 31889.72, 1146.67, 3306.78, 0.00, 0.00, 0.00
25, 30118.62, -56312.45, 19930.07, -21101.99, 27270.87, 32264.74, 792.55, 2960.29, 0.00, 0.00, 0.00
26, 24896.13, -60197.43, 17165.09, -20402.02, 25263.37, 31032.91, 1021.43, 2836.61, -0.01, 0.95, 0.21
27, 22040.74, -62515.28, 16839.65, -20396.90, 24824.43, 30493.25, 1462.77, 3236.11, 0.00, 0.00, 0.00
28, 27090.85, -58799.37, 19634.87, -21105.59, 26766.04, 31666.74, 1238.76, 3390.02, 0.00, 0.00, 0.00
29, 30343.27, -56177.69, 20249.47, -21198.66, 27467.61, 32333.27, 799.66, 3003.65, 0.00, 0.00, 0.00
30, 26023.93, -59341.93, 17661.41, -20519.73, 25629.72, 31266.16, 927.46, 2780.24, 0.00, 0.00, 0.00
31, 21773.41, -62693.00, 16543.40, -20300.39, 24638.17, 30390.97, 1426.51, 3155.31, 0.00, 0.00, 0.00
32, 25998.77, -59629.63, 19203.70, -21014.44, 26421.55, 31428.61, 1314.33, 3403.19, 0.00, 0.00, 0.00
33, 30325.64, -56222.19, 20469.57, -21262.19, 27567.68, 32365.32, 857.12, 3094.91, 0.00, 0.00, 0.00
34, 27177.42, -58465.37, 18227.42, -20650.20, 26038.84, 31549.33, 867.49, 2803.94, 0.00, 0.00, 0.00
35, 21905.11, -62554.86, 16414.18, -20240.62, 24567.92, 30416.23, 1354.45, 3074.06, 0.00, 0.00, 0.00
36, 24861.71, -60484.31, 18675.69, -20857.28, 26029.01, 31165.42, 1398.86, 3411.12, -0.01, 0.95, 0.21
37, 30036.56, -56476.66, 20538.59, -21288.25, 27577.22, 32321.52, 921.81, 3178.49, 0.00, 0.00, 0.00
38, 28231.53, -57674.85, 18770.99, -20782.14, 26440.53, 31806.22, 820.33, 2812.14, 0.00, 0.00, 0.00
39, 22346.07, -62193.77, 16419.86, -20220.75, 24612.47, 30492.00, 1277.29, 2993.86, 0.00, 0.00, 0.00
40, 23837.93, -61243.26, 18129.34, -20727.80, 25656.96, 30933.20, 1428.23, 3382.18, 0.00, 0.00, 0.00
41, 29481.88, -56937.91, 20444.16, -21279.22, 27477.42, 32206.38, 984.12, 3231.17, 0.00, 0.00, 0.00
42, 29115.89, -57033.98, 19255.94, -20917.86, 26817.26, 32018.74, 771.98, 2849.04, 0.00, 0.00, 0.00
43, 23128.89, -61578.54, 16592.57, -20267.04, 24794.03, 30660.24, 1172.39, 2914.51, 0.00, 0.00, 0.00
44, 22967.89, -61876.46, 17598.80, -20593.69, 25313.42, 30742.57, 1482.28, 3349.41, 0.00, 0.00, 0.00
45, 28742.44, -57522.08, 20261.50, -21245.47, 27291.50, 32066.13, 1103.86, 3323.57, 0.00, 0.00, 0.00
46, 29826.86, -56516.36, 19734.20, -21039.85, 27127.75, 32211.34, 777.24, 2916.63, -0.01, 0.96, 0.21
47, 24125.38, -60803.98, 16919.64, -20327.48, 25037.78, 30869.84, 1086.34, 2847.77, 0.00, 0.00, 0.00
48, 22313.10, -62343.98, 17136.70, -20463.09, 24987.62, 30575.82, 1477.29, 3278.46, 0.00, 0.00, 0.00
49, 27833.15, -58229.46, 19954.70, -21182.77, 26996.84, 31865.00, 1161.82, 3356.18, 0.00, 0.00, 0.00
50, 30291.57, -56188.64, 20110.60, -21148.88, 27349.84, 32343.82, 759.09, 2954.88, 0.00, 0.00, 0.00
51, 25267.13, -59922.99, 17344.39, -20427.26, 25343.88, 31106.47, 970.45, 2790.12, 0.00, 0.00, 0.00
52, 21938.84, -62586.49, 16745.14, -20363.20, 24736.21, 30466.61, 1446.11, 3244.67, 0.00, 0.00, 0.00
53, 26816.68, -58999.82, 19526.37, -21080.78, 26662.46, 31633.30, 1270.14, 3429.16, 0.00, 0.00, 0.00
54, 30515.79, -56039.62, 20371.18, -21230.45, 27517.88, 32415.97, 815.44, 3062.68, 0.00, 0.00, 0.00
55, 26553.29, -58922.86, 17862.96, -20563.07, 25757.34, 31420.25, 907.50, 2821.93, 0.00, 0.00, 0.00
56, 21937.92, -62531.21, 16492.68, -20281.59, 24608.24, 30470.32, 1395.35, 3154.23, -0.02, 0.96, 0.21
57, 25780.26, -59758.48, 19013.09, -20954.45, 26313.86, 31410.48, 1331.74, 3409.27, 0.00, 0.00, 0.00
58, 30443.99, -56106.70, 20481.60, -21269.45, 27606.15, 32426.90, 876.14, 3133.22, 0.00, 0.00, 0.00
59, 27731.72, -58022.76, 18382.81, -20703.73, 26161.82, 31694.41, 828.09, 2829.82, 0.00, 0.00, 0.00
60, 22220.96, -62278.86, 16370.89, -20253.92, 24570.15, 30503.71, 1305.21, 3069.32, 0.00, 0.00, 0.00
61, 24782.81, -60457.29, 18471.50, -20848.68, 26010.70, 31239.98, 1391.71, 3425.16, 0.00, 0.00, 0.00
62, 30177.45, -56288.04, 20497.60, -21291.71, 27663.32, 32441.75, 938.53, 3240.42, 0.00, 0.00, 0.00
63, 28861.31, -57133.07, 18932.69, -20838.60, 26627.61, 32005.86, 795.99, 2873.74, 0.00, 0.00, 0.00
64, 22889.75, -61709.90, 16446.37, -20229.38, 24709.03, 30654.16, 1245.57, 2999.98, 0.00, 0.00, 0.00
65, 23852.91, -61128.82, 17915.17, -20669.55, 25662.30, 31008.98, 1472.98, 3426.48, 0.00, 0.00, 0.00
66, 29620.49, -56726.76, 20366.75, -21265.61, 27562.18, 32328.53, 1017.25, 3291.58, -0.02, 0.96, 0.21
67, 29729.50, -56478.14, 19381.67, -20934.31, 27002.34, 32207.88, 772.16, 2890.33, 0.00, 0.00, 0.00
68, 23788.92, -60976.45, 16633.21, -20268.99, 24923.94, 30832.82, 1132.76, 2928.15, 0.00, 0.00, 0.00
69, 23123.53, -61617.43, 17388.34, -20555.38, 25325.35, 30841.94, 1449.82, 3360.32, 0.00, 0.00, 0.00
70, 28900.76, -57248.58, 20119.95, -21241.13, 27344.50, 32195.23, 1072.21, 3320.08, 0.00, 0.00, 0.00
71, 30499.71, -55852.85, 19821.77, -21098.73, 27315.64, 32455.65, 722.41, 2941.33, 0.00, 0.00, 0.00
72, 25010.15, -59964.99, 17002.23, -20379.00, 25208.59, 31140.47, 1007.19, 2870.14, 0.00, 0.00, 0.00
73, 22685.08, -61854.14, 16931.09, -20440.76, 25014.75, 30754.28, 1421.50, 3266.91, 0.00, 0.00, 0.00
74, 28029.40, -57862.94, 19746.63, -21155.32, 27028.91, 32015.39, 1159.85, 3367.87, 0.00, 0.00, 0.00
75, 30964.45, -55456.33, 20158.79, -21193.77, 27546.76, 32617.70, 768.90, 3032.48, 0.00, 0.00, 0.00
76, 26311.33, -58881.60, 17474.39, -20491.01, 25607.90, 31477.36, 934.77, 2851.81, -0.02, 0.96, 0.21
77, 22523.49, -61861.76, 16595.19, -20340.96, 24822.04, 30735.14, 1409.14, 3225.22, 0.00, 0.00, 0.00
78, 27103.81, -58488.50, 19305.29, -21046.71, 26714.36, 31848.31, 1259.41, 3446.26, 0.00, 0.00, 0.00
79, 31181.62, -55249.40, 20363.89, -21254.81, 27715.56, 32715.15, 797.20, 3125.65, 0.00, 0.00, 0.00
80, 27630.64, -57803.11, 17980.70, -20613.40, 26040.77, 31804.79, 866.00, 2848.04, 0.00, 0.00, 0.00
81, 22672.58, -61645.71, 16378.37, -20262.64, 24736.63, 30762.66, 1367.79, 3148.22, 0.00, 0.00, 0.00
82, 26143.25, -59142.96, 18795.38, -20921.84, 26355.46, 31642.98, 1345.57, 3445.14, 0.00, 0.00, 0.00
83, 31095.86, -55279.19, 20459.60, -21293.12, 27753.36, 32726.80, 863.47, 3182.80, 0.00, 0.00, 0.00
84, 28835.22, -56826.20, 18506.19, -20745.03, 26450.74, 32092.14, 802.16, 2836.28, 0.00, 0.00, 0.00
85, 23098.07, -61220.20, 16309.06, -20232.62, 24732.67, 30843.62, 1275.41, 3033.56, 0.00, 0.00, 0.00
86, 25164.55, -59806.36, 18246.60, -20788.22, 25938.26, 31425.46, 1391.46, 3434.90, -0.01, 0.96, 0.21
87, 30721.38, -55535.03, 20422.56, -21291.76, 27657.22, 32661.60, 926.86, 3272.23, 0.00, 0.00, 0.00
88, 29886.23, -55974.60, 19022.94, -20881.78, 26828.15, 32362.17, 753.90, 2884.51, 0.00, 0.00, 0.00
89, 23863.24, -60538.89, 16422.56, -20257.72, 24857.02, 31015.39, 1182.76, 2973.14, 0.00, 0.00, 0.00
90, 24303.41, -60365.76, 17696.57, -20661.59, 25560.74, 31232.40, 1430.27, 3405.24, 0.00, 0.00, 0.00
91, 30130.02, -55940.74, 20279.78, -21283.58, 27497.58, 32558.22, 1015.53, 3332.11, 0.00, 0.00, 0.00
92, 30756.80, -55257.58, 19522.71, -21014.60, 27181.35, 32605.79, 734.17, 2910.67, 0.00, 0.00, 0.00
93, 24881.58, -59659.26, 16701.71, -20311.16, 25104.99, 31255.22, 1089.20, 2887.49, 0.00, 0.00, 0.00
94, 23625.37, -60765.41, 17198.35, -20515.71, 25238.76, 31090.96, 1450.65, 3336.18, 0.00, 0.00, 0.00
95, 29294.51, -56527.09, 19997.68, -21209.32, 27232.49, 32374.98, 1106.70, 3361.39, 0.00, 0.00, 0.00
96, 31334.75, -54775.38, 19924.72, -21131.23, 27447.45, 32770.14, 736.07, 2989.21, -0.00, 0.96, 0.21
97, 26040.74, -58686.96, 17110.44, -20407.70, 25428.73, 31533.26, 983.88, 2887.62, 0.00, 0.00, 0.00
98, 23163.74, -61008.13, 16779.86, -20394.71, 24977.36, 30984.52, 1431.58, 3297.78, 0.00, 0.00, 0.00
99, 28300.37, -57219.52, 19599.35, -21119.04, 26919.30, 32158.15, 1190.79, 3419.62, 0.00, 0.00, 0.00
100, 31628.92, -54513.94, 20218.31, -21210.33, 27640.90, 32851.65, 782.00, 3043.10, 0.00, 0.00, 0.00
101, 27273.55, -57668.48, 17589.53, -20524.53, 25813.76, 31813.19, 918.63, 2839.74, 0.00, 0.00, 0.00
102, 23006.72, -61010.92, 16460.16, -20296.77, 24807.48, 30944.27, 1410.46, 3208.73, 0.00, 0.00, 0.00
103, 27272.23, -57919.13, 19130.10, -20999.26, 26557.58, 31949.87, 1289.65, 3430.46, 0.00, 0.00, 0.00
104, 31679.60, -54430.47, 20400.73, -21267.62, 27731.00, 32904.89, 809.38, 3104.05, 0.00, 0.00, 0.00
105, 28509.29, -56650.67, 18130.46, -20663.20, 26218.33, 32115.39, 814.01, 2784.69, 0.00, 0.00, 0.00
106, 23198.81, -60741.96, 16295.78, -20255.22, 24741.28, 30989.40, 1317.39, 3047.12, -0.01, 0.96, 0.21
107, 26242.73, -58593.55, 18602.71, -20878.63, 26185.72, 31755.30, 1359.84, 3432.76, 0.00, 0.00, 0.00
108, 31483.48, -54515.59, 20477.19, -21298.42, 27740.93, 32923.47, 880.10, 3220.42, 0.00, 0.00, 0.00
109, 29671.09, -55684.14, 18684.63, -20786.90, 26629.58, 32426.77, 792.84, 2855.57, 0.00, 0.00, 0.00
110, 23736.23, -60204.69, 16309.51, -20223.05, 24807.55, 31126.93, 1262.05, 3027.79, 0.00, 0.00, 0.00
111, 25278.77, -59203.45, 18055.83, -20730.59, 25833.90, 31573.25, 1423.47, 3424.18, 0.00, 0.00, 0.00
112, 30992.77, -54826.95, 20406.92, -21283.26, 27657.31, 32851.21, 965.57, 3272.83, 0.00, 0.00, 0.00
113, 30637.40, -54876.70, 19214.59, -20916.90, 27028.73, 32686.61, 768.97, 2874.01, 0.00, 0.00, 0.00
114, 24567.43, -59448.60, 16496.06, -20247.24, 25007.33, 31325.25, 1166.27, 2919.32, 0.00, 0.00, 0.00
115, 24395.54, -59753.05, 17505.53, -20567.54, 25492.59, 31374.14, 1455.12, 3351.17, 0.00, 0.00, 0.00
116, 30233.62, -55346.18, 20190.44, -21226.47, 27467.23, 32688.44, 1079.10, 3339.37, -0.01, 0.96, 0.21
117, 31324.16, -54303.56, 19636.23, -21019.42, 27346.80, 32854.18, 775.52, 2969.90, 0.00, 0.00, 0.00
118, 25561.99, -58594.02, 16783.32, -20301.26, 25286.17, 31532.41, 1086.50, 2914.80, 0.00, 0.00, 0.00
119, 23733.44, -60137.32, 17014.84, -20430.75, 25198.60, 31226.68, 1482.70, 3337.90, 0.00, 0.00, 0.00
120, 29321.02, -55974.85, 19876.94, -21154.32, 27186.94, 32501.89, 1160.46, 3411.52, 0.00, 0.00, 0.00
121, 31806.13, -53880.91, 20025.51, -21121.93, 27582.95, 33001.90, 770.58, 3026.78, 0.00, 0.00, 0.00
122, 26753.56, -57584.11, 17236.26, -20406.61, 25623.28, 31818.06, 979.95, 2875.02, 0.00, 0.00, 0.00
123, 23379.05, -60268.93, 16644.18, -20334.14, 24947.85, 31162.38, 1438.94, 3256.34, 0.00, 0.00, 0.00
124, 28279.96, -56680.20, 19451.94, -21052.30, 26804.30, 32275.76, 1244.90, 3426.72, 0.00, 0.00, 0.00
125, 31988.79, -53686.56, 20293.01, -21206.26, 27692.87, 33068.02, 782.74, 3089.12, 0.00, 0.00, 0.00
126, 27955.46, -56574.77, 17746.46, -20534.14, 25973.29, 32092.66, 864.77, 2856.64, -0.01, 0.96, 0.21
127, 23255.74, -60235.29, 16370.48, -20242.52, 24783.23, 31109.74, 1384.33, 3208.44, 0.00, 0.00, 0.00
128, 27169.88, -57427.98, 18967.76, -20940.28, 26428.54, 32038.90, 1318.31, 3471.18, 0.00, 0.00, 0.00
129, 31916.72, -53684.53, 20460.81, -21265.54, 27770.52, 33093.52, 829.41, 3184.36, 0.00, 0.00, 0.00
130, 29143.52, -55583.22, 18292.91, -20673.84, 26409.55, 32388.75, 812.51, 2894.13, 0.00, 0.00, 0.00
131, 23552.99, -59868.99, 16251.77, -20214.00, 24798.28, 31192.10, 1305.68, 3120.64, 0.00, 0.00, 0.00
132, 26134.33, -58096.41, 18404.22, -20810.81, 26074.45, 31837.85, 1389.00, 3464.59, 0.00, 0.00, 0.00
133, 31570.85, -53891.15, 20446.37, -21281.83, 27741.49, 33048.93, 899.10, 3267.40, 0.00, 0.00, 0.00
134, 30233.01, -54672.84, 18836.71, -20818.17, 26826.09, 32679.12, 748.20, 2898.57, 0.00, 0.00, 0.00
135, 24185.99, -59250.43, 16323.77, -20213.38, 24917.90, 31352.63, 1204.74, 3006.67, 0.00, 0.00, 0.00
136, 25182.70, -58686.94, 17856.00, -20667.65, 25715.19, 31652.73, 1425.88, 3411.61, -0.02, 0.95, 0.21
137, 30969.66, -54285.21, 20320.95, -21255.59, 27591.60, 32929.44, 993.85, 3328.82, 0.00, 0.00, 0.00
138, 31117.56, -53928.01, 19335.38, -20958.98, 27181.73, 32909.25, 741.47, 2962.92, 0.00, 0.00, 0.00
139, 25088.11, -58436.64, 16541.21, -20266.35, 25133.20, 31561.78, 1105.92, 2954.16, 0.00, 0.00, 0.00
140, 24353.59, -59183.66, 17322.49, -20529.45, 25378.59, 31464.84, 1429.42, 3378.53, 0.00, 0.00, 0.00
141, 30172.51, -54817.90, 20113.80, -21231.23, 27369.73, 32774.65, 1043.16, 3387.23, 0.00, 0.00, 0.00
142, 31754.18, -53382.31, 19792.65, -21078.41, 27459.47, 33080.60, 724.78, 2979.62, 0.00, 0.00, 0.00
143, 26163.48, -57512.33, 16916.34, -20342.90, 25428.21, 31793.61, 1022.17, 2883.75, 0.00, 0.00, 0.00
144, 23798.19, -59467.75, 16868.37, -20415.35, 25117.17, 31352.99, 1441.55, 3311.95, 0.00, 0.00, 0.00
145, 29190.33, -55492.92, 19732.70, -21130.13, 27064.25, 32560.03, 1165.78, 3457.79, 0.00, 0.00, 0.00
146, 32111.37, -53065.61, 20123.14, -21170.21, 27672.82, 33182.30, 729.58, 3096.05, -0.02, 0.96, 0.21
147, 27348.88, -56519.38, 17386.97, -20459.47, 25804.89, 32067.11, 903.88, 2917.53, 0.00, 0.00, 0.00
148, 23501.32, -59563.57, 16535.28, -20311.03, 24939.76, 31291.44, 1418.44, 3291.72, 0.00, 0.00, 0.00
149, 28142.46, -56198.18, 19310.34, -21037.77, 26726.45, 32355.71, 1263.16, 3487.27, 0.00, 0.00, 0.00
150, 32241.59, -52912.97, 20354.26, -21255.99, 27789.32, 33255.10, 774.00, 3145.63, 0.00, 0.00, 0.00
151, 28611.55, -55468.55, 17912.22, -20590.85, 26194.05, 32381.33, 838.82, 2897.41, 0.00, 0.00, 0.00
152, 23567.07, -59375.75, 16308.66, -20235.12, 24826.37, 31318.44, 1342.47, 3193.13, 0.00, 0.00, 0.00
153, 27042.21, -56932.13, 18778.01, -20897.70, 26314.08, 32118.25, 1312.56, 3477.77, 0.00, 0.00, 0.00
154, 32035.97, -53023.12, 20473.93, -21267.66, 27771.86, 33216.50, 849.79, 3248.74, 0.00, 0.00, 0.00
155, 29724.27, -54550.13, 18496.00, -20714.81, 26564.44, 32628.81, 802.32, 2926.11, 0.00, 0.00, 0.00
156, 23932.64, -58966.61, 16287.85, -20209.49, 24830.64, 31387.95, 1280.62, 3127.68, -0.02, 0.96, 0.21
157, 25977.64, -57620.02, 18249.01, -20751.72, 25922.64, 31896.68, 1400.58, 3509.18, 0.00, 0.00, 0.00
158, 31578.68, -53313.29, 20450.59, -21271.64, 27680.02, 33146.86, 928.13, 3334.63, 0.00, 0.00, 0.00
