%OpenBCI Raw EEG Data
%
%Sample Rate = 250.0 Hz
%First Column = SampleIndex
%Other Columns = EEG data in microvolts followed by Accel Data (in G) interleaved with Aux Data
0, 49566.76, 38914.03, 46797.60, 42850.98, 36284.01, 29116.41, 12860.12, -187500.02, 0.10, 0.48, 0.14
1, 49457.73, 38868.59, 46765.14, 42871.18, 36282.27, 29184.04, 12853.12, -187500.02, 0.00, 0.00, 0.00
2, 49654.31, 38939.73, 46910.48, 42895.37, 36305.54, 29268.38, 12815.73, -187500.02, 0.00, 0.00, 0.00
3, 49803.11, 38934.10, 46958.69, 42898.16, 36291.83, 29203.76, 12822.55, -187500.02, 0.00, 0.00, 0.00
4, 49644.88, 38817.07, 46800.06, 42840.47, 36263.56, 29110.67, 12861.51, -187500.02, 0.00, 0.00, 0.00
5, 49492.15, 38745.18, 46733.50, 42948.05, 36256.18, 29144.80, 12851.72, -187500.02, 0.00, 0.00, 0.00
6, 49641.84, 38821.45, 46884.79, 42863.58, 36289.93, 29236.82, 12804.73, -187500.02, 0.17, 0.96, 0.26
7, 49833.01, 38882.24, 46960.63, 42818.81, 36284.52, 29190.80, 12789.96, -187500.02, 0.00, 0.00, 0.00
8, 49714.93, 38804.77, 46810.34, 42790.40, 36233.50, 29086.12, 12817.36, -187500.02, 0.00, 0.00, 0.00
9, 49536.23, 38717.33, 46725.43, 42817.20, 36223.48, 29099.85, 12835.51, -187500.02, 0.00, 0.00, 0.00
10, 49646.89, 38768.16, 46843.76, 42894.32, 36275.52, 29206.02, 12802.48, -187500.02, 0.00, 0.00, 0.00
11, 49871.57, 38846.50, 46942.33, 42925.38, 36308.08, 29191.67, 12782.92, -187500.02, 0.00, 0.00, 0.00
12, 49808.87, 38797.80, 46828.07, 42840.89, 36267.96, 29072.38, 12793.62, -187500.02, 0.00, 0.00, 0.00
13, 49607.53, 38711.57, 46698.47, 42875.65, 36243.49, 29057.20, 12784.79, -187500.02, 0.00, 0.00, 0.00
14, 49633.10, 38740.24, 46757.79, 42823.28, 36265.84, 29140.04, 12737.32, -187500.02, 0.00, 0.00, 0.00
15, 49847.50, 38845.99, 46892.75, 42853.23, 36269.08, 29148.60, 12708.20, -187500.02, 0.00, 0.00, 0.00
16, 49811.40, 38854.26, 46788.84, 42784.23, 36253.81, 29036.77, 12760.83, -187500.02, 0.07, 0.93, 0.26
17, 49560.16, 38783.61, 46628.55, 42835.17, 36268.50, 28989.47, 12777.40, -187500.02, 0.00, 0.00, 0.00
18, 49523.51, 38811.97, 46670.73, 42818.63, 36297.40, 29047.39, 12718.34, -187500.02, 0.00, 0.00, 0.00
19, 49742.55, 38930.34, 46838.88, 42806.11, 36326.59, 29101.37, 12665.97, -187500.02, 0.00, 0.00, 0.00
20, 49769.60, 38964.77, 46812.17, 42784.64, 36323.82, 29009.86, 12693.02, -187500.02, 0.00, 0.00, 0.00
21, 49525.34, 38896.19, 46623.12, 42802.43, 36310.95, 28937.89, 12732.69, -187500.02, 0.00, 0.00, 0.00
22, 49421.56, 38879.74, 46601.84, 42881.48, 36340.18, 29008.25, 12719.84, -187500.02, 0.00, 0.00, 0.00
23, 49621.56, 39000.35, 46763.78, 42842.01, 36387.66, 29071.55, 12690.43, -187500.02, 0.00, 0.00, 0.00
24, 49706.34, 39038.01, 46781.24, 42833.96, 36386.80, 29005.14, 12710.97, -187500.02, 0.00, 0.00, 0.00
25, 49468.90, 38935.55, 46597.75, 42846.68, 36359.02, 28925.57, 12765.37, -187500.02, 0.00, 0.00, 0.00
26, 49300.32, 38885.60, 46573.97, 42901.98, 36357.26, 28987.89, 12770.13, -187500.02, -0.07, 0.96, 0.27
27, 49433.03, 38951.04, 46730.75, 42880.05, 36412.09, 29078.88, 12726.88, -187500.02, 0.00, 0.00, 0.00
28, 49546.95, 38991.30, 46781.46, 42826.03, 36386.18, 29011.02, 12721.12, -187500.02, 0.00, 0.00, 0.00
29, 49358.55, 38927.77, 46627.44, 42800.53, 36317.65, 28918.37, 12764.81, -187500.02, 0.00, 0.00, 0.00
30, 49200.43, 38905.31, 46579.07, 42881.64, 36329.05, 28980.80, 12792.37, -187500.02, 0.00, 0.00, 0.00
31, 49353.19, 39006.72, 46719.57, 42914.34, 36371.90, 29093.81, 12785.62, -187500.02, 0.00, 0.00, 0.00
32, 49567.76, 39107.32, 46813.02, 42896.44, 36382.89, 29083.60, 12812.18, -187500.02, 0.00, 0.00, 0.00
33, 49459.18, 39062.67, 46690.33, 42880.55, 36335.42, 28992.51, 12859.20, -187500.02, 0.00, 0.00, 0.00
34, 49266.91, 38988.86, 46568.34, 42946.51, 36301.89, 29007.42, 12864.23, -187500.02, 0.00, 0.00, 0.00
35, 49384.14, 39031.11, 46680.41, 42984.97, 36326.57, 29107.63, 12820.20, -187500.02, 0.00, 0.00, 0.00
36, 49628.16, 39105.61, 46787.79, 42846.35, 36341.50, 29091.38, 12771.70, -187500.02, -0.04, 0.97, 0.27
37, 49570.11, 39063.23, 46668.99, 42809.91, 36315.91, 28984.69, 12801.63, -187500.02, 0.00, 0.00, 0.00
38, 49349.50, 38977.42, 46552.71, 42830.90, 36327.91, 28970.30, 12812.51, -187500.02, 0.00, 0.00, 0.00
39, 49381.91, 38997.71, 46636.85, 42903.52, 36336.94, 29080.42, 12780.79, -187500.02, 0.00, 0.00, 0.00
40, 49642.38, 39089.76, 46788.70, 42945.25, 36355.04, 29125.15, 12759.45, -187500.02, 0.00, 0.00, 0.00
41, 49675.59, 39091.48, 46752.05, 42818.18, 36313.80, 29026.06, 12784.59, -187500.02, 0.00, 0.00, 0.00
42, 49480.23, 39024.89, 46634.14, 42799.66, 36265.86, 28996.27, 12817.25, -187500.02, 0.00, 0.00, 0.00
43, 49449.30, 39026.52, 46706.38, 42807.39, 36266.66, 29083.26, 12797.89, -187500.02, 0.00, 0.00, 0.00
44, 49678.58, 39117.90, 46870.45, 42845.01, 36260.68, 29138.13, 12753.95, -187500.02, 0.00, 0.00, 0.00
45, 49760.48, 39121.99, 46870.11, 42826.25, 36223.26, 29064.06, 12780.79, -187500.02, 0.00, 0.00, 0.00
46, 49563.58, 38999.61, 46730.57, 42771.89, 36186.76, 29012.05, 12837.41, -187500.02, 0.12, 0.96, 0.27
47, 49471.20, 38948.72, 46738.79, 42821.20, 36182.69, 29101.61, 12836.47, -187500.02, 0.00, 0.00, 0.00
48, 49682.99, 38989.58, 46904.60, 42904.64, 36196.50, 29168.91, 12789.18, -187500.02, 0.00, 0.00, 0.00
49, 49814.44, 38948.79, 46947.11, 42854.91, 36171.00, 29095.80, 12790.27, -187500.02, 0.00, 0.00, 0.00
50, 49639.47, 38818.50, 46812.02, 42695.52, 36121.91, 28985.03, 12822.44, -187500.02, 0.00, 0.00, 0.00
51, 49497.54, 38745.36, 46758.98, 42775.07, 36101.60, 29036.32, 12796.19, -187500.02, 0.00, 0.00, 0.00
52, 49675.72, 38811.66, 46922.37, 42817.92, 36129.76, 29144.64, 12777.67, -187500.02, 0.00, 0.00, 0.00
53, 49870.25, 38853.52, 46985.38, 42800.66, 36127.10, 29095.11, 12818.68, -187500.02, 0.00, 0.00, 0.00
54, 49739.38, 38773.12, 46835.22, 42804.24, 36083.89, 28998.64, 12850.87, -187500.02, 0.00, 0.00, 0.00
55, 49582.52, 38725.07, 46759.87, 42813.27, 36079.83, 29036.03, 12862.31, -187500.02, 0.23, 0.98, 0.27
56, 49741.88, 38809.04, 46899.34, 42845.41, 36111.84, 29140.82, 12825.14, -187500.02, 0.00, 0.00, 0.00
57, 49994.84, 38914.90, 47009.38, 42846.73, 36114.58, 29122.47, 12802.05, -187500.02, 0.00, 0.00, 0.00
58, 49924.43, 38890.38, 46880.88, 42763.65, 36062.04, 28989.68, 12832.38, -187500.02, 0.00, 0.00, 0.00
59, 49726.35, 38810.74, 46772.12, 42765.23, 36040.96, 28995.87, 12849.03, -187500.02, 0.00, 0.00, 0.00
60, 49783.28, 38837.03, 46838.37, 42862.24, 36070.37, 29091.11, 12778.09, -187500.02, 0.00, 0.00, 0.00
61, 50026.51, 38930.34, 46947.67, 42796.84, 36064.11, 29084.96, 12735.15, -187500.02, 0.00, 0.00, 0.00
62, 50010.80, 38897.91, 46873.91, 42754.55, 36034.45, 28971.62, 12782.74, -187500.02, 0.00, 0.00, 0.00
63, 49790.39, 38791.41, 46709.07, 42796.23, 36010.20, 28946.60, 12786.56, -187500.02, 0.00, 0.00, 0.00
64, 49792.09, 38798.74, 46756.45, 42849.88, 36037.45, 29040.86, 12764.54, -187500.02, 0.00, 0.00, 0.00
65, 50040.50, 38895.92, 46890.16, 42765.59, 36049.85, 29053.60, 12730.39, -187500.02, 0.20, 0.97, 0.27
66, 50061.02, 38873.17, 46821.00, 42727.91, 36025.67, 28920.81, 12721.67, -187500.02, 0.00, 0.00, 0.00
67, 49839.20, 38749.34, 46650.19, 42686.24, 36013.93, 28859.99, 12729.16, -187500.02, 0.00, 0.00, 0.00
68, 49788.75, 38680.30, 46674.66, 42756.00, 36030.34, 28955.30, 12683.79, -187500.02, 0.00, 0.00, 0.00
69, 50014.46, 38736.31, 46823.28, 42772.65, 36056.61, 29007.56, 12634.14, -187500.02, 0.00, 0.00, 0.00
70, 50091.13, 38727.28, 46805.76, 42732.46, 36035.30, 28877.85, 12636.11, -187500.02, 0.00, 0.00, 0.00
71, 49873.60, 38613.60, 46627.01, 42627.88, 36014.87, 28783.05, 12649.52, -187500.02, 0.00, 0.00, 0.00
72, 49751.83, 38559.84, 46563.96, 42693.84, 36023.32, 28830.46, 12624.62, -187500.02, 0.00, 0.00, 0.00
73, 49939.81, 38627.37, 46689.46, 42735.98, 36067.38, 28883.10, 12571.92, -187500.02, 0.00, 0.00, 0.00
74, 50074.19, 38675.96, 46715.23, 42693.51, 36072.45, 28808.83, 12570.82, -187500.02, 0.00, 0.00, 0.00
75, 49877.71, 38633.40, 46552.20, 42632.06, 36040.09, 28701.00, 12598.54, -187500.02, 0.05, 0.94, 0.27
76, 49710.61, 38667.24, 46485.66, 42663.46, 36051.95, 28748.21, 12604.89, -187500.02, 0.00, 0.00, 0.00
77, 49855.77, 38828.58, 46620.02, 42724.17, 36121.80, 28842.87, 12566.40, -187500.02, 0.00, 0.00, 0.00
78, 50027.58, 38918.68, 46710.92, 42696.99, 36125.04, 28796.56, 12551.15, -187500.02, 0.00, 0.00, 0.00
79, 49861.13, 38853.43, 46559.09, 42643.19, 36093.35, 28680.84, 12588.26, -187500.02, 0.00, 0.00, 0.00
80, 49652.23, 38805.40, 46440.22, 42653.03, 36097.35, 28710.61, 12606.56, -187500.02, 0.00, 0.00, 0.00
81, 49751.47, 38879.99, 46558.53, 42729.85, 36144.80, 28815.62, 12567.29, -187500.02, 0.00, 0.00, 0.00
82, 49971.23, 38962.29, 46687.61, 42764.61, 36178.38, 28811.35, 12556.29, -187500.02, 0.00, 0.00, 0.00
83, 49890.39, 38919.68, 46571.80, 42674.98, 36155.36, 28713.47, 12612.51, -187500.02, 0.00, 0.00, 0.00
84, 49660.52, 38846.97, 46430.70, 42676.74, 36148.36, 28725.03, 12647.38, -187500.02, 0.00, 0.00, 0.00
85, 49694.41, 38887.41, 46518.07, 42730.39, 36191.34, 28835.22, 12632.04, -187500.02, -0.04, 0.96, 0.28
86, 49943.59, 38991.50, 46680.90, 42720.29, 36220.53, 28868.48, 12618.97, -187500.02, 0.00, 0.00, 0.00
87, 49917.57, 38977.37, 46612.24, 42700.91, 36196.30, 28775.34, 12658.44, -187500.02, 0.00, 0.00, 0.00
88, 49674.38, 38908.80, 46493.79, 42720.64, 36185.95, 28762.65, 12695.81, -187500.02, 0.00, 0.00, 0.00
89, 49651.96, 38929.50, 46538.14, 42787.03, 36211.25, 28873.56, 12687.14, -187500.02, 0.00, 0.00, 0.00
90, 49893.50, 39033.52, 46692.95, 42809.76, 36229.72, 28931.27, 12664.86, -187500.02, 0.00, 0.00, 0.00
91, 49939.23, 39062.40, 46669.32, 42810.47, 36214.56, 28856.59, 12697.98, -187500.02, 0.00, 0.00, 0.00
92, 49690.79, 38992.73, 46525.11, 42702.80, 36192.32, 28800.13, 12728.09, -187500.02, 0.00, 0.00, 0.00
93, 49591.57, 38974.76, 46559.71, 42764.47, 36209.91, 28879.21, 12707.23, -187500.02, 0.00, 0.00, 0.00
94, 49825.46, 39078.22, 46729.32, 42857.55, 36263.29, 28982.30, 12700.93, -187500.02, 0.00, 0.00, 0.00
95, 49937.77, 39120.83, 46765.95, 42770.46, 36237.96, 28910.68, 12716.80, -187500.02, -0.00, 0.96, 0.28
96, 49725.05, 39055.05, 46644.13, 42728.33, 36191.43, 28845.73, 12755.83, -187500.02, 0.00, 0.00, 0.00
97, 49574.45, 39012.91, 46609.67, 42790.47, 36175.36, 28920.09, 12779.92, -187500.02, 0.00, 0.00, 0.00
98, 49758.13, 39092.95, 46777.89, 42886.60, 36216.17, 29021.88, 12770.89, -187500.02, 0.00, 0.00, 0.00
99, 49932.63, 39154.62, 46835.13, 42863.74, 36232.76, 28967.84, 12781.67, -187500.02, 0.00, 0.00, 0.00
100, 49772.48, 39088.98, 46683.61, 42728.80, 36178.42, 28863.01, 12813.03, -187500.02, 0.00, 0.00, 0.00
101, 49608.22, 39042.98, 46634.97, 42773.28, 36174.20, 28916.21, 12807.95, -187500.02, 0.00, 0.00, 0.00
102, 49760.03, 39113.94, 46790.67, 42804.44, 36198.67, 29019.56, 12767.92, -187500.02, 0.00, 0.00, 0.00
103, 49963.05, 39163.56, 46895.55, 42770.13, 36188.46, 28973.96, 12756.81, -187500.02, 0.00, 0.00, 0.00
104, 49849.66, 39085.58, 46769.21, 42730.19, 36146.68, 28863.34, 12802.56, -187500.02, 0.09, 0.96, 0.28
105, 49647.09, 38976.70, 46688.23, 42769.91, 36129.63, 28884.06, 12816.13, -187500.02, 0.00, 0.00, 0.00
106, 49733.17, 38983.09, 46805.24, 42806.29, 36139.24, 28988.29, 12767.83, -187500.02, 0.00, 0.00, 0.00
107, 49971.70, 39048.94, 46896.13, 42780.48, 36135.71, 28968.93, 12733.14, -187500.02, 0.00, 0.00, 0.00
108, 49916.27, 38988.44, 46786.63, 42758.93, 36102.98, 28851.90, 12768.75, -187500.02, 0.00, 0.00, 0.00
109, 49687.55, 38864.86, 46662.24, 42724.26, 36079.38, 28842.73, 12793.15, -187500.02, 0.00, 0.00, 0.00
110, 49702.03, 38856.32, 46736.49, 42730.77, 36082.04, 28930.26, 12737.88, -187500.02, 0.00, 0.00, 0.00
111, 49956.80, 38924.91, 46903.68, 42787.70, 36109.93, 28954.09, 12718.05, -187500.02, 0.00, 0.00, 0.00
112, 49969.89, 38878.85, 46839.62, 42700.59, 36089.77, 28840.52, 12751.96, -187500.02, 0.00, 0.00, 0.00
113, 49751.56, 38770.48, 46678.06, 42701.44, 36057.14, 28821.37, 12802.65, -187500.02, 0.00, 0.00, 0.00
114, 49719.24, 38754.14, 46722.25, 42716.17, 36085.26, 28898.95, 12769.98, -187500.02, 0.14, 0.95, 0.28
115, 49957.82, 38838.32, 46888.28, 42746.66, 36093.66, 28939.72, 12722.63, -187500.02, 0.00, 0.00, 0.00
116, 50017.68, 38825.83, 46865.15, 42687.98, 36057.77, 28841.62, 12728.87, -187500.02, 0.00, 0.00, 0.00
117, 49788.44, 38721.45, 46685.95, 42664.85, 36017.42, 28767.45, 12730.32, -187500.02, 0.00, 0.00, 0.00
118, 49697.71, 38697.37, 46667.18, 42728.64, 36016.68, 28827.18, 12701.96, -187500.02, 0.00, 0.00, 0.00
119, 49932.48, 38791.65, 46826.77, 42718.34, 36064.94, 28909.77, 12668.92, -187500.02, 0.00, 0.00, 0.00
120, 50067.66, 38815.73, 46845.88, 42669.12, 36053.90, 28824.72, 12669.37, -187500.02, 0.00, 0.00, 0.00
121, 49877.65, 38728.11, 46688.75, 42657.95, 36031.28, 28743.72, 12708.60, -187500.02, 0.00, 0.00, 0.00
122, 49742.55, 38682.46, 46641.72, 42742.55, 36032.08, 28798.19, 12688.86, -187500.02, 0.00, 0.00, 0.00
123, 49939.56, 38761.25, 46755.60, 42726.30, 36053.45, 28866.52, 12626.66, -187500.02, 0.00, 0.00, 0.00
124, 50125.98, 38814.99, 46805.64, 42716.37, 36031.48, 28803.02, 12609.92, -187500.02, 0.09, 0.94, 0.28
125, 49971.79, 38753.25, 46649.79, 42621.73, 36007.61, 28705.41, 12655.56, -187500.02, 0.00, 0.00, 0.00
126, 49786.18, 38710.83, 46566.13, 42606.58, 36032.53, 28737.50, 12654.31, -187500.02, 0.00, 0.00, 0.00
127, 49904.02, 38797.93, 46690.42, 42693.62, 36062.08, 28829.90, 12608.98, -187500.02, 0.00, 0.00, 0.00
128, 50115.38, 38907.25, 46787.47, 42668.88, 36062.21, 28799.51, 12593.33, -187500.02, 0.00, 0.00, 0.00
129, 49999.91, 38873.57, 46649.68, 42625.73, 36027.70, 28679.52, 12627.89, -187500.02, 0.00, 0.00, 0.00
130, 49769.24, 38804.37, 46519.86, 42627.05, 36015.97, 28686.14, 12633.90, -187500.02, 0.00, 0.00, 0.00
131, 49822.24, 38854.08, 46603.52, 42700.46, 36036.91, 28792.69, 12602.81, -187500.02, 0.00, 0.00, 0.00
132, 50052.55, 38949.21, 46741.86, 42704.17, 36062.66, 28800.67, 12586.69, -187500.02, 0.00, 0.00, 0.00
133, 49988.58, 38928.49, 46636.31, 42617.27, 36042.48, 28691.77, 12621.16, -187500.02, 0.00, 0.00, 0.00
134, 49727.49, 38894.65, 46524.11, 42645.03, 36033.31, 28677.18, 12644.25, -187500.02, 0.05, 0.96, 0.30
135, 49706.66, 38949.90, 46575.02, 42708.28, 36063.93, 28784.42, 12616.04, -187500.02, 0.00, 0.00, 0.00
136, 49939.36, 39044.74, 46718.50, 42689.44, 36088.99, 28816.79, 12595.86, -187500.02, 0.00, 0.00, 0.00
137, 49950.13, 39038.32, 46672.09, 42631.46, 36056.45, 28707.48, 12620.69, -187500.02, 0.00, 0.00, 0.00
138, 49712.25, 38968.99, 46518.36, 42636.24, 36038.39, 28670.22, 12646.42, -187500.02, 0.00, 0.00, 0.00
139, 49641.34, 38965.41, 46538.68, 42694.80, 36057.43, 28757.28, 12619.93, -187500.02, 0.00, 0.00, 0.00
140, 49852.50, 39041.54, 46698.18, 42712.17, 36061.48, 28803.87, 12584.70, -187500.02, 0.00, 0.00, 0.00
141, 49925.14, 39063.88, 46685.28, 42730.01, 36050.12, 28730.08, 12617.45, -187500.02, 0.00, 0.00, 0.00
142, 49699.84, 39004.04, 46533.18, 42655.15, 36035.30, 28674.31, 12677.77, -187500.02, 0.00, 0.00, 0.00
143, 49562.58, 38981.29, 46519.03, 42594.46, 36040.91, 28726.44, 12637.41, -187500.02, 0.00, 0.00, 0.00
144, 49752.99, 39067.14, 46675.29, 42663.06, 36076.65, 28814.84, 12601.40, -187500.02, 0.03, 0.95, 0.28
145, 49880.46, 39095.41, 46697.96, 42626.25, 36058.37, 28736.59, 12619.26, -187500.02, 0.00, 0.00, 0.00
146, 49674.87, 39016.71, 46542.61, 42596.57, 36014.31, 28641.08, 12655.29, -187500.02, 0.00, 0.00, 0.00
147, 49506.65, 38982.22, 46496.39, 42647.57, 36031.66, 28698.68, 12642.59, -187500.02, 0.00, 0.00, 0.00
148, 49669.11, 39057.35, 46635.53, 42683.96, 36072.88, 28798.08, 12620.38, -187500.02, 0.00, 0.00, 0.00
149, 49858.27, 39114.41, 46708.28, 42648.98, 36054.14, 28757.26, 12628.49, -187500.02, 0.00, 0.00, 0.00
150, 49711.98, 39066.69, 46588.93, 42636.44, 36024.06, 28656.70, 12652.18, -187500.02, 0.00, 0.00, 0.00
151, 49502.61, 39006.61, 46506.36, 42618.29, 36021.94, 28682.41, 12661.88, -187500.02, 0.00, 0.00, 0.00
152, 49605.25, 39053.95, 46623.61, 42721.56, 36054.17, 28782.41, 12615.84, -187500.02, 0.00, 0.00, 0.00
153, 49844.57, 39139.31, 46737.29, 42741.96, 36070.48, 28778.09, 12619.37, -187500.02, 0.04, 0.94, 0.29
154, 49762.27, 39113.38, 46632.31, 42549.14, 36042.66, 28660.43, 12663.18, -187500.02, 0.00, 0.00, 0.00
155, 49529.50, 39047.67, 46531.37, 42607.16, 36022.61, 28671.41, 12677.10, -187500.02, 0.00, 0.00, 0.00
156, 49573.06, 39091.61, 46615.59, 42687.43, 36061.43, 28782.43, 12654.31, -187500.02, 0.00, 0.00, 0.00
157, 49812.29, 39174.31, 46757.64, 42695.99, 36070.08, 28800.67, 12627.84, -187500.02, 0.00, 0.00, 0.00
158, 49789.02, 39160.32, 46692.64, 42668.65, 36038.88, 28698.43, 12658.75, -187500.02, 0.00, 0.00, 0.00
159, 49541.61, 39088.75, 46558.14, 42658.39, 36021.13, 28685.13, 12696.55, -187500.02, 0.00, 0.00, 0.00
160, 49519.71, 39110.16, 46609.60, 42723.41, 36048.02, 28796.80, 12688.46, -187500.02, 0.00, 0.00, 0.00
161, 49774.83, 39208.13, 46778.46, 42751.58, 36084.21, 28855.07, 12654.98, -187500.02, 0.00, 0.00, 0.00
162, 49834.93, 39218.30, 46759.56, 42691.41, 36070.60, 28761.98, 12717.27, -187500.02, 0.00, 0.00, 0.00
163, 49606.77, 39125.63, 46617.55, 42654.26, 36045.07, 28715.20, 12766.42, -187500.02, 0.08, 0.94, 0.30
164, 49526.75, 39094.90, 46619.01, 42733.58, 36060.14, 28801.36, 12738.30, -187500.02, 0.00, 0.00, 0.00
165, 49753.75, 39152.45, 46774.29, 42750.04, 36073.66, 28861.18, 12683.27, -187500.02, 0.00, 0.00, 0.00
166, 49846.36, 39141.34, 46780.59, 42675.94, 36055.80, 28769.44, 12690.49, -187500.02, 0.00, 0.00, 0.00
167, 49620.91, 39045.79, 46620.46, 42713.51, 36037.70, 28697.09, 12751.25, -187500.02, 0.00, 0.00, 0.00
168, 49489.35, 38996.02, 46584.97, 42721.89, 36020.19, 28748.05, 12735.00, -187500.02, 0.00, 0.00, 0.00
169, 49709.54, 39066.78, 46753.16, 42664.92, 36027.75, 28823.89, 12673.44, -187500.02, 0.00, 0.00, 0.00
170, 49908.52, 39101.09, 46793.80, 42650.77, 36040.31, 28770.83, 12673.28, -187500.02, 0.00, 0.00, 0.00
171, 49745.75, 39016.67, 46633.36, 42624.39, 36004.14, 28665.08, 12713.81, -187500.02, 0.00, 0.00, 0.00
172, 49559.31, 38951.89, 46553.23, 42650.10, 35981.34, 28687.97, 12690.67, -187500.02, 0.00, 0.00, 0.00
173, 49698.27, 39014.43, 46676.88, 42684.14, 36007.23, 28789.22, 12653.59, -187500.02, 0.10, 0.94, 0.30
174, 49886.81, 39070.94, 46786.07, 42651.46, 36003.92, 28749.48, 12637.12, -187500.02, 0.00, 0.00, 0.00
175, 49720.31, 38998.47, 46645.77, 42613.29, 35953.25, 28634.08, 12666.31, -187500.02, 0.00, 0.00, 0.00
176, 49481.33, 38925.20, 46533.43, 42625.73, 35949.88, 28644.50, 12663.18, -187500.02, 0.00, 0.00, 0.00
177, 49539.93, 38969.93, 46642.68, 42694.49, 35979.54, 28751.25, 12617.40, -187500.02, 0.00, 0.00, 0.00
178, 49756.41, 39055.00, 46759.18, 42617.49, 36003.59, 28733.86, 12608.60, -187500.02, 0.00, 0.00, 0.00
179, 49673.75, 39015.30, 46651.49, 42586.98, 35976.11, 28613.85, 12645.03, -187500.02, 0.00, 0.00, 0.00
180, 49430.88, 38942.23, 46535.44, 42589.04, 35956.38, 28611.82, 12652.47, -187500.02, 0.00, 0.00, 0.00
181, 49432.69, 38963.29, 46602.89, 42634.43, 35970.17, 28710.12, 12606.74, -187500.02, 0.00, 0.00, 0.00
182, 49677.33, 39057.19, 46750.48, 42642.90, 36000.16, 28737.93, 12592.70, -187500.02, 0.00, 0.00, 0.00
183, 49666.42, 39045.32, 46681.50, 42599.52, 35980.65, 28642.62, 12633.83, -187500.02, 0.08, 0.95, 0.31
184, 49409.11, 38954.86, 46518.27, 42588.63, 35943.37, 28603.26, 12646.75, -187500.02, 0.00, 0.00, 0.00
185, 49361.55, 38962.80, 46536.69, 42642.21, 35948.89, 28698.25, 12598.96, -187500.02, 0.00, 0.00, 0.00
186, 49595.97, 39047.80, 46707.99, 42639.75, 35990.02, 28734.04, 12572.12, -187500.02, 0.00, 0.00, 0.00
187, 49649.32, 39051.91, 46686.11, 42622.79, 35975.42, 28640.68, 12601.49, -187500.02, 0.00, 0.00, 0.00
188, 49409.18, 38965.62, 46506.98, 42614.47, 35936.66, 28575.61, 12626.63, -187500.02, 0.00, 0.00, 0.00
189, 49306.00, 38956.96, 46489.59, 42593.46, 35955.84, 28649.88, 12612.40, -187500.02, 0.00, 0.00, 0.00
190, 49517.88, 39056.27, 46637.96, 42620.06, 35980.47, 28712.47, 12558.19, -187500.02, 0.00, 0.00, 0.00
191, 49638.26, 39126.08, 46645.59, 42581.05, 35963.48, 28633.79, 12575.78, -187500.02, 0.00, 0.00, 0.00
192, 49421.07, 39065.84, 46487.67, 42597.62, 35941.40, 28559.92, 12631.75, -187500.02, 0.00, 0.00, 0.00
193, 49263.89, 39034.26, 46448.78, 42630.90, 35938.88, 28613.90, 12613.78, -187500.02, 0.08, 0.94, 0.31
194, 49449.28, 39111.44, 46592.28, 42594.78, 35962.61, 28688.87, 12557.08, -187500.02, 0.00, 0.00, 0.00
195, 49633.23, 39163.36, 46647.48, 42579.96, 35948.11, 28630.08, 12546.86, -187500.02, 0.00, 0.00, 0.00
196, 49465.06, 39089.42, 46494.55, 42530.47, 35904.84, 28519.57, 12572.79, -187500.02, 0.00, 0.00, 0.00
197, 49271.38, 39029.61, 46410.24, 42587.40, 35897.53, 28558.51, 12557.28, -187500.02, 0.00, 0.00, 0.00
198, 49410.94, 39096.55, 46544.11, 42620.93, 35934.56, 28663.34, 12504.66, -187500.02, 0.00, 0.00, 0.00
199, 49624.29, 39153.39, 46631.04, 42567.13, 35915.18, 28618.26, 12448.60, -187500.02, 0.00, 0.00, 0.00
200, 49512.87, 39098.56, 46499.72, 42576.36, 35863.44, 28527.11, 12550.91, -187500.02, 0.00, 0.00, 0.00
201, 49303.92, 39046.37, 46429.58, 42606.65, 35899.71, 28560.70, 12648.18, -187500.02, 0.00, 0.00, 0.00
202, 49380.25, 39101.69, 46538.72, 42582.06, 35946.54, 28652.83, 12603.61, -187500.02, 0.07, 0.95, 0.31
203, 49626.64, 39195.88, 46655.53, 42539.48, 35953.92, 28660.95, 12584.50, -187500.02, 0.00, 0.00, 0.00
204, 49575.61, 39159.07, 46563.76, 42539.79, 35904.30, 28560.30, 12601.73, -187500.02, 0.00, 0.00, 0.00
205, 49360.65, 39086.89, 46454.52, 42559.39, 35900.36, 28550.06, 12636.40, -187500.02, 0.00, 0.00, 0.00
206, 49384.43, 39116.40, 46500.14, 42607.03, 35933.00, 28657.04, 12602.65, -187500.02, 0.00, 0.00, 0.00
207, 49641.84, 39206.10, 46640.15, 42612.91, 35953.14, 28684.53, 12560.41, -187500.02, 0.00, 0.00, 0.00
208, 49664.10, 39199.77, 46590.11, 42569.36, 35927.90, 28575.90, 12585.95, -187500.02, 0.00, 0.00, 0.00
209, 49427.89, 39118.77, 46438.27, 42559.71, 35897.91, 28541.72, 12615.97, -187500.02, 0.00, 0.00, 0.00
210, 49383.56, 39130.84, 46469.27, 42630.36, 35920.39, 28645.73, 12607.19, -187500.02, 0.00, 0.00, 0.00
211, 49638.04, 39228.74, 46640.07, 42697.95, 35959.17, 28700.55, 12571.85, -187500.02, 0.00, 0.00, 0.00
212, 49726.26, 39251.09, 46624.15, 42603.32, 35937.31, 28600.42, 12586.78, -187500.02, 0.07, 0.93, 0.31
213, 49496.10, 39159.81, 46465.97, 42595.45, 35905.71, 28522.41, 12612.84, -187500.02, 0.00, 0.00, 0.00
214, 49394.80, 39142.11, 46456.18, 42608.84, 35919.39, 28602.88, 12601.26, -187500.02, 0.00, 0.00, 0.00
215, 49627.11, 39236.47, 46619.30, 42599.18, 35956.58, 28678.56, 12561.75, -187500.02, 0.00, 0.00, 0.00
216, 49780.53, 39278.68, 46660.58, 42549.65, 35942.92, 28613.52, 12572.14, -187500.02, 0.00, 0.00, 0.00
217, 49591.46, 39197.74, 46512.28, 42543.59, 35907.14, 28524.49, 12616.42, -187500.02, 0.00, 0.00, 0.00
218, 49429.07, 39153.95, 46466.68, 42576.65, 35916.41, 28573.75, 12613.54, -187500.02, 0.00, 0.00, 0.00
219, 49592.02, 39231.22, 46605.69, 42634.12, 35940.73, 28669.98, 12562.08, -187500.02, 0.00, 0.00, 0.00
220, 49769.24, 39286.41, 46681.86, 42598.71, 35931.77, 28619.49, 12556.27, -187500.02, 0.00, 0.00, 0.00
221, 49602.07, 39208.18, 46543.77, 42550.84, 35886.60, 28513.87, 12600.64, -187500.02, 0.00, 0.00, 0.00
222, 49391.23, 39140.05, 46443.08, 42592.99, 35889.61, 28540.76, 12606.14, -187500.02, 0.07, 0.94, 0.30
223, 49506.56, 39196.38, 46567.76, 42602.69, 35918.27, 28633.28, 12560.43, -187500.02, 0.00, 0.00, 0.00
224, 49721.75, 39249.13, 46667.71, 42575.51, 35908.28, 28604.11, 12538.23, -187500.02, 0.00, 0.00, 0.00
225, 49615.08, 39189.63, 46540.62, 42564.00, 35874.26, 28493.33, 12568.54, -187500.02, 0.00, 0.00, 0.00
226, 49389.66, 39122.39, 46439.97, 42562.57, 35866.79, 28499.08, 12591.94, -187500.02, 0.00, 0.00, 0.00
227, 49436.56, 39155.65, 46534.12, 42550.59, 35892.72, 28604.40, 12560.96, -187500.02, 0.00, 0.00, 0.00
228, 49671.79, 39235.27, 46656.09, 42621.45, 35904.23, 28609.29, 12523.97, -187500.02, 0.00, 0.00, 0.00
229, 49631.46, 39204.46, 46568.65, 42505.66, 35851.32, 28485.33, 12549.27, -187500.02, 0.00, 0.00, 0.00
230, 49382.73, 39125.77, 46439.61, 42468.38, 35846.36, 28468.88, 12581.60, -187500.02, 0.00, 0.00, 0.00
231, 49366.89, 39150.31, 46497.50, 42553.16, 35873.81, 28574.87, 12550.75, -187500.02, 0.00, 0.00, 0.00
232, 49593.13, 39236.18, 46639.33, 42595.85, 35873.81, 28594.65, 12487.94, -187500.02, 0.08, 0.95, 0.30
233, 49610.66, 39231.42, 46593.46, 42545.40, 35850.25, 28487.48, 12512.68, -187500.02, 0.00, 0.00, 0.00
234, 49364.68, 39152.84, 46457.74, 42488.61, 35844.73, 28442.35, 12596.71, -187500.02, 0.00, 0.00, 0.00
235, 49273.82, 39141.70, 46457.29, 42564.58, 35866.84, 28539.13, 12580.48, -187500.02, 0.00, 0.00, 0.00
236, 49487.41, 39232.03, 46617.13, 42562.73, 35883.36, 28609.25, 12524.67, -187500.02, 0.00, 0.00, 0.00
237, 49567.54, 39251.76, 46615.86, 42516.55, 35848.80, 28509.92, 12516.22, -187500.02, 0.00, 0.00, 0.00
238, 49332.13, 39160.88, 46469.16, 42482.20, 35828.13, 28436.20, 12565.12, -187500.02, 0.00, 0.00, 0.00
239, 49194.63, 39123.91, 46441.96, 42532.73, 35848.69, 28514.32, 12557.43, -187500.02, 0.00, 0.00, 0.00
240, 49380.79, 39186.61, 46592.05, 42586.82, 35863.06, 28593.38, 12502.40, -187500.02, 0.00, 0.00, 0.00
241, 49521.92, 39215.22, 46629.29, 42554.66, 35855.19, 28526.23, 12500.50, -187500.02, 0.00, 0.00, 0.00
242, 49330.01, 39134.86, 46466.48, 42572.07, 35817.08, 28427.98, 12540.02, -187500.02, 0.08, 0.94, 0.31
243, 49150.88, 39094.74, 46403.05, 42472.85, 35824.17, 28474.78, 12545.12, -187500.02, 0.00, 0.00, 0.00
244, 49308.10, 39172.44, 46547.53, 42537.65, 35860.22, 28570.07, 12507.46, -187500.02, 0.00, 0.00, 0.00
245, 49511.35, 39237.97, 46632.62, 42528.68, 35864.96, 28529.83, 12503.57, -187500.02, 0.00, 0.00, 0.00
246, 49366.57, 39172.19, 46497.19, 42500.61, 35828.48, 28424.78, 12539.51, -187500.02, 0.00, 0.00, 0.00
247, 49159.87, 39109.23, 46404.37, 42518.25, 35824.88, 28450.39, 12545.36, -187500.02, 0.00, 0.00, 0.00
248, 49247.13, 39157.08, 46511.92, 42562.91, 35850.05, 28558.96, 12504.88, -187500.02, 0.00, 0.00, 0.00
249, 49465.53, 39236.47, 46618.29, 42538.54, 35836.80, 28533.81, 12461.39, -187500.02, 0.00, 0.00, 0.00
250, 49379.67, 39205.99, 46526.79, 42499.05, 35808.97, 28434.73, 12489.91, -187500.02, 0.00, 0.00, 0.00
251, 49139.14, 39134.84, 46426.58, 42562.30, 35808.48, 28450.51, 12562.04, -187500.02, 0.08, 0.94, 0.30
252, 49168.94, 39170.92, 46478.20, 42570.73, 35831.63, 28541.37, 12502.18, -187500.02, 0.00, 0.00, 0.00
253, 49403.03, 39251.47, 46612.24, 42517.24, 35825.38, 28547.18, 12437.58, -187500.02, 0.00, 0.00, 0.00
254, 49388.52, 39236.95, 46545.85, 42517.58, 35802.09, 28437.59, 12493.93, -187500.02, 0.00, 0.00, 0.00
255, 49141.40, 39152.14, 46432.04, 42513.98, 35783.20, 28404.26, 12531.62, -187500.02, 0.00, 0.00, 0.00
0, 49106.07, 39158.20, 46435.84, 42510.69, 35804.34, 28495.93, 12501.42, -187500.02, 0.00, 0.00, 0.00
1, 49339.80, 39240.30, 46580.12, 42557.12, 35824.12, 28534.10, 12463.20, -187500.02, 0.00, 0.00, 0.00
2, 49382.18, 39235.76, 46548.38, 42494.64, 35796.14, 28428.20, 12479.38, -187500.02, 0.00, 0.00, 0.00
3, 49141.27, 39150.87, 46396.88, 42469.90, 35757.67, 28374.78, 12508.46, -187500.02, 0.00, 0.00, 0.00
4, 49053.54, 39139.56, 46423.19, 42517.42, 35778.75, 28458.71, 12501.06, -187500.02, 0.00, 0.00, 0.00
5, 49276.34, 39228.34, 46577.37, 42539.46, 35823.00, 28524.36, 12478.26, -187500.02, 0.08, 0.94, 0.30
6, 49384.90, 39254.71, 46581.35, 42514.38, 35788.07, 28444.54, 12486.27, -187500.02, 0.00, 0.00, 0.00
7, 49164.52, 39171.83, 46422.89, 42429.62, 35755.95, 28346.06, 12505.82, -187500.02, 0.00, 0.00, 0.00
8, 49021.09, 39174.18, 46383.76, 42474.59, 35756.73, 28411.32, 12500.41, -187500.02, 0.00, 0.00, 0.00
9, 49202.80, 39272.53, 46542.93, 42517.89, 35785.61, 28500.78, 12442.75, -187500.02, 0.00, 0.00, 0.00
10, 49358.80, 39322.21, 46591.41, 42482.21, 35786.24, 28446.88, 12455.67, -187500.02, 0.00, 0.00, 0.00
11, 49176.05, 39246.93, 46442.97, 42466.37, 35760.80, 28362.93, 12519.90, -187500.02, 0.00, 0.00, 0.00
12, 48990.80, 39196.64, 46377.25, 42490.91, 35763.62, 28405.02, 12528.80, -187500.02, 0.00, 0.00, 0.00
13, 49125.78, 39254.40, 46504.19, 42516.10, 35790.26, 28505.92, 12472.41, -187500.02, 0.00, 0.00, 0.00
14, 49334.95, 39319.64, 46600.66, 42546.45, 35793.16, 28477.22, 12455.00, -187500.02, 0.00, 0.00, 0.00
15, 49205.96, 39264.93, 46479.00, 42414.80, 35755.61, 28367.00, 12487.52, -187500.02, 0.08, 0.94, 0.29
16, 48985.66, 39201.36, 46366.86, 42465.65, 35747.68, 28375.56, 12501.42, -187500.02, 0.00, 0.00, 0.00
17, 49054.54, 39239.87, 46466.10, 42531.46, 35774.17, 28479.54, 12473.03, -187500.02, 0.00, 0.00, 0.00
18, 49277.53, 39316.11, 46592.48, 42486.11, 35792.14, 28479.92, 12456.22, -187500.02, 0.00, 0.00, 0.00
19, 49197.24, 39278.70, 46487.02, 42466.19, 35748.77, 28366.84, 12489.39, -187500.02, 0.00, 0.00, 0.00
20, 48942.52, 39201.96, 46359.26, 42448.62, 35731.57, 28354.86, 12504.59, -187500.02, 0.00, 0.00, 0.00
21, 48937.96, 39228.79, 46424.93, 42502.40, 35760.82, 28454.28, 12470.19, -187500.02, 0.00, 0.00, 0.00
22, 49172.85, 39319.82, 46570.55, 42482.15, 35782.84, 28483.05, 12443.57, -187500.02, 0.00, 0.00, 0.00
23, 49157.03, 39298.75, 46505.78, 42432.30, 35755.79, 28362.08, 12459.15, -187500.02, 0.00, 0.00, 0.00
24, 48896.63, 39212.94, 46361.16, 42427.48, 35736.10, 28322.16, 12498.67, -187500.02, 0.00, 0.00, 0.00
25, 48840.08, 39214.88, 46396.12, 42505.33, 35759.57, 28423.17, 12487.45, -187500.02, 0.08, 0.94, 0.28
26, 49072.36, 39304.45, 46564.29, 42526.38, 35779.02, 28471.96, 12444.36, -187500.02, 0.00, 0.00, 0.00
27, 49132.62, 39315.18, 46555.73, 42487.34, 35751.97, 28394.92, 12468.65, -187500.02, 0.00, 0.00, 0.00
28, 48882.57, 39221.79, 46389.23, 42534.00, 35723.99, 28332.60, 12485.80, -187500.02, 0.00, 0.00, 0.00
29, 48764.22, 39198.50, 46365.34, 42445.61, 35727.86, 28400.33, 12476.59, -187500.02, 0.00, 0.00, 0.00
30, 48983.09, 39295.13, 46531.52, 42463.95, 35768.13, 28485.20, 12445.12, -187500.02, 0.00, 0.00, 0.00
31, 49100.43, 39320.94, 46563.40, 42435.43, 35742.81, 28395.37, 12438.03, -187500.02, 0.00, 0.00, 0.00
32, 48888.20, 39237.21, 46397.37, 42415.41, 35704.21, 28311.48, 12469.59, -187500.02, 0.00, 0.00, 0.00
33, 48727.67, 39193.65, 46355.86, 42460.71, 35708.43, 28373.39, 12486.15, -187500.02, 0.00, 0.00, 0.00
34, 48897.86, 39266.47, 46504.84, 42513.08, 35741.22, 28467.56, 12443.01, -187500.02, 0.08, 0.94, 0.29
35, 49064.87, 39313.21, 46569.61, 42485.01, 35736.91, 28413.83, 12434.70, -187500.02, 0.00, 0.00, 0.00
36, 48893.30, 39246.06, 46432.02, 42450.61, 35702.06, 28305.15, 12480.48, -187500.02, 0.00, 0.00, 0.00
37, 48691.73, 39189.29, 46346.05, 42439.25, 35692.94, 28335.28, 12466.13, -187500.02, 0.00, 0.00, 0.00
38, 48805.01, 39246.02, 46447.01, 42475.64, 35723.25, 28433.54, 12417.15, -187500.02, 0.00, 0.00, 0.00
39, 49019.56, 39310.57, 46546.50, 42459.75, 35743.32, 28409.65, 12438.37, -187500.02, 0.00, 0.00, 0.00
40, 48918.78, 39266.49, 46438.83, 42471.78, 35713.75, 28313.11, 12466.93, -187500.02, 0.00, 0.00, 0.00
41, 48684.20, 39188.46, 46328.08, 42423.41, 35695.29, 28315.03, 12478.69, -187500.02, 0.00, 0.00, 0.00
42, 48749.11, 39232.16, 46425.09, 42469.43, 35725.21, 28427.28, 12461.61, -187500.02, 0.00, 0.00, 0.00
43, 48991.98, 39314.64, 46553.18, 42482.42, 35736.79, 28436.36, 12427.84, -187500.02, 0.00, 0.00, 0.00
44, 48937.87, 39278.56, 46463.93, 42484.61, 35703.02, 28323.32, 12458.39, -187500.02, 0.08, 0.95, 0.29
45, 48696.65, 39201.96, 46333.09, 42402.22, 35686.13, 28307.88, 12492.37, -187500.02, 0.00, 0.00, 0.00
46, 48699.11, 39230.55, 46391.27, 42454.45, 35710.46, 28413.00, 12466.66, -187500.02, 0.00, 0.00, 0.00
47, 48950.12, 39320.94, 46536.87, 42476.14, 35732.75, 28448.99, 12438.25, -187500.02, 0.00, 0.00, 0.00
48, 48966.57, 39299.84, 46484.99, 42437.42, 35700.52, 28350.73, 12458.88, -187500.02, 0.00, 0.00, 0.00
49, 48719.20, 39193.27, 46346.90, 42418.67, 35672.15, 28293.82, 12474.42, -187500.02, 0.00, 0.00, 0.00
50, 48653.62, 39162.27, 46369.77, 42512.48, 35690.39, 28379.79, 12446.03, -187500.02, 0.00, 0.00, 0.00
51, 48886.26, 39234.38, 46508.50, 42540.82, 35711.02, 28434.90, 12400.77, -187500.02, 0.00, 0.00, 0.00
52, 48974.48, 39247.00, 46502.20, 42431.59, 35698.95, 28345.83, 12424.10, -187500.02, 0.00, 0.00, 0.00
53, 48748.50, 39162.82, 46351.23, 42356.26, 35672.98, 28278.44, 12480.52, -187500.02, 0.00, 0.00, 0.00
54, 48631.00, 39143.69, 46328.17, 42447.30, 35685.61, 28371.13, 12503.39, -187500.02, 0.08, 0.96, 0.29
55, 48843.70, 39235.22, 46478.60, 42532.21, 35713.41, 28441.83, 12450.28, -187500.02, 0.00, 0.00, 0.00
56, 48996.90, 39279.50, 46525.58, 42455.89, 35705.43, 28371.83, 12444.85, -187500.02, 0.00, 0.00, 0.00
57, 48801.99, 39201.02, 46371.91, 42399.47, 35663.39, 28279.36, 12474.84, -187500.02, 0.00, 0.00, 0.00
58, 48624.39, 39145.68, 46303.29, 42463.46, 35657.87, 28322.32, 12473.82, -187500.02, 0.00, 0.00, 0.00
59, 48793.45, 39220.31, 46445.22, 42500.79, 35718.20, 28421.09, 12450.39, -187500.02, 0.00, 0.00, 0.00
60, 48996.48, 39274.50, 46516.15, 42405.57, 35713.41, 28382.58, 12434.72, -187500.02, 0.00, 0.00, 0.00
61, 48851.39, 39209.52, 46380.45, 42376.22, 35665.94, 28255.11, 12461.37, -187500.02, 0.00, 0.00, 0.00
62, 48651.01, 39149.28, 46295.07, 42437.27, 35664.96, 28276.61, 12462.30, -187500.02, 0.00, 0.00, 0.00
63, 48759.73, 39207.57, 46404.21, 42455.35, 35699.38, 28386.11, 12433.16, -187500.02, 0.00, 0.00, 0.00
64, 48989.12, 39312.22, 46514.85, 42435.66, 35709.68, 28376.52, 12424.28, -187500.02, 0.09, 0.94, 0.29
65, 48918.40, 39303.48, 46405.35, 42376.65, 35672.55, 28264.25, 12456.27, -187500.02, 0.00, 0.00, 0.00
66, 48692.80, 39236.81, 46284.56, 42406.27, 35656.38, 28265.63, 12467.51, -187500.02, 0.00, 0.00, 0.00
67, 48736.08, 39272.30, 46368.25, 42517.82, 35684.09, 28376.05, 12434.63, -187500.02, 0.00, 0.00, 0.00
68, 48986.93, 39357.02, 46504.10, 42481.75, 35701.64, 28377.77, 12402.58, -187500.02, 0.00, 0.00, 0.00
69, 48971.22, 39338.24, 46422.54, 42355.95, 35666.92, 28264.43, 12432.69, -187500.02, 0.00, 0.00, 0.00
70, 48726.96, 39250.24, 46274.52, 42358.99, 35640.44, 28235.51, 12449.38, -187500.02, 0.00, 0.00, 0.00
71, 48718.71, 39270.07, 46330.09, 42453.52, 35672.02, 28337.63, 12433.22, -187500.02, 0.00, 0.00, 0.00
72, 48973.14, 39362.38, 46489.75, 42481.01, 35702.02, 28379.92, 12397.35, -187500.02, 0.00, 0.00, 0.00
73, 49013.64, 39358.89, 46444.33, 42437.00, 35679.42, 28276.95, 12411.88, -187500.02, 0.00, 0.00, 0.00
74, 48768.80, 39268.13, 46295.04, 42406.60, 35645.24, 28214.12, 12439.73, -187500.02, 0.08, 0.95, 0.29
75, 48685.05, 39261.42, 46297.75, 42377.79, 35659.12, 28292.55, 12441.23, -187500.02, 0.00, 0.00, 0.00
76, 48912.81, 39347.29, 46450.45, 42429.69, 35670.16, 28368.45, 12381.73, -187500.02, 0.00, 0.00, 0.00
77, 49018.40, 39374.14, 46456.45, 42401.37, 35654.07, 28283.85, 12396.30, -187500.02, 0.00, 0.00, 0.00
78, 48796.41, 39287.77, 46299.65, 42392.18, 35622.67, 28200.41, 12440.27, -187500.02, 0.00, 0.00, 0.00
79, 48665.13, 39254.42, 46280.74, 42452.58, 35635.79, 28275.71, 12446.26, -187500.02, 0.00, 0.00, 0.00
80, 48872.00, 39347.14, 46432.30, 42450.72, 35677.70, 28360.25, 12401.04, -187500.02, 0.00, 0.00, 0.00
81, 49038.63, 39393.79, 46470.04, 42416.17, 35671.50, 28311.86, 12411.68, -187500.02, 0.00, 0.00, 0.00
82, 48854.21, 39322.77, 46320.05, 42387.80, 35642.96, 28216.69, 12463.82, -187500.02, 0.00, 0.00, 0.00
83, 48671.84, 39267.43, 46259.84, 42396.74, 35635.88, 28249.54, 12447.69, -187500.02, 0.08, 0.93, 0.30
84, 48824.43, 39334.89, 46396.14, 42466.37, 35668.33, 28349.50, 12398.91, -187500.02, 0.00, 0.00, 0.00
85, 49037.36, 39404.02, 46476.29, 42415.92, 35670.43, 28306.05, 12387.27, -187500.02, 0.00, 0.00, 0.00
86, 48913.39, 39352.68, 46347.37, 42381.03, 35635.36, 28197.98, 12427.90, -187500.02, 0.00, 0.00, 0.00
87, 48705.59, 39293.70, 46261.88, 42374.39, 35627.38, 28219.70, 12436.22, -187500.02, 0.00, 0.00, 0.00
88, 48795.55, 39343.00, 46368.74, 42423.23, 35656.38, 28318.59, 12394.58, -187500.02, 0.00, 0.00, 0.00
89, 49029.85, 39417.99, 46476.27, 42404.86, 35657.47, 28308.71, 12367.53, -187500.02, 0.00, 0.00, 0.00
90, 48963.86, 39378.61, 46371.06, 42366.19, 35621.82, 28197.35, 12401.82, -187500.02, 0.00, 0.00, 0.00
91, 48732.50, 39305.00, 46259.01, 42444.64, 35612.39, 28201.64, 12431.84, -187500.02, 0.00, 0.00, 0.00
92, 48757.49, 39340.14, 46344.51, 42409.39, 35643.10, 28296.32, 12393.44, -187500.02, 0.00, 0.00, 0.00
93, 49002.64, 39424.07, 46482.33, 42385.37, 35650.79, 28304.86, 12354.59, -187500.02, 0.09, 0.94, 0.29
94, 48997.46, 39407.31, 46402.27, 42365.20, 35637.44, 28206.22, 12410.00, -187500.02, 0.00, 0.00, 0.00
95, 48743.74, 39318.57, 46252.38, 42377.83, 35613.12, 28173.59, 12431.35, -187500.02, 0.00, 0.00, 0.00
96, 48702.35, 39322.15, 46292.76, 42440.93, 35622.15, 28265.81, 12395.99, -187500.02, 0.00, 0.00, 0.00
97, 48938.94, 39403.40, 46438.65, 42440.98, 35626.42, 28303.14, 12349.07, -187500.02, 0.00, 0.00, 0.00
98, 49004.72, 39413.19, 46420.23, 42372.63, 35626.09, 28213.62, 12386.00, -187500.02, 0.00, 0.00, 0.00
99, 48766.88, 39331.56, 46268.38, 42317.02, 35591.98, 28147.15, 12407.36, -187500.02, 0.00, 0.00, 0.00
100, 48661.51, 39319.38, 46268.02, 42404.23, 35596.67, 28229.31, 12390.60, -187500.02, 0.00, 0.00, 0.00
101, 48875.98, 39407.64, 46425.64, 42418.87, 35624.37, 28297.04, 12360.33, -187500.02, 0.00, 0.00, 0.00
102, 48987.67, 39425.88, 46433.00, 42354.90, 35607.13, 28207.32, 12362.28, -187500.02, 0.00, 0.00, 0.00
103, 48774.14, 39339.34, 46272.58, 42316.86, 35570.77, 28116.13, 12367.17, -187500.02, 0.08, 0.95, 0.28
104, 48618.86, 39295.93, 46228.55, 42367.66, 35547.95, 28154.21, 12302.31, -187500.02, 0.00, 0.00, 0.00
105, 48800.56, 39378.03, 46367.82, 42408.03, 35557.69, 28248.16, 12228.66, -187500.02, 0.00, 0.00, 0.00
106, 48991.51, 39436.50, 46440.98, 42379.98, 35597.12, 28225.54, 12347.24, -187500.02, 0.00, 0.00, 0.00
107, 48836.73, 39379.77, 46312.01, 42380.79, 35607.82, 28150.68, 12510.38, -187500.02, 0.00, 0.00, 0.00
108, 48642.96, 39321.93, 46231.43, 42360.24, 35580.64, 28180.05, 12419.84, -187500.02, 0.00, 0.00, 0.00
109, 48761.89, 39372.86, 46337.31, 42373.83, 35584.33, 28218.70, 12300.48, -187500.02, 0.00, 0.00, 0.00
110, 48979.58, 39436.37, 46431.90, 42381.41, 35575.86, 28208.88, 12324.89, -187500.02, 0.00, 0.00, 0.00
111, 48885.66, 39392.20, 46318.71, 42370.88, 35552.55, 28180.54, 12394.04, -187500.02, 0.00, 0.00, 0.00
112, 48683.17, 39338.36, 46215.74, 42336.57, 35563.05, 28175.89, 12478.82, -187500.02, 0.00, 0.00, 0.00
113, 48761.76, 39390.32, 46313.89, 42388.61, 35601.57, 28269.90, 12433.63, -187500.02, 0.08, 0.92, 0.29
114, 49015.99, 39481.92, 46442.23, 42421.35, 35615.04, 28271.27, 12378.87, -187500.02, 0.00, 0.00, 0.00
115, 48962.93, 39451.68, 46344.29, 42344.55, 35563.79, 28148.87, 12370.75, -187500.02, 0.00, 0.00, 0.00
116, 48722.91, 39376.31, 46202.62, 42323.05, 35542.13, 28126.99, 12374.13, -187500.02, 0.00, 0.00, 0.00
117, 48732.75, 39402.13, 46264.76, 42365.05, 35575.95, 28223.81, 12385.19, -187500.02, 0.00, 0.00, 0.00
118, 48986.98, 39496.07, 46417.60, 42365.54, 35607.04, 28255.71, 12367.76, -187500.02, 0.00, 0.00, 0.00
119, 49001.37, 39479.41, 46355.59, 42329.64, 35565.85, 28138.81, 12361.74, -187500.02, 0.00, 0.00, 0.00
120, 48769.14, 39389.83, 46203.96, 42300.92, 35528.12, 28069.05, 12322.40, -187500.02, 0.00, 0.00, 0.00
121, 48716.68, 39390.81, 46223.43, 42335.84, 35518.44, 28136.64, 12224.62, -187500.02, 0.00, 0.00, 0.00
122, 48960.69, 39486.88, 46375.93, 42373.05, 35574.63, 28207.61, 12298.00, -187500.02, 0.00, 0.00, 0.00
123, 49052.49, 39505.70, 46377.81, 42310.69, 35572.53, 28159.93, 12398.33, -187500.02, 0.09, 0.92, 0.29
124, 48836.97, 39437.02, 46231.96, 42310.29, 35551.27, 28113.58, 12458.50, -187500.02, 0.00, 0.00, 0.00
125, 48724.41, 39416.92, 46210.42, 42371.51, 35552.35, 28182.62, 12427.77, -187500.02, 0.00, 0.00, 0.00
126, 48934.43, 39495.96, 46347.70, 42351.88, 35571.53, 28253.12, 12342.59, -187500.02, 0.00, 0.00, 0.00
127, 49072.14, 39522.27, 46369.70, 42320.68, 35550.09, 28171.78, 12319.32, -187500.02, 0.00, 0.00, 0.00
128, 48880.16, 39448.84, 46219.09, 42307.56, 35521.44, 28074.66, 12392.99, -187500.02, 0.00, 0.00, 0.00
129, 48733.57, 39420.94, 46170.28, 42344.46, 35526.84, 28139.08, 12393.73, -187500.02, 0.00, 0.00, 0.00
130, 48911.74, 39507.51, 46309.84, 42381.25, 35557.89, 28235.42, 12345.49, -187500.02, 0.00, 0.00, 0.00
131, 49099.98, 39560.55, 46370.23, 42350.23, 35545.22, 28177.23, 12320.86, -187500.02, 0.00, 0.00, 0.00
132, 48954.52, 39503.76, 46225.15, 42377.97, 35509.39, 28067.46, 12359.04, -187500.02, 0.09, 0.92, 0.32
133, 48757.02, 39448.57, 46151.30, 42362.93, 35507.18, 28096.77, 12362.84, -187500.02, 0.00, 0.00, 0.00
134, 48879.42, 39513.93, 46273.16, 42310.02, 35548.82, 28196.01, 12323.72, -187500.02, 0.00, 0.00, 0.00
135, 49107.86, 39587.42, 46369.50, 42337.36, 35549.55, 28172.09, 12305.73, -187500.02, 0.00, 0.00, 0.00
136, 49011.29, 39543.72, 46255.12, 42264.40, 35508.41, 28060.74, 12345.45, -187500.02, 0.00, 0.00, 0.00
137, 48788.69, 39477.49, 46147.25, 42273.79, 35501.01, 28065.83, 12358.97, -187500.02, 0.00, 0.00, 0.00
138, 48840.15, 39519.13, 46233.89, 42345.98, 35529.13, 28169.66, 12320.26, -187500.02, 0.00, 0.00, 0.00
139, 49079.54, 39605.05, 46363.20, 42335.19, 35536.32, 28164.07, 12291.22, -187500.02, 0.00, 0.00, 0.00
140, 49045.76, 39575.46, 46279.89, 42283.71, 35503.80, 28054.12, 12319.68, -187500.02, 0.00, 0.00, 0.00
141, 48802.55, 39484.89, 46139.86, 42288.36, 35481.05, 28026.43, 12335.32, -187500.02, 0.00, 0.00, 0.00
142, 48790.05, 39503.31, 46200.20, 42335.23, 35496.04, 28116.88, 12305.28, -187500.02, 0.08, 0.94, 0.32
143, 49041.02, 39602.33, 46359.39, 42348.60, 35523.61, 28159.93, 12275.31, -187500.02, 0.00, 0.00, 0.00
144, 49065.86, 39581.61, 46301.10, 42287.62, 35491.02, 28058.99, 12295.05, -187500.02, 0.00, 0.00, 0.00
145, 48826.56, 39496.25, 46151.79, 42315.58, 35477.05, 28022.98, 12339.01, -187500.02, 0.00, 0.00, 0.00
146, 48753.22, 39493.09, 46167.37, 42349.67, 35493.92, 28112.71, 12329.24, -187500.02, 0.00, 0.00, 0.00
147, 48992.88, 39594.06, 46317.06, 42353.89, 35520.27, 28171.78, 12285.21, -187500.02, 0.00, 0.00, 0.00
148, 49082.51, 39601.79, 46312.66, 42300.09, 35495.60, 28071.62, 12277.95, -187500.02, 0.00, 0.00, 0.00
149, 48868.64, 39519.74, 46171.37, 42283.15, 35472.13, 28001.28, 12322.94, -187500.02, 0.00, 0.00, 0.00
150, 48743.43, 39492.85, 46155.43, 42320.72, 35483.06, 28073.14, 12307.45, -187500.02, 0.00, 0.00, 0.00
151, 48938.61, 39565.52, 46308.50, 42347.57, 35502.86, 28150.90, 12263.49, -187500.02, 0.00, 0.00, 0.00
152, 49092.79, 39600.94, 46325.91, 42317.17, 35479.68, 28084.70, 12265.38, -187500.02, 0.08, 0.98, 0.30
153, 48901.86, 39522.87, 46174.19, 42289.68, 35442.11, 27993.35, 12307.76, -187500.02, 0.00, 0.00, 0.00
154, 48715.69, 39466.81, 46129.77, 42324.14, 35462.45, 28037.71, 12297.53, -187500.02, 0.00, 0.00, 0.00
155, 48875.08, 39541.29, 46260.04, 42334.76, 35491.68, 28132.08, 12253.07, -187500.02, 0.00, 0.00, 0.00
156, 49082.82, 39606.80, 46339.37, 42321.44, 35495.53, 28094.00, 12253.25, -187500.02, 0.00, 0.00, 0.00
157, 48944.75, 39545.96, 46202.91, 42289.19, 35458.23, 27989.99, 12296.59, -187500.02, 0.00, 0.00, 0.00
158, 48729.33, 39477.38, 46117.41, 42306.02, 35435.36, 28011.05, 12298.47, -187500.02, 0.00, 0.00, 0.00
159, 48837.82, 39541.57, 46245.38, 42327.74, 35465.73, 28121.53, 12258.17, -187500.02, 0.00, 0.00, 0.00
160, 49068.16, 39613.05, 46354.41, 42324.61, 35472.02, 28098.24, 12223.48, -187500.02, 0.00, 0.00, 0.00
161, 48982.30, 39558.45, 46228.23, 42269.96, 35439.43, 27985.68, 12269.77, -187500.02, 0.00, 0.00, 0.00
162, 48747.86, 39484.07, 46108.25, 42283.60, 35430.22, 27999.54, 12319.10, -187500.02, 0.09, 1.00, 0.29
163, 48785.00, 39522.31, 46187.22, 42351.37, 35463.57, 28110.63, 12294.69, -187500.02, 0.00, 0.00, 0.00
164, 49026.79, 39598.24, 46327.52, 42343.88, 35476.57, 28115.39, 12248.71, -187500.02, 0.00, 0.00, 0.00
165, 49014.54, 39573.65, 46260.31, 42280.27, 35432.39, 27998.44, 12255.68, -187500.02, 0.00, 0.00, 0.00
166, 48745.22, 39478.63, 46118.20, 42238.07, 35397.52, 27957.85, 12257.43, -187500.02, 0.00, 0.00, 0.00
167, 48716.88, 39490.86, 46177.83, 42316.84, 35434.58, 28066.55, 12265.52, -187500.02, 0.00, 0.00, 0.00
168, 48976.65, 39588.96, 46321.57, 42340.93, 35479.08, 28119.83, 12275.76, -187500.02, 0.00, 0.00, 0.00
169, 49026.79, 39583.11, 46293.61, 42364.22, 35439.38, 28032.78, 12284.32, -187500.02, 0.00, 0.00, 0.00
170, 48783.44, 39488.38, 46143.30, 42359.84, 35409.27, 27968.98, 12293.95, -187500.02, 0.00, 0.00, 0.00
171, 48687.62, 39469.40, 46149.89, 42272.76, 35425.12, 28019.99, 12276.23, -187500.02, 0.09, 0.99, 0.27
172, 48923.25, 39558.14, 46310.22, 42255.52, 35453.51, 28098.44, 12237.92, -187500.02, 0.00, 0.00, 0.00
173, 49051.64, 39582.77, 46332.57, 42214.82, 35426.13, 28013.89, 12187.82, -187500.02, 0.00, 0.00, 0.00
174, 48824.46, 39486.46, 46174.43, 42208.34, 35389.43, 27918.33, 12230.40, -187500.02, 0.00, 0.00, 0.00
175, 48668.04, 39444.03, 46110.53, 42277.52, 35394.68, 27983.44, 12293.95, -187500.02, 0.00, 0.00, 0.00
176, 48873.27, 39535.99, 46266.50, 42294.06, 35435.40, 28080.18, 12258.88, -187500.02, 0.00, 0.00, 0.00
177, 49059.02, 39585.59, 46334.79, 42250.45, 35426.46, 28023.05, 12241.11, -187500.02, 0.00, 0.00, 0.00
178, 48884.00, 39501.77, 46177.65, 42231.96, 35390.59, 27919.16, 12262.57, -187500.02, 0.00, 0.00, 0.00
179, 48703.31, 39454.71, 46108.41, 42265.45, 35400.13, 27959.62, 12266.39, -187500.02, 0.00, 0.00, 0.00
180, 48851.32, 39525.13, 46249.42, 42300.21, 35412.27, 28058.97, 12216.19, -187500.02, 0.00, 0.00, 0.00
181, 49067.35, 39584.11, 46314.89, 42266.28, 35419.78, 28022.02, 12204.10, -187500.02, 0.09, 0.95, 0.25
182, 48947.59, 39525.39, 46178.99, 42252.30, 35409.43, 27918.11, 12258.52, -187500.02, 0.00, 0.00, 0.00
183, 48732.79, 39459.50, 46105.37, 42273.29, 35394.54, 27928.97, 12270.57, -187500.02, 0.00, 0.00, 0.00
184, 48819.18, 39514.11, 46226.16, 42227.50, 35435.88, 28037.47, 12224.44, -187500.02, 0.00, 0.00, 0.00
185, 49068.11, 39590.55, 46335.86, 42226.87, 35434.27, 28020.91, 12198.42, -187500.02, 0.00, 0.00, 0.00
186, 49015.83, 39552.57, 46227.77, 42198.84, 35404.52, 27913.80, 12224.24, -187500.02, 0.00, 0.00, 0.00
187, 48786.82, 39482.43, 46113.73, 42253.31, 35396.91, 27923.81, 12253.02, -187500.02, 0.00, 0.00, 0.00
188, 48805.77, 39501.41, 46179.93, 42337.18, 35425.57, 28023.23, 12226.25, -187500.02, 0.00, 0.00, 0.00
189, 49068.36, 39591.00, 46320.32, 42282.75, 35448.61, 28049.18, 12184.47, -187500.02, 0.00, 0.00, 0.00
190, 49074.17, 39577.90, 46265.34, 42194.62, 35399.33, 27931.21, 12179.31, -187500.02, 0.00, 0.00, 0.00
191, 48819.65, 39481.54, 46130.64, 42194.35, 35369.51, 27877.68, 12188.43, -187500.02, 0.08, 0.96, 0.24
192, 48785.39, 39488.13, 46145.82, 42262.79, 35407.06, 27971.66, 12182.50, -187500.02, 0.00, 0.00, 0.00
193, 49042.27, 39579.64, 46313.59, 42274.72, 35443.96, 28023.70, 12208.08, -187500.02, 0.00, 0.00, 0.00
194, 49112.77, 39578.66, 46280.45, 42223.14, 35417.48, 27921.15, 12238.27, -187500.02, 0.00, 0.00, 0.00
195, 48869.59, 39482.32, 46112.54, 42218.49, 35388.18, 27846.45, 12249.29, -187500.02, 0.00, 0.00, 0.00
196, 48765.80, 39463.25, 46107.64, 42357.07, 35412.34, 27938.56, 12242.23, -187500.02, 0.00, 0.00, 0.00
197, 48997.01, 39560.53, 46266.63, 42248.66, 35438.73, 28013.44, 12199.51, -187500.02, 0.00, 0.00, 0.00
198, 49125.38, 39583.69, 46284.96, 42176.69, 35409.79, 27929.04, 12191.56, -187500.02, 0.00, 0.00, 0.00
199, 48911.38, 39498.53, 46145.73, 42170.88, 35373.73, 27840.50, 12225.17, -187500.02, 0.00, 0.00, 0.00
200, 48761.56, 39464.95, 46087.51, 42226.15, 35393.52, 27903.45, 12242.16, -187500.02, 0.00, 0.00, 0.00
201, 48938.94, 39542.89, 46218.40, 42253.42, 35412.89, 27991.71, 12181.28, -187500.02, 0.07, 0.94, 0.24
202, 49128.82, 39599.67, 46274.34, 42210.71, 35401.99, 27936.66, 12173.41, -187500.02, 0.00, 0.00, 0.00
203, 48974.28, 39530.49, 46134.98, 42174.03, 35368.53, 27830.71, 12216.88, -187500.02, 0.00, 0.00, 0.00
204, 48779.53, 39473.71, 46062.09, 42211.74, 35355.79, 27867.35, 12221.35, -187500.02, 0.00, 0.00, 0.00
205, 48910.24, 39530.18, 46180.42, 42281.74, 35388.98, 27974.01, 12172.65, -187500.02, 0.00, 0.00, 0.00
206, 49145.07, 39608.14, 46285.61, 42232.46, 35417.21, 27955.86, 12169.32, -187500.02, 0.00, 0.00, 0.00
207, 49039.70, 39555.55, 46165.20, 42151.61, 35389.20, 27842.03, 12215.29, -187500.02, 0.00, 0.00, 0.00
208, 48820.66, 39484.76, 46064.11, 42174.77, 35365.87, 27845.76, 12217.73, -187500.02, 0.00, 0.00, 0.00
209, 48890.59, 39530.22, 46149.67, 42214.24, 35382.16, 27941.80, 12165.36, -187500.02, 0.00, 0.00, 0.00
210, 49138.99, 39601.52, 46264.18, 42205.32, 35398.32, 27932.84, 12140.75, -187500.02, 0.00, 0.00, 0.00
211, 49091.94, 39551.86, 46182.52, 42166.74, 35366.14, 27818.73, 12142.34, -187500.02, 0.06, 0.96, 0.24
212, 48855.35, 39472.09, 46044.79, 42189.68, 35311.24, 27805.93, 12088.96, -187500.02, 0.00, 0.00, 0.00
213, 48871.77, 39502.44, 46112.38, 42218.40, 35355.18, 27917.91, 12120.55, -187500.02, 0.00, 0.00, 0.00
214, 49138.41, 39599.82, 46276.43, 42274.16, 35434.62, 27970.55, 12249.18, -187500.02, 0.00, 0.00, 0.00
215, 49166.37, 39596.70, 46213.77, 42296.43, 35402.95, 27889.54, 12274.39, -187500.02, 0.00, 0.00, 0.00
216, 48919.81, 39514.78, 46063.21, 42120.92, 35376.84, 27853.60, 12269.57, -187500.02, 0.00, 0.00, 0.00
217, 48862.43, 39523.54, 46094.17, 42170.10, 35390.10, 27931.88, 12222.78, -187500.02, 0.00, 0.00, 0.00
218, 49104.03, 39641.33, 46243.66, 42222.24, 35399.89, 27982.55, 12150.03, -187500.02, 0.00, 0.00, 0.00
219, 49204.23, 39685.50, 46230.87, 42186.48, 35380.26, 27886.48, 12178.59, -187500.02, 0.00, 0.00, 0.00
220, 48973.95, 39624.12, 46089.83, 42158.70, 35345.46, 27812.77, 12211.05, -187500.02, 0.05, 0.91, 0.25
221, 48846.02, 39631.12, 46066.14, 42225.04, 35372.17, 27893.14, 12199.18, -187500.02, 0.00, 0.00, 0.00
222, 49059.35, 39732.68, 46212.12, 42268.62, 35396.04, 27970.66, 12148.73, -187500.02, 0.00, 0.00, 0.00
223, 49215.97, 39782.71, 46245.91, 42192.78, 35368.57, 27891.53, 12135.57, -187500.02, 0.00, 0.00, 0.00
224, 49018.36, 39707.18, 46074.07, 42135.74, 35333.01, 27786.71, 12159.93, -187500.02, 0.00, 0.00, 0.00
225, 48854.83, 39676.40, 46029.71, 42131.47, 35349.48, 27831.61, 12160.71, -187500.02, 0.00, 0.00, 0.00
226, 49037.45, 39765.61, 46182.97, 42199.73, 35398.73, 27953.40, 12157.29, -187500.02, 0.00, 0.00, 0.00
227, 49247.26, 39840.73, 46261.47, 42212.72, 35396.58, 27948.22, 12177.41, -187500.02, 0.00, 0.00, 0.00
228, 49099.18, 39767.91, 46116.43, 42149.04, 35337.86, 27813.53, 12152.42, -187500.02, 0.00, 0.00, 0.00
229, 48887.58, 39702.35, 46035.54, 42173.65, 35333.73, 27841.20, 12194.35, -187500.02, 0.00, 0.00, 0.00
230, 49008.61, 39769.36, 46148.73, 42250.63, 35388.60, 27983.85, 12211.07, -187500.02, 0.05, 0.94, 0.29
231, 49241.29, 39838.09, 46221.91, 42224.77, 35392.33, 27945.51, 12150.50, -187500.02, 0.00, 0.00, 0.00
232, 49175.31, 39808.12, 46151.50, 42183.95, 35381.78, 27847.93, 12214.56, -187500.02, 0.00, 0.00, 0.00
233, 48955.77, 39748.26, 46049.62, 42180.15, 35369.27, 27858.25, 12238.99, -187500.02, 0.00, 0.00, 0.00
234, 48996.72, 39781.43, 46121.23, 42232.82, 35389.94, 27957.90, 12193.52, -187500.02, 0.00, 0.00, 0.00
235, 49234.01, 39847.01, 46264.31, 42210.04, 35394.32, 27948.98, 12152.06, -187500.02, 0.00, 0.00, 0.00
236, 49213.60, 39813.98, 46155.48, 42144.57, 35356.79, 27818.76, 12174.62, -187500.02, 0.00, 0.00, 0.00
237, 48975.51, 39734.36, 46013.63, 42149.22, 35342.11, 27805.55, 12203.69, -187500.02, 0.00, 0.00, 0.00
238, 48959.64, 39752.22, 46066.41, 42240.28, 35375.23, 27903.94, 12170.86, -187500.02, 0.00, 0.00, 0.00
239, 49215.72, 39847.10, 46231.70, 42332.21, 35401.90, 27942.56, 12114.78, -187500.02, 0.00, 0.00, 0.00
240, 49279.14, 39855.17, 46206.82, 42150.79, 35377.78, 27846.09, 12159.44, -187500.02, 0.04, 0.93, 0.30
241, 49039.34, 39771.06, 46048.13, 42076.89, 35339.31, 27792.11, 12187.42, -187500.02, 0.00, 0.00, 0.00
242, 48943.88, 39753.98, 46056.06, 42154.47, 35375.52, 27872.65, 12182.17, -187500.02, 0.00, 0.00, 0.00
243, 49179.58, 39853.50, 46205.82, 42232.97, 35408.67, 27934.29, 12128.82, -187500.02, 0.00, 0.00, 0.00
244, 49300.10, 39880.07, 46217.26, 42229.04, 35389.38, 27848.46, 12117.44, -187500.02, 0.00, 0.00, 0.00
245, 49078.75, 39789.41, 46062.68, 42158.27, 35361.00, 27766.59, 12153.45, -187500.02, 0.00, 0.00, 0.00
246, 48931.61, 39750.36, 46037.46, 42173.63, 35373.76, 27829.78, 12146.81, -187500.02, 0.00, 0.00, 0.00
247, 49119.70, 39815.72, 46182.19, 42183.62, 35420.34, 27913.88, 12135.14, -187500.02, 0.00, 0.00, 0.00
248, 49275.85, 39837.56, 46242.25, 42137.46, 35419.82, 27819.34, 12121.44, -187500.02, 0.00, 0.00, 0.00
249, 49085.93, 39773.65, 46098.71, 42102.57, 35392.62, 27703.06, 12135.25, -187500.02, 0.00, 0.00, 0.00
250, 48884.47, 39698.13, 46027.83, 42133.57, 35397.38, 27755.93, 12128.17, -187500.02, -0.02, 0.93, 0.29
251, 49017.44, 39746.00, 46167.75, 42192.87, 35427.98, 27856.96, 12092.25, -187500.02, 0.00, 0.00, 0.00
252, 49204.70, 39775.46, 46244.93, 42153.89, 35463.75, 27804.36, 12089.30, -187500.02, 0.00, 0.00, 0.00
253, 49065.70, 39695.16, 46098.08, 42111.36, 35448.26, 27681.07, 12125.02, -187500.02, 0.00, 0.00, 0.00
254, 48821.89, 39584.49, 45987.39, 42110.11, 35439.72, 27701.05, 12132.95, -187500.02, 0.00, 0.00, 0.00
255, 48883.42, 39542.83, 46112.16, 42197.63, 35467.59, 27792.47, 12094.51, -187500.02, 0.00, 0.00, 0.00
0, 49121.33, 39548.37, 46215.72, 42172.78, 35489.00, 27770.66, 12068.51, -187500.02, 0.00, 0.00, 0.00
1, 49042.96, 39453.29, 46117.37, 42086.95, 35452.79, 27642.22, 12103.40, -187500.02, 0.00, 0.00, 0.00
2, 48795.84, 39346.91, 46007.15, 42056.44, 35447.16, 27644.73, 12135.23, -187500.02, 0.00, 0.00, 0.00
3, 48814.98, 39357.40, 46074.01, 42097.32, 35466.72, 27763.19, 12096.25, -187500.02, 0.00, 0.00, 0.00
4, 49063.04, 39427.71, 46190.91, 42135.56, 35476.53, 27775.82, 12052.48, -187500.02, -0.05, 0.94, 0.26
5, 49085.97, 39439.07, 46132.12, 42058.18, 35440.05, 27672.91, 12075.66, -187500.02, 0.00, 0.00, 0.00
6, 48817.84, 39367.63, 45978.45, 42062.54, 35402.28, 27637.84, 12100.99, -187500.02, 0.00, 0.00, 0.00
7, 48753.15, 39355.52, 46006.91, 42081.98, 35408.70, 27723.09, 12070.48, -187500.02, 0.00, 0.00, 0.00
8, 49016.37, 39442.27, 46180.60, 42052.75, 35407.29, 27760.60, 12029.95, -187500.02, 0.00, 0.00, 0.00
9, 49088.81, 39431.96, 46162.96, 41968.57, 35388.87, 27667.01, 12063.59, -187500.02, 0.00, 0.00, 0.00
10, 48849.78, 39355.32, 46005.79, 41983.37, 35367.05, 27612.16, 12095.78, -187500.02, 0.00, 0.00, 0.00
11, 48743.14, 39370.36, 45991.98, 42028.07, 35359.23, 27677.74, 12071.35, -187500.02, 0.00, 0.00, 0.00
12, 48980.25, 39468.44, 46143.52, 42020.88, 35368.13, 27746.76, 12022.91, -187500.02, 0.00, 0.00, 0.00
13, 49117.02, 39469.36, 46159.23, 41969.31, 35332.83, 27656.10, 12015.96, -187500.02, 0.02, 0.95, 0.22
14, 48908.59, 39402.21, 45999.13, 41908.69, 35301.29, 27575.48, 12053.83, -187500.02, 0.00, 0.00, 0.00
15, 48758.92, 39400.02, 45966.85, 41989.52, 35295.75, 27649.15, 12049.02, -187500.02, 0.00, 0.00, 0.00
16, 48951.95, 39487.91, 46085.07, 42043.09, 35274.14, 27735.96, 11993.01, -187500.02, 0.00, 0.00, 0.00
17, 49135.01, 39545.02, 46174.43, 41892.73, 35266.52, 27649.87, 11969.72, -187500.02, 0.00, 0.00, 0.00
18, 48978.39, 39534.60, 46053.67, 41827.42, 35239.27, 27547.34, 12018.49, -187500.02, 0.00, 0.00, 0.00
19, 48775.50, 39529.82, 45983.82, 41889.11, 35211.06, 27601.52, 12023.58, -187500.02, 0.00, 0.00, 0.00
20, 48907.43, 39623.25, 46113.35, 41907.39, 35210.43, 27692.04, 11967.48, -187500.02, 0.00, 0.00, 0.00
21, 49124.28, 39679.96, 46217.53, 41894.07, 35183.84, 27631.09, 11923.87, -187500.02, 0.00, 0.00, 0.00
22, 49021.02, 39638.56, 46146.00, 41847.74, 35158.27, 27517.54, 11973.40, -187500.02, 0.00, 0.00, 0.00
23, 48792.70, 39585.99, 46070.39, 41846.31, 35135.42, 27526.64, 11979.69, -187500.02, 0.12, 0.98, 0.19
24, 48860.49, 39650.00, 46180.00, 41851.65, 35159.56, 27643.92, 11945.40, -187500.02, 0.00, 0.00, 0.00
25, 49102.78, 39730.43, 46290.33, 41837.12, 35156.59, 27625.75, 11912.50, -187500.02, 0.00, 0.00, 0.00
26, 49064.60, 39704.54, 46203.82, 41765.55, 35119.02, 27509.77, 11948.24, -187500.02, 0.00, 0.00, 0.00
27, 48836.95, 39642.07, 46098.19, 41823.58, 35118.61, 27520.03, 11986.06, -187500.02, 0.00, 0.00, 0.00
28, 48837.02, 39668.71, 46166.75, 41889.52, 35138.75, 27612.88, 11954.18, -187500.02, 0.00, 0.00, 0.00
29, 49088.77, 39756.76, 46337.09, 41875.75, 35144.45, 27629.06, 11906.86, -187500.02, 0.00, 0.00, 0.00
30, 49136.31, 39765.74, 46308.43, 41859.65, 35115.17, 27532.16, 11930.82, -187500.02, 0.00, 0.00, 0.00
31, 48913.30, 39707.63, 46161.63, 41878.14, 35094.16, 27518.93, 11980.67, -187500.02, 0.00, 0.00, 0.00
32, 48870.34, 39727.57, 46190.46, 41900.20, 35139.80, 27617.63, 11977.56, -187500.02, 0.00, 0.00, 0.00
33, 49131.57, 39819.54, 46355.64, 41933.97, 35189.69, 27667.46, 11942.60, -187500.02, 0.17, 0.98, 0.18
34, 49239.37, 39833.31, 46385.66, 41868.14, 35170.58, 27565.98, 11968.98, -187500.02, 0.00, 0.00, 0.00
35, 49009.28, 39755.46, 46231.23, 41862.20, 35128.65, 27502.88, 11998.71, -187500.02, 0.00, 0.00, 0.00
36, 48883.04, 39740.13, 46175.77, 41890.32, 35123.24, 27573.33, 11985.45, -187500.02, 0.00, 0.00, 0.00
37, 49108.19, 39828.21, 46320.70, 41926.24, 35136.94, 27650.69, 11934.89, -187500.02, 0.00, 0.00, 0.00
38, 49265.79, 39853.36, 46364.56, 41871.25, 35126.39, 27566.38, 11927.56, -187500.02, 0.00, 0.00, 0.00
39, 49070.13, 39769.09, 46214.96, 41840.90, 35089.71, 27482.83, 11972.73, -187500.02, 0.00, 0.00, 0.00
40, 48894.60, 39737.87, 46158.23, 41869.09, 35090.70, 27560.46, 11968.87, -187500.02, 0.00, 0.00, 0.00
41, 49084.94, 39826.74, 46300.86, 41938.15, 35118.21, 27642.85, 11933.86, -187500.02, 0.00, 0.00, 0.00
42, 49294.00, 39872.56, 46378.28, 41957.93, 35109.14, 27582.81, 11927.63, -187500.02, 0.00, 0.00, 0.00
43, 49138.05, 39792.99, 46248.42, 41903.98, 35062.40, 27471.39, 11952.21, -187500.02, 0.21, 1.00, 0.16
44, 48928.05, 39739.81, 46161.52, 41837.50, 35066.62, 27511.02, 11951.10, -187500.02, 0.00, 0.00, 0.00
45, 49043.10, 39801.66, 46275.33, 41888.93, 35113.94, 27619.02, 11944.08, -187500.02, 0.00, 0.00, 0.00
46, 49276.86, 39865.65, 46385.37, 41886.12, 35102.70, 27588.29, 11924.32, -187500.02, 0.00, 0.00, 0.00
47, 49191.74, 39814.45, 46284.85, 41807.06, 35061.26, 27463.99, 11946.05, -187500.02, 0.00, 0.00, 0.00
48, 48961.41, 39741.49, 46179.75, 41869.98, 35062.15, 27492.82, 11974.68, -187500.02, 0.00, 0.00, 0.00
49, 49002.80, 39752.55, 46250.03, 41925.99, 35076.17, 27598.46, 11933.48, -187500.02, 0.00, 0.00, 0.00
50, 49271.22, 39822.40, 46381.75, 41905.29, 35096.73, 27588.06, 11914.46, -187500.02, 0.00, 0.00, 0.00
51, 49263.09, 39786.64, 46314.27, 41844.41, 35069.86, 27478.76, 11950.09, -187500.02, 0.00, 0.00, 0.00
52, 49024.13, 39713.15, 46181.77, 41879.41, 35070.29, 27489.83, 11985.92, -187500.02, 0.20, 0.99, 0.17
53, 49005.28, 39733.76, 46226.18, 41945.80, 35099.66, 27594.59, 11976.02, -187500.02, 0.00, 0.00, 0.00
54, 49266.66, 39809.59, 46365.50, 41919.85, 35102.36, 27613.30, 11938.98, -187500.02, 0.00, 0.00, 0.00
55, 49325.98, 39797.70, 46348.84, 41876.77, 35086.76, 27515.78, 11960.69, -187500.02, 0.00, 0.00, 0.00
56, 49090.93, 39723.27, 46210.13, 41919.67, 35079.25, 27482.23, 12002.08, -187500.02, 0.00, 0.00, 0.00
57, 49006.45, 39726.78, 46217.50, 41954.00, 35084.06, 27582.12, 11987.22, -187500.02, 0.00, 0.00, 0.00
58, 49256.31, 39815.30, 46361.41, 41930.15, 35106.99, 27637.95, 11953.22, -187500.02, 0.00, 0.00, 0.00
59, 49393.11, 39840.53, 46390.57, 41923.47, 35114.05, 27561.85, 11980.11, -187500.02, 0.00, 0.00, 0.00
60, 49196.61, 39778.17, 46279.66, 41942.24, 35110.36, 27517.63, 12040.39, -187500.02, 0.00, 0.00, 0.00
61, 49087.20, 39772.22, 46268.78, 42007.62, 35129.30, 27607.62, 12044.68, -187500.02, 0.00, 0.00, 0.00
62, 49332.40, 39877.84, 46427.66, 42078.30, 35169.26, 27714.80, 12029.40, -187500.02, 0.20, 0.99, 0.17
63, 49524.96, 39919.63, 46487.11, 42012.74, 35188.17, 27648.88, 12049.91, -187500.02, 0.00, 0.00, 0.00
64, 49347.29, 39845.27, 46381.81, 41986.86, 35197.63, 27572.53, 12126.11, -187500.02, 0.00, 0.00, 0.00
65, 49157.70, 39808.59, 46313.37, 42048.17, 35187.23, 27655.86, 12136.62, -187500.02, 0.00, 0.00, 0.00
66, 49327.84, 39909.80, 46443.82, 42160.44, 35234.20, 27768.89, 12089.57, -187500.02, 0.00, 0.00, 0.00
67, 49569.02, 39985.04, 46544.42, 42070.36, 35246.64, 27710.78, 12092.70, -187500.02, 0.00, 0.00, 0.00
68, 49423.48, 39880.83, 46426.76, 42006.17, 35204.67, 27582.01, 12120.61, -187500.02, 0.00, 0.00, 0.00
69, 49190.46, 39804.90, 46298.62, 42038.80, 35168.19, 27608.54, 12103.89, -187500.02, 0.00, 0.00, 0.00
70, 49266.46, 39847.71, 46368.58, 42036.32, 35196.35, 27704.18, 12071.08, -187500.02, 0.00, 0.00, 0.00
71, 49522.66, 39900.41, 46487.18, 42030.38, 35191.05, 27670.83, 12036.41, -187500.02, 0.00, 0.00, 0.00
72, 49429.76, 39825.75, 46385.77, 41990.95, 35139.46, 27529.48, 12041.93, -187500.02, 0.18, 0.97, 0.16
73, 49148.58, 39733.42, 46224.66, 41935.02, 35077.57, 27503.73, 12016.99, -187500.02, 0.00, 0.00, 0.00
74, 49149.45, 39737.40, 46257.45, 41943.85, 35084.55, 27584.73, 11964.89, -187500.02, 0.00, 0.00, 0.00
75, 49373.97, 39758.03, 46358.23, 41937.84, 35062.71, 27553.75, 11907.96, -187500.02, 0.00, 0.00, 0.00
76, 49363.16, 39704.43, 46270.86, 41863.32, 35013.18, 27410.86, 11911.04, -187500.02, 0.00, 0.00, 0.00
77, 49090.02, 39601.81, 46109.59, 41823.38, 35009.34, 27373.82, 11928.34, -187500.02, 0.00, 0.00, 0.00
78, 49030.81, 39623.96, 46128.14, 41838.64, 35012.69, 27473.65, 11912.50, -187500.02, 0.00, 0.00, 0.00
79, 49281.66, 39705.59, 46273.05, 41850.38, 35017.94, 27490.37, 11862.70, -187500.02, 0.00, 0.00, 0.00
80, 49351.04, 39699.34, 46265.61, 41789.18, 35005.16, 27373.67, 11864.24, -187500.02, 0.00, 0.00, 0.00
81, 49118.09, 39635.12, 46132.59, 41799.08, 34987.39, 27347.31, 11909.90, -187500.02, 0.00, 0.00, 0.00
82, 49028.75, 39646.38, 46136.30, 41878.81, 35007.03, 27458.36, 11913.46, -187500.02, 0.16, 0.96, 0.18
83, 49278.40, 39752.15, 46271.98, 41887.88, 35034.55, 27528.07, 11870.23, -187500.02, 0.00, 0.00, 0.00
84, 49413.40, 39767.62, 46296.56, 41867.18, 35026.99, 27424.27, 11874.57, -187500.02, 0.00, 0.00, 0.00
85, 49196.93, 39695.89, 46157.36, 41845.39, 35004.71, 27363.29, 11917.15, -187500.02, 0.00, 0.00, 0.00
86, 49044.62, 39696.68, 46123.74, 41914.59, 35023.82, 27456.84, 11927.85, -187500.02, 0.00, 0.00, 0.00
87, 49247.66, 39798.20, 46275.08, 41908.96, 35066.55, 27549.20, 11904.47, -187500.02, 0.00, 0.00, 0.00
88, 49444.20, 39844.42, 46341.27, 41932.21, 35066.60, 27485.78, 11926.58, -187500.02, 0.00, 0.00, 0.00
89, 49276.12, 39770.21, 46210.11, 41851.81, 35047.73, 27402.90, 11976.47, -187500.02, 0.00, 0.00, 0.00
90, 49080.59, 39734.05, 46148.04, 41870.61, 35087.72, 27471.37, 11986.64, -187500.02, 0.00, 0.00, 0.00
91, 49225.27, 39795.56, 46256.96, 41928.00, 35093.49, 27574.88, 11955.70, -187500.02, 0.00, 0.00, 0.00
92, 49473.77, 39856.09, 46356.78, 41967.99, 35106.54, 27541.64, 11946.52, -187500.02, 0.14, 0.96, 0.18
93, 49361.32, 39795.02, 46244.48, 41859.14, 35074.60, 27412.76, 11962.21, -187500.02, 0.00, 0.00, 0.00
94, 49114.71, 39728.17, 46123.74, 41839.13, 35063.83, 27428.25, 11962.68, -187500.02, 0.00, 0.00, 0.00
95, 49195.36, 39789.93, 46232.26, 41925.39, 35102.88, 27552.97, 11960.84, -187500.02, 0.00, 0.00, 0.00
96, 49461.75, 39862.70, 46365.81, 41926.24, 35110.81, 27548.81, 11937.40, -187500.02, 0.00, 0.00, 0.00
97, 49413.47, 39822.27, 46290.19, 41917.88, 35080.12, 27435.22, 11974.28, -187500.02, 0.00, 0.00, 0.00
98, 49155.75, 39749.94, 46161.18, 41886.12, 35056.36, 27431.24, 12003.51, -187500.02, 0.00, 0.00, 0.00
99, 49161.07, 39780.58, 46223.76, 41939.38, 35089.91, 27536.92, 11977.05, -187500.02, 0.00, 0.00, 0.00
100, 49420.09, 39842.16, 46383.06, 41942.40, 35094.56, 27535.72, 11944.79, -187500.02, 0.00, 0.00, 0.00
101, 49438.13, 39818.20, 46312.32, 41882.83, 35053.90, 27431.22, 11972.00, -187500.02, 0.15, 0.95, 0.17
102, 49169.12, 39738.02, 46146.14, 41866.29, 35032.02, 27423.94, 11979.39, -187500.02, 0.00, 0.00, 0.00
103, 49094.29, 39732.48, 46151.32, 41941.39, 35044.07, 27508.63, 11941.67, -187500.02, 0.00, 0.00, 0.00
104, 49349.92, 39819.56, 46314.45, 41947.59, 35059.67, 27552.50, 11920.99, -187500.02, 0.00, 0.00, 0.00
105, 49429.50, 39813.84, 46310.67, 41877.00, 35051.42, 27426.48, 11929.59, -187500.02, 0.00, 0.00, 0.00
106, 49174.86, 39720.14, 46164.64, 41884.39, 35012.66, 27355.99, 11946.31, -187500.02, 0.00, 0.00, 0.00
107, 49058.34, 39733.76, 46151.57, 41911.15, 35011.46, 27483.82, 11973.74, -187500.02, 0.00, 0.00, 0.00
108, 49283.34, 39809.91, 46288.02, 41851.67, 35062.31, 27533.95, 11930.76, -187500.02, 0.00, 0.00, 0.00
109, 49430.73, 39823.50, 46339.28, 41828.67, 35057.12, 27449.37, 11913.48, -187500.02, 0.00, 0.00, 0.00
110, 49210.40, 39732.06, 46188.34, 41818.30, 35011.73, 27366.49, 11946.52, -187500.02, 0.00, 0.00, 0.00
111, 49034.47, 39708.61, 46132.77, 41873.15, 35023.89, 27422.26, 11943.18, -187500.02, 0.13, 0.96, 0.18
112, 49220.86, 39800.70, 46260.62, 41931.71, 35054.44, 27511.93, 11903.78, -187500.02, 0.00, 0.00, 0.00
113, 49415.19, 39835.55, 46333.11, 41879.52, 35034.64, 27446.85, 11890.35, -187500.02, 0.00, 0.00, 0.00
114, 49252.52, 39755.30, 46195.42, 41868.41, 34971.27, 27335.09, 11928.19, -187500.02, 0.00, 0.00, 0.00
115, 49037.27, 39717.62, 46094.57, 41870.45, 34994.63, 27370.43, 11960.37, -187500.02, 0.00, 0.00, 0.00
116, 49156.11, 39788.96, 46211.76, 41867.59, 35013.20, 27502.84, 11954.54, -187500.02, 0.00, 0.00, 0.00
117, 49381.44, 39838.96, 46340.62, 41872.53, 34982.29, 27473.78, 11932.75, -187500.02, 0.00, 0.00, 0.00
118, 49276.95, 39768.58, 46243.28, 41823.98, 34950.26, 27347.27, 11933.73, -187500.02, 0.00, 0.00, 0.00
119, 49039.91, 39705.28, 46115.36, 41835.91, 34922.07, 27382.85, 11954.16, -187500.02, 0.00, 0.00, 0.00
120, 49095.14, 39741.80, 46185.95, 41920.89, 34905.69, 27498.66, 11906.82, -187500.02, 0.00, 0.00, 0.00
121, 49376.36, 39825.18, 46335.90, 41940.50, 34946.68, 27490.99, 11902.73, -187500.02, 0.14, 0.95, 0.18
122, 49373.73, 39807.92, 46283.51, 41877.80, 34929.07, 27384.42, 11986.86, -187500.02, 0.00, 0.00, 0.00
123, 49089.44, 39755.48, 46150.79, 41856.90, 34886.49, 27376.13, 11990.48, -187500.02, 0.00, 0.00, 0.00
124, 49088.92, 39785.12, 46185.83, 41900.71, 34897.75, 27488.08, 11947.43, -187500.02, 0.00, 0.00, 0.00
125, 49363.16, 39849.34, 46328.57, 41885.18, 34898.47, 27489.65, 11878.23, -187500.02, 0.00, 0.00, 0.00
126, 49402.83, 39821.42, 46306.27, 41832.88, 34865.88, 27362.65, 11878.79, -187500.02, 0.00, 0.00, 0.00
127, 49151.02, 39745.85, 46155.77, 41866.70, 34854.15, 27327.24, 11914.84, -187500.02, 0.00, 0.00, 0.00
128, 49077.93, 39759.41, 46161.76, 41881.82, 34878.40, 27432.47, 11915.63, -187500.02, 0.00, 0.00, 0.00
129, 49344.63, 39859.21, 46316.59, 41894.63, 34898.54, 27481.89, 11881.40, -187500.02, 0.00, 0.00, 0.00
130, 49450.53, 39865.21, 46309.93, 41850.85, 34872.99, 27366.71, 11888.62, -187500.02, 0.00, 0.00, 0.00
131, 49221.98, 39785.75, 46162.27, 41835.47, 34848.63, 27319.11, 11925.82, -187500.02, 0.14, 0.93, 0.17
132, 49082.57, 39772.89, 46128.93, 41932.23, 34857.21, 27411.29, 11919.02, -187500.02, 0.00, 0.00, 0.00
133, 49286.09, 39851.15, 46280.98, 41885.58, 34887.34, 27475.77, 11881.25, -187500.02, 0.00, 0.00, 0.00
134, 49453.52, 39868.78, 46351.46, 41821.70, 34871.38, 27385.76, 11869.85, -187500.02, 0.00, 0.00, 0.00
135, 49249.70, 39784.23, 46201.86, 41827.46, 34838.23, 27290.90, 11904.63, -187500.02, 0.00, 0.00, 0.00
136, 49058.32, 39750.43, 46122.44, 41839.76, 34841.99, 27357.82, 11916.45, -187500.02, 0.00, 0.00, 0.00
137, 49227.14, 39828.55, 46234.87, 41880.89, 34875.22, 27456.79, 11890.70, -187500.02, 0.00, 0.00, 0.00
138, 49439.49, 39862.66, 46301.41, 41854.04, 34859.67, 27383.59, 11873.16, -187500.02, 0.00, 0.00, 0.00
139, 49288.32, 39792.77, 46175.86, 41786.94, 34816.37, 27269.08, 11898.41, -187500.02, 0.00, 0.00, 0.00
140, 49050.54, 39742.38, 46088.27, 41826.86, 34834.84, 27321.63, 11904.27, -187500.02, 0.00, 0.00, 0.00
141, 49141.85, 39790.89, 46191.96, 41885.16, 34850.53, 27426.06, 11858.92, -187500.02, 0.14, 0.97, 0.17
142, 49386.87, 39839.52, 46304.77, 41846.89, 34854.48, 27386.43, 11844.64, -187500.02, 0.00, 0.00, 0.00
143, 49308.71, 39786.82, 46217.35, 41758.60, 34836.22, 27277.40, 11895.62, -187500.02, 0.00, 0.00, 0.00
144, 49061.94, 39721.84, 46096.11, 41782.74, 34820.20, 27294.70, 11915.69, -187500.02, 0.00, 0.00, 0.00
145, 49096.81, 39764.94, 46166.16, 41867.70, 34836.62, 27411.91, 11883.06, -187500.02, 0.00, 0.00, 0.00
146, 49353.57, 39836.89, 46297.08, 41861.64, 34836.62, 27401.29, 11852.82, -187500.02, 0.00, 0.00, 0.00
147, 49337.20, 39800.86, 46246.38, 41809.23, 34813.29, 27274.92, 11871.10, -187500.02, 0.00, 0.00, 0.00
148, 49085.52, 39731.41, 46114.66, 41800.29, 34786.78, 27265.84, 11898.93, -187500.02, 0.00, 0.00, 0.00
149, 49061.59, 39773.65, 46133.17, 41856.28, 34812.10, 27376.86, 11893.52, -187500.02, 0.00, 0.00, 0.00
150, 49331.06, 39857.72, 46288.65, 41887.57, 34831.21, 27409.63, 11857.29, -187500.02, 0.13, 0.99, 0.16
151, 49386.09, 39837.09, 46274.17, 41853.95, 34817.51, 27306.41, 11869.33, -187500.02, 0.00, 0.00, 0.00
152, 49126.94, 39750.27, 46121.50, 41800.98, 34779.56, 27260.21, 11903.44, -187500.02, 0.00, 0.00, 0.00
153, 49031.12, 39759.35, 46117.59, 41798.07, 34787.32, 27343.29, 11897.59, -187500.02, 0.00, 0.00, 0.00
154, 49272.47, 39839.73, 46265.58, 41855.68, 34801.02, 27400.69, 11856.88, -187500.02, 0.00, 0.00, 0.00
155, 49402.83, 39855.35, 46314.07, 41836.94, 34798.87, 27316.78, 11869.00, -187500.02, 0.00, 0.00, 0.00
156, 49169.12, 39773.41, 46162.25, 41796.49, 34769.84, 27246.89, 11910.10, -187500.02, 0.00, 0.00, 0.00
157, 49001.08, 39749.25, 46128.05, 41847.56, 34764.63, 27318.28, 11900.76, -187500.02, 0.00, 0.00, 0.00
158, 49195.52, 39831.37, 46254.43, 41868.35, 34770.55, 27395.71, 11857.94, -187500.02, 0.00, 0.00, 0.00
159, 49368.56, 39857.83, 46294.35, 41793.52, 34734.12, 27320.96, 11850.36, -187500.02, 0.00, 0.00, 0.00
160, 49170.35, 39766.01, 46179.95, 41784.48, 34750.73, 27225.85, 11898.59, -187500.02, 0.13, 1.00, 0.15
161, 48951.68, 39726.63, 46132.75, 41830.37, 34753.25, 27287.14, 11897.07, -187500.02, 0.00, 0.00, 0.00
162, 49086.51, 39794.26, 46250.86, 41842.69, 34760.52, 27389.85, 11852.64, -187500.02, 0.00, 0.00, 0.00
163, 49312.86, 39838.70, 46328.44, 41846.51, 34758.41, 27340.07, 11843.72, -187500.02, 0.00, 0.00, 0.00
164, 49172.61, 39763.33, 46220.50, 41786.85, 34726.25, 27222.70, 11881.76, -187500.02, 0.00, 0.00, 0.00
165, 48931.05, 39714.58, 46129.11, 41794.07, 34735.86, 27267.29, 11909.77, -187500.02, 0.00, 0.00, 0.00
166, 48993.19, 39754.66, 46215.43, 41836.90, 34730.79, 27354.35, 11856.71, -187500.02, 0.00, 0.00, 0.00
167, 49236.15, 39815.07, 46330.76, 41838.46, 34744.42, 27322.17, 11841.71, -187500.02, 0.00, 0.00, 0.00
168, 49158.26, 39759.91, 46246.41, 41744.36, 34717.24, 27218.81, 11873.47, -187500.02, 0.00, 0.00, 0.00
169, 48892.83, 39699.82, 46127.72, 41771.81, 34715.63, 27236.36, 11900.05, -187500.02, 0.00, 0.00, 0.00
170, 48911.56, 39734.05, 46190.93, 41851.83, 34731.97, 27344.59, 11875.55, -187500.02, 0.14, 1.02, 0.14
171, 49186.49, 39787.40, 46345.38, 41881.31, 34747.15, 27360.70, 11858.38, -187500.02, 0.00, 0.00, 0.00
172, 49182.31, 39734.07, 46301.30, 41797.94, 34709.89, 27249.86, 11884.36, -187500.02, 0.00, 0.00, 0.00
173, 48908.61, 39648.77, 46143.36, 41777.11, 34681.59, 27235.51, 11925.53, -187500.02, 0.00, 0.00, 0.00
174, 48845.13, 39659.30, 46182.82, 41837.55, 34717.64, 27337.70, 11905.79, -187500.02, 0.00, 0.00, 0.00
175, 49106.58, 39745.89, 46335.84, 41853.80, 34726.45, 27364.75, 11867.61, -187500.02, 0.00, 0.00, 0.00
176, 49192.32, 39737.82, 46320.10, 41815.06, 34697.46, 27273.75, 11884.89, -187500.02, 0.00, 0.00, 0.00
177, 48936.33, 39650.65, 46166.05, 41809.59, 34644.49, 27230.88, 11919.58, -187500.02, 0.00, 0.00, 0.00
178, 48809.57, 39638.70, 46169.56, 41914.28, 34653.88, 27328.72, 11910.06, -187500.02, 0.00, 0.00, 0.00
179, 49040.91, 39718.40, 46308.95, 41939.85, 34672.09, 27389.27, 11869.16, -187500.02, 0.00, 0.00, 0.00
180, 49183.22, 39747.52, 46338.03, 41826.30, 34645.16, 27285.15, 11875.55, -187500.02, 0.14, 0.99, 0.13
181, 48964.63, 39679.17, 46209.68, 41739.94, 34634.00, 27205.00, 11913.55, -187500.02, 0.00, 0.00, 0.00
182, 48795.36, 39661.52, 46165.76, 41799.41, 34642.32, 27287.14, 11905.28, -187500.02, 0.00, 0.00, 0.00
183, 49000.54, 39760.60, 46304.97, 41880.08, 34670.15, 27379.81, 11872.04, -187500.02, 0.00, 0.00, 0.00
184, 49192.97, 39786.30, 46360.13, 41846.31, 34645.74, 27293.27, 11856.39, -187500.02, 0.00, 0.00, 0.00
185, 49009.39, 39699.18, 46227.92, 41746.44, 34611.59, 27187.16, 11905.68, -187500.02, 0.00, 0.00, 0.00
186, 48790.26, 39653.67, 46171.28, 41763.74, 34633.71, 27256.07, 11916.38, -187500.02, 0.00, 0.00, 0.00
187, 48925.82, 39724.52, 46270.39, 41837.21, 34659.38, 27360.61, 11876.02, -187500.02, 0.00, 0.00, 0.00
188, 49162.93, 39765.54, 46363.21, 41800.09, 34662.17, 27313.67, 11861.29, -187500.02, 0.00, 0.00, 0.00
189, 49055.68, 39704.88, 46248.73, 41763.36, 34636.78, 27200.89, 11903.91, -187500.02, 0.12, 1.00, 0.13
190, 48805.57, 39657.98, 46131.43, 41835.89, 34639.37, 27243.89, 11935.05, -187500.02, 0.00, 0.00, 0.00
191, 48869.72, 39711.80, 46221.30, 41855.23, 34649.16, 27338.15, 11878.43, -187500.02, 0.00, 0.00, 0.00
192, 49144.87, 39765.23, 46335.63, 41828.11, 34656.18, 27311.89, 11853.76, -187500.02, 0.00, 0.00, 0.00
193, 49107.92, 39708.52, 46262.86, 41776.15, 34656.42, 27202.01, 11903.17, -187500.02, 0.00, 0.00, 0.00
194, 48846.94, 39639.50, 46152.39, 41808.51, 34644.09, 27201.58, 11921.24, -187500.02, 0.00, 0.00, 0.00
195, 48833.24, 39671.95, 46172.46, 41825.99, 34653.76, 27307.59, 11891.89, -187500.02, 0.00, 0.00, 0.00
196, 49124.17, 39763.02, 46321.30, 41815.11, 34661.09, 27339.87, 11865.71, -187500.02, 0.00, 0.00, 0.00
197, 49141.96, 39721.53, 46278.21, 41768.35, 34626.34, 27217.79, 11884.51, -187500.02, 0.00, 0.00, 0.00
198, 48871.66, 39639.99, 46137.11, 41762.60, 34636.35, 27179.29, 11915.71, -187500.02, 0.00, 0.00, 0.00
199, 48815.70, 39664.06, 46160.62, 41835.71, 34647.46, 27287.32, 11900.43, -187500.02, 0.11, 0.98, 0.14
200, 49080.74, 39734.61, 46315.68, 41883.79, 34666.28, 27330.13, 11860.17, -187500.02, 0.00, 0.00, 0.00
201, 49178.51, 39722.60, 46318.80, 41831.45, 34649.34, 27240.45, 11881.36, -187500.02, 0.00, 0.00, 0.00
202, 48945.91, 39661.74, 46187.49, 41796.22, 34635.05, 27184.37, 11926.49, -187500.02, 0.00, 0.00, 0.00
203, 48826.69, 39648.13, 46160.24, 41840.92, 34632.89, 27262.96, 11891.89, -187500.02, 0.00, 0.00, 0.00
204, 49051.86, 39724.43, 46304.41, 41880.62, 34659.93, 27337.46, 11847.05, -187500.02, 0.00, 0.00, 0.00
205, 49205.00, 39727.43, 46331.45, 41856.90, 34649.61, 27224.63, 11840.81, -187500.02, 0.00, 0.00, 0.00
206, 49006.15, 39639.10, 46194.30, 41795.17, 34634.47, 27156.27, 11911.78, -187500.02, 0.00, 0.00, 0.00
207, 48821.24, 39615.98, 46136.39, 41823.80, 34641.29, 27247.24, 11917.53, -187500.02, 0.00, 0.00, 0.00
208, 49007.18, 39705.21, 46273.34, 41848.86, 34668.92, 27324.27, 11869.09, -187500.02, 0.00, 0.00, 0.00
209, 49249.03, 39761.96, 46356.11, 41840.59, 34680.43, 27264.68, 11871.30, -187500.02, 0.10, 0.95, 0.14
210, 49112.50, 39700.23, 46229.17, 41824.00, 34654.34, 27170.78, 11915.65, -187500.02, 0.00, 0.00, 0.00
211, 48884.20, 39657.67, 46138.00, 41864.32, 34656.78, 27215.46, 11914.95, -187500.02, 0.00, 0.00, 0.00
212, 48992.70, 39728.19, 46235.68, 41889.58, 34676.74, 27312.13, 11872.26, -187500.02, 0.00, 0.00, 0.00
213, 49233.25, 39785.99, 46350.83, 41853.11, 34677.30, 27255.31, 11831.47, -187500.02, 0.00, 0.00, 0.00
214, 49138.12, 39706.55, 46253.02, 41786.16, 34635.05, 27125.47, 11860.10, -187500.02, 0.00, 0.00, 0.00
215, 48898.06, 39659.75, 46112.86, 41841.19, 34623.43, 27160.30, 11884.71, -187500.02, 0.00, 0.00, 0.00
216, 48954.77, 39718.67, 46189.52, 41957.71, 34634.68, 27292.55, 11870.63, -187500.02, 0.00, 0.00, 0.00
217, 49230.30, 39796.68, 46325.69, 41885.85, 34664.40, 27262.22, 11844.64, -187500.02, 0.00, 0.00, 0.00
218, 49214.09, 39761.85, 46268.47, 41842.33, 34640.89, 27130.10, 11874.50, -187500.02, 0.00, 0.00, 0.00
219, 48947.99, 39689.39, 46132.84, 41871.45, 34621.64, 27114.23, 11896.80, -187500.02, 0.12, 0.95, 0.15
220, 48927.16, 39722.13, 46165.05, 41899.30, 34626.34, 27222.08, 11869.25, -187500.02, 0.00, 0.00, 0.00
221, 49193.84, 39787.42, 46312.52, 41891.50, 34622.00, 27222.30, 11807.22, -187500.02, 0.00, 0.00, 0.00
222, 49242.99, 39759.44, 46288.36, 41888.42, 34613.78, 27146.71, 11852.48, -187500.02, 0.00, 0.00, 0.00
223, 48989.19, 39680.80, 46134.02, 41866.16, 34583.15, 27129.67, 11893.16, -187500.02, 0.00, 0.00, 0.00
224, 48897.41, 39688.98, 46131.99, 41918.26, 34600.07, 27218.99, 11891.44, -187500.02, 0.00, 0.00, 0.00
225, 49148.22, 39772.16, 46288.52, 41891.14, 34619.03, 27253.01, 11832.07, -187500.02, 0.00, 0.00, 0.00
226, 49261.84, 39766.43, 46297.23, 41820.76, 34576.54, 27143.53, 11826.20, -187500.02, 0.00, 0.00, 0.00
227, 49031.63, 39679.44, 46144.71, 41814.12, 34548.73, 27063.56, 11838.40, -187500.02, 0.00, 0.00, 0.00
228, 48888.25, 39656.17, 46098.93, 41831.67, 34570.53, 27139.85, 11837.08, -187500.02, 0.00, 0.00, 0.00
229, 49100.59, 39751.55, 46222.89, 41853.06, 34601.82, 27227.06, 11834.60, -187500.02, 0.14, 0.93, 0.17
230, 49277.88, 39785.16, 46293.72, 41843.31, 34594.93, 27152.96, 11831.96, -187500.02, 0.00, 0.00, 0.00
231, 49085.10, 39718.96, 46173.34, 41824.76, 34564.27, 27056.38, 11855.63, -187500.02, 0.00, 0.00, 0.00
232, 48905.84, 39689.32, 46098.44, 41804.04, 34561.96, 27123.93, 11859.48, -187500.02, 0.00, 0.00, 0.00
233, 49085.90, 39752.20, 46220.68, 41837.12, 34591.78, 27231.00, 11830.29, -187500.02, 0.00, 0.00, 0.00
234, 49313.47, 39797.86, 46317.02, 41838.87, 34597.55, 27161.64, 11803.31, -187500.02, 0.00, 0.00, 0.00
235, 49186.40, 39735.32, 46216.75, 41779.03, 34554.77, 27056.58, 11839.79, -187500.02, 0.00, 0.00, 0.00
236, 48953.89, 39685.72, 46102.04, 41780.46, 34536.39, 27089.96, 11855.41, -187500.02, 0.00, 0.00, 0.00
237, 49055.11, 39739.57, 46198.08, 41871.30, 34547.55, 27202.81, 11817.61, -187500.02, 0.00, 0.00, 0.00
238, 49325.38, 39811.12, 46324.91, 41833.25, 34579.36, 27180.03, 11795.48, -187500.02, 0.16, 0.95, 0.19
239, 49247.02, 39760.40, 46233.62, 41725.41, 34537.09, 27050.15, 11824.70, -187500.02, 0.00, 0.00, 0.00
240, 48991.18, 39699.04, 46117.97, 41759.61, 34526.87, 27069.88, 11864.73, -187500.02, 0.00, 0.00, 0.00
241, 49020.70, 39725.60, 46187.04, 41829.23, 34548.82, 27188.26, 11838.91, -187500.02, 0.00, 0.00, 0.00
242, 49307.79, 39809.08, 46334.98, 41818.93, 34563.75, 27190.29, 11800.22, -187500.02, 0.00, 0.00, 0.00
243, 49289.13, 39769.47, 46265.88, 41723.39, 34512.61, 27054.39, 11804.45, -187500.02, 0.00, 0.00, 0.00
244, 49030.05, 39709.93, 46113.95, 41789.27, 34501.84, 27049.41, 11852.57, -187500.02, 0.00, 0.00, 0.00
245, 48994.91, 39749.69, 46125.98, 41842.69, 34524.23, 27175.41, 11859.79, -187500.02, 0.00, 0.00, 0.00
246, 49271.38, 39822.52, 46273.03, 41768.95, 34525.75, 27192.62, 11797.81, -187500.02, 0.00, 0.00, 0.00
247, 49330.61, 39812.59, 46256.49, 41727.78, 34513.57, 27069.68, 11810.24, -187500.02, 0.00, 0.00, 0.00
248, 49084.96, 39748.80, 46117.77, 41760.28, 34504.21, 27037.25, 11862.58, -187500.02, 0.16, 0.95, 0.19
249, 48994.55, 39732.82, 46108.09, 41847.63, 34511.41, 27143.94, 11851.32, -187500.02, 0.00, 0.00, 0.00
250, 49235.62, 39817.04, 46257.76, 41817.96, 34536.82, 27193.87, 11799.84, -187500.02, 0.00, 0.00, 0.00
251, 49366.93, 39821.53, 46280.65, 41721.90, 34507.36, 27095.63, 11804.45, -187500.02, 0.00, 0.00, 0.00
252, 49142.84, 39740.98, 46126.46, 41720.51, 34466.01, 27013.63, 11839.54, -187500.02, 0.00, 0.00, 0.00
253, 48987.22, 39738.63, 46084.69, 41750.04, 34505.46, 27105.18, 11849.91, -187500.02, 0.00, 0.00, 0.00
254, 49196.03, 39830.43, 46233.09, 41878.32, 34531.10, 27204.62, 11806.57, -187500.02, 0.00, 0.00, 0.00
255, 49395.66, 39866.86, 46300.05, 41766.31, 34521.60, 27114.81, 11794.59, -187500.02, 0.00, 0.00, 0.00
0, 49234.70, 39793.34, 46167.35, 41668.03, 34503.05, 27021.67, 11846.42, -187500.02, 0.00, 0.00, 0.00
1, 49030.96, 39757.89, 46086.57, 41699.03, 34487.27, 27055.96, 11827.72, -187500.02, 0.00, 0.00, 0.00
2, 49170.46, 39840.89, 46201.86, 41782.58, 34510.98, 27159.89, 11796.65, -187500.02, 0.16, 0.97, 0.19
3, 49402.63, 39860.22, 46303.18, 41729.27, 34510.80, 27121.36, 11790.08, -187500.02, 0.00, 0.00, 0.00
4, 49280.50, 39790.89, 46196.98, 41687.21, 34478.26, 27008.06, 11824.79, -187500.02, 0.00, 0.00, 0.00
5, 49045.58, 39745.91, 46093.68, 41758.62, 34471.33, 27068.39, 11846.40, -187500.02, 0.00, 0.00, 0.00
6, 49129.94, 39807.43, 46197.77, 41794.54, 34492.36, 27172.03, 11817.86, -187500.02, 0.00, 0.00, 0.00
7, 49390.34, 39869.99, 46321.04, 41748.54, 34508.43, 27144.00, 11787.04, -187500.02, 0.00, 0.00, 0.00
8, 49344.18, 39821.66, 46248.60, 41709.79, 34476.63, 27022.77, 11816.18, -187500.02, 0.00, 0.00, 0.00
9, 49084.74, 39753.54, 46116.81, 41731.67, 34438.02, 27021.89, 11832.45, -187500.02, 0.00, 0.00, 0.00
10, 49090.55, 39779.62, 46177.65, 41749.05, 34480.43, 27133.43, 11816.65, -187500.02, 0.00, 0.00, 0.00
11, 49377.75, 39858.70, 46327.70, 41770.36, 34513.73, 27153.95, 11806.59, -187500.02, 0.00, 0.00, 0.00
12, 49399.50, 39815.12, 46284.05, 41703.77, 34480.74, 27037.07, 11818.80, -187500.02, 0.17, 0.98, 0.18
13, 49138.83, 39726.07, 46146.29, 41674.91, 34454.36, 26996.82, 11839.85, -187500.02, 0.00, 0.00, 0.00
14, 49080.14, 39748.75, 46158.38, 41738.11, 34467.17, 27100.66, 11817.28, -187500.02, 0.00, 0.00, 0.00
15, 49327.64, 39820.93, 46303.34, 41783.23, 34488.20, 27153.32, 11783.21, -187500.02, 0.00, 0.00, 0.00
16, 49403.79, 39799.65, 46308.77, 41732.34, 34473.86, 27051.40, 11798.12, -187500.02, 0.00, 0.00, 0.00
17, 49144.31, 39721.86, 46159.43, 41698.88, 34442.72, 26988.77, 11829.19, -187500.02, 0.00, 0.00, 0.00
18, 49003.05, 39709.68, 46141.40, 41798.07, 34458.32, 27093.22, 11828.12, -187500.02, 0.00, 0.00, 0.00
19, 49239.66, 39780.49, 46315.92, 41855.25, 34501.53, 27179.12, 11806.06, -187500.02, 0.00, 0.00, 0.00
20, 49385.77, 39794.22, 46349.98, 41780.39, 34478.01, 27092.26, 11818.55, -187500.02, 0.00, 0.00, 0.00
21, 49151.68, 39695.73, 46189.01, 41696.98, 34445.07, 27014.85, 11857.47, -187500.02, 0.00, 0.00, 0.00
22, 48950.05, 39654.23, 46122.84, 41710.48, 34451.37, 27086.38, 11855.77, -187500.02, 0.16, 0.98, 0.18
23, 49122.79, 39735.88, 46243.12, 41798.92, 34472.94, 27179.59, 11816.25, -187500.02, 0.00, 0.00, 0.00
24, 49328.91, 39776.02, 46311.74, 41771.07, 34454.61, 27114.88, 11815.11, -187500.02, 0.00, 0.00, 0.00
25, 49154.70, 39712.25, 46195.80, 41733.86, 34449.27, 27014.96, 11859.57, -187500.02, 0.00, 0.00, 0.00
26, 48912.50, 39666.66, 46107.27, 41786.23, 34464.06, 27072.01, 11871.48, -187500.02, 0.00, 0.00, 0.00
27, 49032.13, 39737.00, 46211.52, 41853.37, 34478.48, 27176.44, 11835.05, -187500.02, 0.00, 0.00, 0.00
28, 49294.94, 39803.05, 46307.20, 41835.11, 34478.05, 27135.89, 11823.29, -187500.02, 0.00, 0.00, 0.00
29, 49179.34, 39740.66, 46185.77, 41789.13, 34429.80, 27004.91, 11846.11, -187500.02, 0.00, 0.00, 0.00
30, 48909.91, 39681.32, 46054.83, 41814.66, 34424.50, 27036.00, 11868.71, -187500.02, 0.00, 0.00, 0.00
31, 48967.26, 39736.82, 46121.26, 41824.58, 34456.42, 27142.93, 11839.12, -187500.02, 0.16, 0.99, 0.16
32, 49247.33, 39823.66, 46250.30, 41822.13, 34468.38, 27136.20, 11816.36, -187500.02, 0.00, 0.00, 0.00
33, 49215.63, 39791.31, 46205.50, 41809.25, 34433.69, 27017.85, 11835.79, -187500.02, 0.00, 0.00, 0.00
34, 48950.39, 39723.99, 46063.66, 41845.97, 34406.69, 27008.19, 11850.09, -187500.02, 0.00, 0.00, 0.00
35, 48939.39, 39779.11, 46104.25, 41891.84, 34429.57, 27122.01, 11832.66, -187500.02, 0.00, 0.00, 0.00
36, 49225.71, 39868.16, 46257.22, 41822.79, 34442.16, 27130.84, 11795.04, -187500.02, 0.00, 0.00, 0.00
37, 49289.73, 39855.51, 46205.77, 41784.55, 34425.89, 27034.48, 11828.45, -187500.02, 0.00, 0.00, 0.00
38, 49033.11, 39789.66, 46060.04, 41794.30, 34407.45, 26995.79, 11859.61, -187500.02, 0.00, 0.00, 0.00
39, 48960.24, 39818.63, 46071.77, 41843.36, 34419.25, 27102.81, 11849.02, -187500.02, 0.00, 0.00, 0.00
40, 49234.77, 39932.91, 46233.09, 41894.41, 34448.98, 27162.24, 11818.19, -187500.02, 0.00, 0.00, 0.00
41, 49380.79, 39964.20, 46245.87, 41823.49, 34428.46, 27049.99, 11814.35, -187500.02, 0.15, 1.00, 0.15
42, 49149.56, 39881.12, 46075.44, 41796.33, 34388.92, 26982.96, 11854.85, -187500.02, 0.00, 0.00, 0.00
43, 48993.88, 39852.42, 46046.34, 41864.32, 34395.31, 27063.94, 11839.27, -187500.02, 0.00, 0.00, 0.00
44, 49242.88, 39951.04, 46194.66, 41884.39, 34432.50, 27136.45, 11792.89, -187500.02, 0.00, 0.00, 0.00
45, 49433.47, 39990.11, 46229.91, 41831.67, 34413.35, 27050.04, 11794.63, -187500.02, 0.00, 0.00, 0.00
46, 49245.47, 39918.11, 46081.11, 41813.83, 34376.38, 26952.92, 11823.87, -187500.02, 0.00, 0.00, 0.00
47, 49062.91, 39894.87, 46026.20, 41890.32, 34385.30, 27032.94, 11831.65, -187500.02, 0.00, 0.00, 0.00
48, 49246.19, 39978.08, 46166.90, 41891.35, 34408.72, 27116.00, 11782.41, -187500.02, 0.00, 0.00, 0.00
49, 49489.96, 40029.65, 46249.02, 41822.59, 34410.02, 27046.93, 11781.25, -187500.02, 0.00, 0.00, 0.00
50, 49339.39, 39951.68, 46100.49, 41768.52, 34366.95, 26932.42, 11810.62, -187500.02, 0.00, 0.00, 0.00
51, 49103.52, 39908.12, 46001.95, 41795.73, 34364.42, 26985.69, 11823.69, -187500.02, 0.14, 0.99, 0.15
52, 49212.71, 39970.44, 46101.54, 41856.52, 34384.47, 27085.11, 11780.40, -187500.02, 0.00, 0.00, 0.00
53, 49472.75, 40030.09, 46205.70, 41846.51, 34382.77, 27045.30, 11761.98, -187500.02, 0.00, 0.00, 0.00
54, 49388.79, 39976.36, 46115.89, 41797.71, 34361.43, 26947.80, 11810.35, -187500.02, 0.00, 0.00, 0.00
55, 49132.20, 39907.99, 45990.75, 41790.52, 34348.91, 26963.80, 11832.07, -187500.02, 0.00, 0.00, 0.00
56, 49176.59, 39961.92, 46056.04, 41866.96, 34364.42, 27070.55, 11800.51, -187500.02, 0.00, 0.00, 0.00
57, 49450.80, 40037.34, 46196.47, 41798.74, 34370.34, 27055.18, 11763.07, -187500.02, 0.00, 0.00, 0.00
58, 49434.59, 39995.27, 46114.48, 41742.20, 34325.75, 26930.30, 11771.08, -187500.02, 0.00, 0.00, 0.00
59, 49174.98, 39922.52, 45989.07, 41756.14, 34312.47, 26921.31, 11798.46, -187500.02, 0.00, 0.00, 0.00
60, 49156.02, 39952.36, 46033.59, 41834.06, 34341.64, 27025.18, 11779.73, -187500.02, 0.00, 0.00, 0.00
61, 49430.66, 40029.36, 46179.02, 41853.93, 34348.21, 27044.36, 11729.52, -187500.02, 0.13, 1.00, 0.14
62, 49497.22, 40010.79, 46150.18, 41781.85, 34308.74, 26934.59, 11739.58, -187500.02, 0.00, 0.00, 0.00
63, 49234.99, 39925.58, 45998.39, 41746.89, 34286.46, 26878.42, 11752.17, -187500.02, 0.00, 0.00, 0.00
64, 49140.60, 39936.84, 45993.45, 41811.62, 34306.04, 26971.40, 11739.11, -187500.02, 0.00, 0.00, 0.00
65, 49367.27, 39995.41, 46130.07, 41843.38, 34299.02, 27018.16, 11693.81, -187500.02, 0.00, 0.00, 0.00
66, 49475.23, 39979.02, 46133.69, 41769.80, 34295.04, 26910.52, 11697.54, -187500.02, 0.00, 0.00, 0.00
67, 49233.34, 39877.81, 45963.93, 41709.67, 34258.14, 26831.44, 11725.93, -187500.02, 0.00, 0.00, 0.00
68, 49069.66, 39847.86, 45924.86, 41721.74, 34262.34, 26904.15, 11717.25, -187500.02, 0.00, 0.00, 0.00
69, 49298.87, 39937.61, 46067.19, 41743.51, 34304.99, 26980.68, 11672.28, -187500.02, 0.00, 0.00, 0.00
70, 49499.93, 39981.17, 46122.91, 41717.18, 34315.92, 26905.78, 11674.90, -187500.02, 0.10, 0.97, 0.15
71, 49294.11, 39897.19, 45966.18, 41690.74, 34283.20, 26802.36, 11706.70, -187500.02, 0.00, 0.00, 0.00
72, 49095.74, 39854.81, 45904.74, 41746.29, 34288.76, 26871.85, 11714.19, -187500.02, 0.00, 0.00, 0.00
73, 49273.26, 39929.33, 46053.67, 41760.46, 34323.25, 26976.05, 11685.11, -187500.02, 0.00, 0.00, 0.00
74, 49525.36, 39998.09, 46145.42, 41752.41, 34342.25, 26931.62, 11685.18, -187500.02, 0.00, 0.00, 0.00
75, 49400.04, 39939.13, 46026.42, 41649.68, 34314.73, 26817.64, 11723.51, -187500.02, 0.00, 0.00, 0.00
76, 49178.98, 39892.79, 45915.49, 41718.43, 34313.26, 26857.77, 11746.49, -187500.02, 0.00, 0.00, 0.00
77, 49274.31, 39964.20, 46017.39, 41789.67, 34336.41, 26974.71, 11722.26, -187500.02, 0.00, 0.00, 0.00
78, 49530.23, 40028.98, 46131.88, 41774.36, 34337.64, 26940.11, 11701.34, -187500.02, 0.00, 0.00, 0.00
79, 49460.52, 39955.86, 46043.32, 41690.88, 34299.40, 26826.59, 11721.46, -187500.02, 0.00, 0.00, 0.00
80, 49199.56, 39879.69, 45919.18, 41637.16, 34281.92, 26819.86, 11730.55, -187500.02, 0.09, 0.99, 0.17
81, 49202.71, 39910.00, 45973.20, 41698.79, 34303.80, 26909.46, 11693.27, -187500.02, 0.00, 0.00, 0.00
82, 49454.02, 39971.82, 46076.84, 41684.53, 34296.89, 26877.08, 11641.82, -187500.02, 0.00, 0.00, 0.00
83, 49448.56, 39930.14, 46032.37, 41606.83, 34257.15, 26761.50, 11693.36, -187500.02, 0.00, 0.00, 0.00
84, 49183.49, 39852.89, 45879.66, 41608.08, 34232.28, 26758.50, 11722.51, -187500.02, 0.00, 0.00, 0.00
85, 49110.40, 39836.33, 45860.01, 41654.17, 34211.45, 26837.27, 11662.33, -187500.02, 0.00, 0.00, 0.00
86, 49362.77, 39902.09, 46010.42, 41663.74, 34210.15, 26856.38, 11600.87, -187500.02, 0.00, 0.00, 0.00
87, 49427.44, 39886.08, 45991.93, 41608.57, 34201.39, 26731.37, 11592.35, -187500.02, 0.00, 0.00, 0.00
88, 49180.23, 39806.40, 45837.19, 41530.50, 34178.41, 26673.30, 11636.36, -187500.02, 0.00, 0.00, 0.00
89, 49071.82, 39798.09, 45812.98, 41588.19, 34189.45, 26765.83, 11620.40, -187500.02, 0.00, 0.00, 0.00
90, 49317.40, 39891.54, 45968.20, 41663.96, 34223.63, 26835.59, 11584.42, -187500.02, 0.06, 0.96, 0.19
91, 49461.30, 39903.29, 46003.58, 41610.23, 34212.94, 26737.51, 11584.28, -187500.02, 0.00, 0.00, 0.00
92, 49247.69, 39833.07, 45856.52, 41512.53, 34193.88, 26660.36, 11616.09, -187500.02, 0.00, 0.00, 0.00
93, 49081.93, 39805.62, 45795.66, 41569.17, 34201.10, 26729.15, 11586.43, -187500.02, 0.00, 0.00, 0.00
94, 49275.49, 39877.46, 45938.73, 41640.92, 34239.63, 26815.57, 11562.29, -187500.02, 0.00, 0.00, 0.00
95, 49483.14, 39930.14, 46023.18, 41615.82, 34264.80, 26764.29, 11613.76, -187500.02, 0.00, 0.00, 0.00
96, 49316.69, 39868.83, 45884.40, 41528.58, 34251.30, 26670.50, 11661.53, -187500.02, 0.00, 0.00, 0.00
97, 49116.86, 39837.20, 45806.77, 41585.44, 34242.04, 26736.22, 11646.98, -187500.02, 0.00, 0.00, 0.00
98, 49272.00, 39919.48, 45941.44, 41674.67, 34297.25, 26859.51, 11612.58, -187500.02, 0.00, 0.00, 0.00
99, 49521.05, 39988.90, 46063.57, 41639.73, 34309.34, 26822.52, 11637.52, -187500.02, 0.00, 0.00, 0.00
100, 49411.03, 39936.96, 45940.19, 41575.09, 34295.04, 26727.43, 11683.35, -187500.02, 0.06, 0.95, 0.21
101, 49182.04, 39891.89, 45830.80, 41633.03, 34290.35, 26743.10, 11693.96, -187500.02, 0.00, 0.00, 0.00
102, 49262.08, 39945.27, 45943.16, 41712.96, 34347.54, 26857.86, 11674.96, -187500.02, 0.00, 0.00, 0.00
103, 49534.41, 40026.72, 46094.35, 41695.03, 34373.61, 26866.53, 11669.69, -187500.02, 0.00, 0.00, 0.00
104, 49495.59, 39995.72, 46024.57, 41644.38, 34355.59, 26769.41, 11714.08, -187500.02, 0.00, 0.00, 0.00
105, 49244.09, 39928.13, 45891.66, 41733.19, 34350.20, 26781.57, 11746.44, -187500.02, 0.00, 0.00, 0.00
106, 49259.58, 39976.63, 45935.40, 41709.05, 34384.83, 26901.24, 11725.88, -187500.02, 0.00, 0.00, 0.00
107, 49532.49, 40067.40, 46084.73, 41647.54, 34402.46, 26913.20, 11692.60, -187500.02, 0.00, 0.00, 0.00
108, 49554.80, 40043.95, 46044.88, 41627.11, 34367.80, 26797.60, 11717.07, -187500.02, 0.00, 0.00, 0.00
109, 49293.93, 39958.05, 45907.75, 41635.53, 34340.28, 26752.87, 11731.49, -187500.02, 0.00, 0.00, 0.00
110, 49226.27, 39967.46, 45915.31, 41703.13, 34368.67, 26860.27, 11714.71, -187500.02, 0.05, 0.94, 0.23
111, 49488.77, 40059.87, 46073.05, 41721.14, 34390.84, 26911.68, 11660.44, -187500.02, 0.00, 0.00, 0.00
112, 49593.78, 40071.98, 46059.50, 41675.77, 34365.11, 26795.45, 11653.73, -187500.02, 0.00, 0.00, 0.00
113, 49371.78, 40007.16, 45927.16, 41644.67, 34388.92, 26764.49, 11756.53, -187500.02, 0.00, 0.00, 0.00
114, 49247.11, 39988.50, 45917.70, 41728.98, 34415.09, 26855.82, 11753.04, -187500.02, 0.00, 0.00, 0.00
115, 49478.91, 40084.70, 46069.92, 41775.70, 34438.58, 26924.44, 11712.11, -187500.02, 0.00, 0.00, 0.00
116, 49648.63, 40124.87, 46106.26, 41678.92, 34428.61, 26846.28, 11721.77, -187500.02, 0.00, 0.00, 0.00
117, 49433.43, 40014.23, 45951.54, 41622.81, 34376.31, 26752.65, 11740.07, -187500.02, 0.00, 0.00, 0.00
118, 49254.73, 39965.61, 45915.93, 41686.94, 34405.21, 26810.45, 11721.77, -187500.02, 0.00, 0.00, 0.00
119, 49445.32, 40038.77, 46046.43, 41735.11, 34447.23, 26903.30, 11702.19, -187500.02, 0.04, 0.95, 0.23
120, 49658.85, 40080.90, 46108.90, 41701.49, 34446.94, 26846.43, 11697.52, -187500.02, 0.00, 0.00, 0.00
121, 49501.31, 40023.59, 45976.20, 41621.99, 34421.82, 26747.62, 11751.34, -187500.02, 0.00, 0.00, 0.00
122, 49292.37, 39994.29, 45893.34, 41671.29, 34429.13, 26805.35, 11783.44, -187500.02, 0.00, 0.00, 0.00
123, 49407.37, 40051.42, 45983.71, 41736.05, 34447.14, 26910.09, 11733.08, -187500.02, 0.00, 0.00, 0.00
124, 49638.82, 40107.48, 46113.12, 41711.95, 34441.29, 26871.22, 11694.86, -187500.02, 0.00, 0.00, 0.00
125, 49531.82, 40055.62, 45984.22, 41664.93, 34408.86, 26755.66, 11721.12, -187500.02, 0.00, 0.00, 0.00
126, 49281.91, 39995.25, 45873.40, 41684.23, 34412.12, 26774.10, 11759.77, -187500.02, 0.00, 0.00, 0.00
127, 49348.85, 40046.01, 45978.52, 41709.02, 34442.32, 26887.45, 11730.58, -187500.02, 0.00, 0.00, 0.00
128, 49618.05, 40119.50, 46110.39, 41725.92, 34456.18, 26881.30, 11692.51, -187500.02, 0.00, 0.00, 0.00
129, 49591.75, 40090.54, 46030.69, 41696.75, 34431.27, 26766.79, 11723.11, -187500.02, 0.03, 0.95, 0.25
130, 49337.92, 40011.66, 45888.58, 41622.21, 34416.16, 26746.12, 11740.07, -187500.02, 0.00, 0.00, 0.00
131, 49307.34, 40027.14, 45952.14, 41696.11, 34435.30, 26843.42, 11722.55, -187500.02, 0.00, 0.00, 0.00
132, 49566.96, 40102.11, 46119.83, 41678.38, 34444.64, 26862.50, 11681.40, -187500.02, 0.00, 0.00, 0.00
133, 49605.56, 40087.27, 46028.12, 41619.48, 34409.41, 26735.32, 11685.83, -187500.02, 0.00, 0.00, 0.00
134, 49339.15, 40000.99, 45867.75, 41620.60, 34365.94, 26709.62, 11718.95, -187500.02, 0.00, 0.00, 0.00
135, 49251.82, 39991.89, 45871.10, 41681.33, 34399.18, 26797.26, 11682.00, -187500.02, 0.00, 0.00, 0.00
136, 49508.57, 40077.53, 46028.70, 41678.25, 34437.78, 26828.89, 11648.43, -187500.02, 0.00, 0.00, 0.00
137, 49623.62, 40089.26, 46036.07, 41610.16, 34419.20, 26744.11, 11670.23, -187500.02, 0.00, 0.00, 0.00
138, 49377.75, 40002.54, 45878.34, 41582.83, 34379.13, 26673.63, 11700.45, -187500.02, 0.00, 0.00, 0.00
139, 49232.02, 39980.43, 45862.89, 41649.99, 34391.13, 26756.31, 11695.73, -187500.02, 0.02, 0.95, 0.25
140, 49439.44, 40053.30, 45996.13, 41695.48, 34402.20, 26824.24, 11643.72, -187500.02, 0.00, 0.00, 0.00
141, 49604.87, 40076.65, 46027.38, 41600.75, 34385.07, 26728.06, 11631.89, -187500.02, 0.00, 0.00, 0.00
142, 49401.60, 40002.65, 45872.46, 41536.09, 34357.60, 26627.21, 11651.05, -187500.02, 0.00, 0.00, 0.00
143, 49210.70, 39968.70, 45812.00, 41579.43, 34349.91, 26691.04, 11656.50, -187500.02, 0.00, 0.00, 0.00
144, 49369.84, 40027.68, 45944.03, 41616.00, 34370.57, 26762.59, 11603.08, -187500.02, 0.00, 0.00, 0.00
145, 49597.47, 40076.70, 46020.47, 41565.70, 34366.88, 26712.86, 11601.92, -187500.02, 0.00, 0.00, 0.00
146, 49450.95, 40017.71, 45893.32, 41540.87, 34338.80, 26620.79, 11655.56, -187500.02, 0.00, 0.00, 0.00
147, 49211.30, 39972.74, 45814.50, 41547.96, 34347.37, 26659.69, 11663.01, -187500.02, 0.00, 0.00, 0.00
148, 49328.13, 40046.48, 45931.43, 41618.90, 34374.10, 26767.46, 11634.37, -187500.02, 0.00, 0.00, 0.00
149, 49597.56, 40122.45, 46057.15, 41612.44, 34387.29, 26764.31, 11624.43, -187500.02, 0.02, 0.97, 0.24
150, 49518.46, 40079.47, 45938.89, 41583.72, 34357.18, 26659.51, 11667.86, -187500.02, 0.00, 0.00, 0.00
151, 49262.75, 40017.20, 45816.92, 41579.00, 34359.55, 26663.53, 11697.67, -187500.02, 0.00, 0.00, 0.00
152, 49300.26, 40057.19, 45905.43, 41620.78, 34383.46, 26766.66, 11664.73, -187500.02, 0.00, 0.00, 0.00
153, 49580.59, 40140.45, 46053.98, 41626.46, 34382.55, 26782.28, 11627.49, -187500.02, 0.00, 0.00, 0.00
154, 49578.61, 40116.53, 46002.62, 41583.56, 34382.95, 26668.76, 11669.38, -187500.02, 0.00, 0.00, 0.00
155, 49320.73, 40045.25, 45865.60, 41606.27, 34382.77, 26655.24, 11708.04, -187500.02, 0.00, 0.00, 0.00
156, 49278.15, 40059.33, 45906.95, 41669.82, 34400.99, 26764.45, 11694.52, -187500.02, 0.00, 0.00, 0.00
157, 49552.96, 40144.04, 46065.22, 41643.42, 34418.09, 26808.62, 11665.40, -187500.02, 0.00, 0.00, 0.00
158, 49618.77, 40136.36, 46028.68, 41595.39, 34382.23, 26698.53, 11671.19, -187500.02, 0.00, 0.00, 0.00
159, 49363.25, 40060.45, 45882.86, 41586.38, 34368.67, 26655.30, 11714.17, -187500.02, 0.02, 0.98, 0.23
160, 49261.10, 40053.72, 45918.95, 41637.95, 34383.93, 26754.68, 11706.86, -187500.02, 0.00, 0.00, 0.00
161, 49504.60, 40136.80, 46067.91, 41660.48, 34421.33, 26799.52, 11665.91, -187500.02, 0.00, 0.00, 0.00
162, 49632.00, 40153.28, 46073.80, 41588.84, 34403.40, 26705.33, 11671.28, -187500.02, 0.00, 0.00, 0.00
163, 49388.50, 40063.51, 45924.25, 41549.39, 34358.96, 26621.55, 11695.17, -187500.02, 0.00, 0.00, 0.00
164, 49211.75, 40021.38, 45891.30, 41586.71, 34360.26, 26673.01, 11672.57, -187500.02, 0.00, 0.00, 0.00
165, 49415.70, 40098.54, 46014.91, 41628.42, 34383.96, 26765.39, 11638.06, -187500.02, 0.00, 0.00, 0.00
166, 49609.43, 40146.10, 46065.11, 41615.46, 34375.68, 26708.30, 11638.37, -187500.02, 0.00, 0.00, 0.00
167, 49411.37, 40066.60, 45932.34, 41527.77, 34341.31, 26600.18, 11671.81, -187500.02, 0.00, 0.00, 0.00
168, 49196.25, 40021.11, 45851.11, 41556.29, 34335.86, 26654.90, 11678.76, -187500.02, 0.02, 0.99, 0.22
169, 49346.37, 40091.77, 45977.02, 41611.17, 34370.19, 26755.44, 11640.36, -187500.02, 0.00, 0.00, 0.00
170, 49578.38, 40135.75, 46083.39, 41566.62, 34366.01, 26705.26, 11625.75, -187500.02, 0.00, 0.00, 0.00
171, 49439.89, 40076.81, 45943.25, 41527.19, 34335.70, 26609.93, 11665.98, -187500.02, 0.00, 0.00, 0.00
172, 49187.71, 40015.25, 45826.35, 41555.82, 34323.36, 26637.22, 11676.10, -187500.02, 0.00, 0.00, 0.00
173, 49265.72, 40057.63, 45933.53, 41593.49, 34322.98, 26736.91, 11627.18, -187500.02, 0.00, 0.00, 0.00
174, 49529.34, 40133.94, 46051.03, 41578.07, 34330.98, 26727.21, 11631.91, -187500.02, 0.00, 0.00, 0.00
175, 49460.39, 40090.11, 45954.76, 41508.95, 34352.33, 26612.16, 11640.27, -187500.02, 0.00, 0.00, 0.00
176, 49191.56, 40009.71, 45828.27, 41510.18, 34304.36, 26597.77, 11643.98, -187500.02, 0.00, 0.00, 0.00
177, 49206.18, 40041.45, 45897.61, 41568.25, 34322.36, 26690.71, 11624.61, -187500.02, 0.00, 0.00, 0.00
178, 49479.25, 40127.15, 46051.25, 41562.15, 34356.30, 26711.05, 11573.82, -187500.02, 0.03, 0.99, 0.21
179, 49485.71, 40105.73, 46006.75, 41511.12, 34312.27, 26593.61, 11596.89, -187500.02, 0.00, 0.00, 0.00
180, 49221.73, 40022.47, 45846.89, 41539.33, 34308.72, 26603.38, 11680.17, -187500.02, 0.00, 0.00, 0.00
181, 49168.49, 40028.42, 45876.51, 41567.29, 34330.78, 26721.93, 11660.28, -187500.02, 0.00, 0.00, 0.00
182, 49433.12, 40119.19, 46027.96, 41563.16, 34359.30, 26748.87, 11635.00, -187500.02, 0.00, 0.00, 0.00
183, 49507.95, 40117.34, 46031.85, 41504.13, 34332.48, 26639.88, 11640.09, -187500.02, 0.00, 0.00, 0.00
184, 49254.21, 40035.19, 45893.38, 41504.08, 34305.59, 26599.74, 11667.32, -187500.02, 0.00, 0.00, 0.00
185, 49139.06, 40019.23, 45891.97, 41563.02, 34318.87, 26699.05, 11662.04, -187500.02, 0.00, 0.00, 0.00
186, 49380.12, 40101.51, 46050.94, 41581.24, 34346.67, 26770.55, 11639.13, -187500.02, 0.00, 0.00, 0.00
187, 49530.05, 40123.64, 46049.69, 41535.78, 34338.94, 26679.33, 11642.08, -187500.02, 0.00, 0.00, 0.00
188, 49299.59, 40032.11, 45909.54, 41494.83, 34301.72, 26601.71, 11674.52, -187500.02, 0.05, 0.99, 0.21
189, 49104.50, 39976.25, 45869.31, 41531.28, 34283.55, 26656.44, 11671.21, -187500.02, 0.00, 0.00, 0.00
190, 49293.78, 40040.42, 45989.81, 41559.89, 34330.82, 26730.34, 11616.20, -187500.02, 0.00, 0.00, 0.00
191, 49498.41, 40084.21, 46059.66, 41513.18, 34320.48, 26663.30, 11601.63, -187500.02, 0.00, 0.00, 0.00
192, 49306.18, 39994.33, 45914.50, 41481.82, 34273.52, 26559.08, 11640.14, -187500.02, 0.00, 0.00, 0.00
193, 49079.87, 39931.46, 45832.12, 41479.74, 34260.66, 26615.94, 11647.85, -187500.02, 0.00, 0.00, 0.00
194, 49208.13, 39990.13, 45952.21, 41508.93, 34299.60, 26701.08, 11590.50, -187500.02, 0.00, 0.00, 0.00
195, 49446.73, 40052.13, 46048.64, 41507.77, 34295.91, 26660.89, 11575.16, -187500.02, 0.00, 0.00, 0.00
196, 49330.99, 39990.29, 45927.98, 41439.71, 34254.96, 26544.66, 11611.73, -187500.02, 0.00, 0.00, 0.00
197, 49077.41, 39917.60, 45810.68, 41447.13, 34234.27, 26558.10, 11609.63, -187500.02, 0.00, 0.00, 0.00
198, 49140.78, 39965.14, 45904.40, 41507.55, 34287.71, 26655.44, 11546.87, -187500.02, 0.05, 0.97, 0.22
199, 49408.13, 40036.06, 46038.09, 41508.53, 34295.78, 26656.80, 11551.40, -187500.02, 0.00, 0.00, 0.00
200, 49376.28, 39998.16, 45947.94, 41456.67, 34262.68, 26561.22, 11601.76, -187500.02, 0.00, 0.00, 0.00
201, 49126.00, 39927.10, 45811.22, 41439.89, 34247.81, 26558.48, 11616.67, -187500.02, 0.00, 0.00, 0.00
202, 49131.50, 39958.88, 45875.43, 41501.46, 34259.57, 26656.53, 11573.02, -187500.02, 0.00, 0.00, 0.00
203, 49424.78, 40056.70, 46061.42, 41523.84, 34287.48, 26682.97, 11557.66, -187500.02, 0.00, 0.00, 0.00
204, 49464.70, 40043.33, 46004.11, 41457.48, 34283.98, 26594.13, 11589.45, -187500.02, 0.00, 0.00, 0.00
205, 49208.88, 39982.40, 45836.43, 41500.86, 34272.33, 26567.39, 11631.02, -187500.02, 0.00, 0.00, 0.00
206, 49153.74, 40004.41, 45881.78, 41532.27, 34300.34, 26657.47, 11635.40, -187500.02, 0.00, 0.00, 0.00
207, 49423.35, 40094.18, 46049.93, 41550.95, 34365.76, 26726.63, 11613.43, -187500.02, 0.06, 0.96, 0.23
208, 49527.53, 40104.93, 46029.19, 41527.68, 34332.90, 26644.35, 11623.35, -187500.02, 0.00, 0.00, 0.00
209, 49281.48, 40020.42, 45896.42, 41494.36, 34308.43, 26569.61, 11652.77, -187500.02, 0.00, 0.00, 0.00
210, 49140.31, 39975.04, 45883.46, 41514.48, 34303.87, 26626.80, 11611.64, -187500.02, 0.00, 0.00, 0.00
211, 49367.56, 40048.78, 46022.20, 41558.73, 34324.54, 26709.62, 11604.31, -187500.02, 0.00, 0.00, 0.00
212, 49532.89, 40078.42, 46070.61, 41495.63, 34348.04, 26661.43, 11633.77, -187500.02, 0.00, 0.00, 0.00
213, 49321.76, 39998.45, 45921.81, 41470.40, 34312.36, 26581.45, 11665.67, -187500.02, 0.00, 0.00, 0.00
214, 49131.12, 39958.61, 45865.55, 41512.46, 34315.11, 26640.39, 11657.42, -187500.02, 0.00, 0.00, 0.00
215, 49304.13, 40029.89, 45993.59, 41553.19, 34338.78, 26722.36, 11611.49, -187500.02, 0.00, 0.00, 0.00
216, 49516.46, 40074.51, 46061.54, 41527.80, 34324.34, 26661.18, 11608.67, -187500.02, 0.00, 0.00, 0.00
217, 49354.04, 40002.04, 45917.50, 41509.20, 34298.48, 26574.35, 11650.49, -187500.02, 0.06, 0.95, 0.24
218, 49124.15, 39941.29, 45832.00, 41522.01, 34316.07, 26590.66, 11638.71, -187500.02, 0.00, 0.00, 0.00
219, 49235.64, 39989.15, 45973.16, 41532.63, 34333.78, 26683.09, 11598.05, -187500.02, 0.00, 0.00, 0.00
220, 49497.87, 40060.58, 46074.30, 41518.39, 34340.44, 26692.59, 11617.94, -187500.02, 0.00, 0.00, 0.00
221, 49407.25, 40010.27, 45931.38, 41457.43, 34292.85, 26571.33, 11642.75, -187500.02, 0.00, 0.00, 0.00
222, 49148.40, 39939.57, 45801.47, 41471.56, 34266.34, 26562.66, 11640.59, -187500.02, 0.00, 0.00, 0.00
223, 49194.91, 39985.05, 45898.97, 41532.78, 34334.07, 26679.02, 11610.14, -187500.02, 0.00, 0.00, 0.00
224, 49454.77, 40063.51, 46029.93, 41533.63, 34333.42, 26671.96, 11585.18, -187500.02, 0.00, 0.00, 0.00
225, 49431.06, 40027.64, 45952.23, 41467.71, 34293.03, 26547.50, 11589.40, -187500.02, 0.00, 0.00, 0.00
226, 49163.87, 39937.96, 45822.62, 41430.92, 34279.93, 26546.32, 11592.98, -187500.02, 0.00, 0.00, 0.00
227, 49143.64, 39960.67, 45859.72, 41513.56, 34307.89, 26650.23, 11618.01, -187500.02, 0.06, 0.94, 0.25
228, 49421.25, 40054.10, 46014.37, 41538.79, 34335.77, 26693.99, 11615.60, -187500.02, 0.00, 0.00, 0.00
229, 49457.41, 40037.74, 45976.46, 41462.95, 34303.31, 26583.35, 11621.95, -187500.02, 0.00, 0.00, 0.00
230, 49196.43, 39953.23, 45818.06, 41450.44, 34270.90, 26515.94, 11628.90, -187500.02, 0.00, 0.00, 0.00
231, 49123.90, 39956.16, 45832.21, 41529.56, 34294.17, 26605.79, 11623.38, -187500.02, 0.00, 0.00, 0.00
232, 49380.68, 40049.50, 46000.45, 41586.38, 34336.79, 26687.29, 11608.18, -187500.02, 0.00, 0.00, 0.00
233, 49490.83, 40072.09, 46011.22, 41460.65, 34318.84, 26558.54, 11585.45, -187500.02, 0.00, 0.00, 0.00
234, 49262.17, 39996.52, 45868.01, 41432.82, 34302.28, 26507.51, 11655.41, -187500.02, 0.00, 0.00, 0.00
235, 49126.03, 39979.25, 45827.09, 41484.77, 34319.83, 26625.31, 11664.77, -187500.02, 0.00, 0.00, 0.00
236, 49339.06, 40048.09, 45973.89, 41524.04, 34331.16, 26698.42, 11603.01, -187500.02, 0.00, 0.00, 0.00
237, 49516.29, 40081.44, 46022.89, 41480.30, 34318.96, 26615.99, 11590.79, -187500.02, 0.05, 0.95, 0.25
238, 49316.35, 40003.45, 45854.33, 41445.41, 34287.11, 26517.15, 11627.51, -187500.02, 0.00, 0.00, 0.00
239, 49126.85, 39960.52, 45801.81, 41488.41, 34289.79, 26563.66, 11621.19, -187500.02, 0.00, 0.00, 0.00
240, 49293.89, 40031.68, 45938.51, 41563.76, 34322.73, 26662.14, 11602.25, -187500.02, 0.00, 0.00, 0.00
241, 49519.02, 40095.59, 45988.18, 41493.31, 34310.57, 26611.83, 11597.60, -187500.02, 0.00, 0.00, 0.00
242, 49365.66, 40030.59, 45844.97, 41400.70, 34293.97, 26493.10, 11629.68, -187500.02, 0.00, 0.00, 0.00
243, 49129.71, 39973.66, 45749.26, 41434.19, 34279.33, 26522.89, 11636.27, -187500.02, 0.00, 0.00, 0.00
244, 49223.59, 40025.18, 45843.49, 41487.86, 34295.89, 26615.43, 11582.20, -187500.02, 0.00, 0.00, 0.00
245, 49488.08, 40095.03, 45970.14, 41487.61, 34302.89, 26596.52, 11557.59, -187500.02, 0.00, 0.00, 0.00
246, 49422.36, 40059.76, 45870.67, 41487.00, 34268.53, 26492.94, 11590.56, -187500.02, 0.00, 0.00, 0.00
247, 49181.91, 39987.11, 45731.36, 41492.57, 34256.64, 26492.72, 11611.08, -187500.02, 0.05, 0.94, 0.26
248, 49226.95, 40013.31, 45798.50, 41447.42, 34283.42, 26594.51, 11592.44, -187500.02, 0.00, 0.00, 0.00
249, 49494.67, 40085.95, 45951.14, 41453.57, 34311.29, 26611.76, 11561.82, -187500.02, 0.00, 0.00, 0.00
250, 49514.12, 40082.13, 45898.39, 41427.10, 34288.76, 26512.30, 11597.29, -187500.02, 0.00, 0.00, 0.00
251, 49270.82, 40005.35, 45760.64, 41446.19, 34265.65, 26495.15, 11633.26, -187500.02, 0.00, 0.00, 0.00
252, 49236.82, 40019.77, 45791.19, 41512.44, 34294.01, 26584.11, 11609.36, -187500.02, 0.00, 0.00, 0.00
253, 49515.32, 40114.70, 45959.72, 41532.36, 34325.26, 26625.35, 11572.84, -187500.02, 0.00, 0.00, 0.00
254, 49602.41, 40129.45, 45946.09, 41464.27, 34295.31, 26549.49, 11594.07, -187500.02, 0.00, 0.00, 0.00
255, 49361.97, 40061.79, 45796.13, 41431.06, 34259.28, 26498.95, 11623.26, -187500.02, 0.00, 0.00, 0.00
0, 49262.95, 40053.95, 45785.04, 41499.10, 34283.35, 26568.02, 11598.90, -187500.02, 0.05, 0.96, 0.26
1, 49502.25, 40127.01, 45931.69, 41500.08, 34312.86, 26607.02, 11537.28, -187500.02, 0.00, 0.00, 0.00
2, 49634.77, 40145.12, 45961.58, 41447.93, 34290.05, 26515.16, 11535.98, -187500.02, 0.00, 0.00, 0.00
3, 49412.98, 40073.28, 45824.85, 41445.70, 34255.14, 26454.76, 11591.57, -187500.02, 0.00, 0.00, 0.00
4, 49262.15, 40050.28, 45783.14, 41476.45, 34262.94, 26518.13, 11585.56, -187500.02, 0.00, 0.00, 0.00
5, 49472.10, 40130.28, 45905.88, 41510.38, 34304.09, 26589.37, 11544.07, -187500.02, 0.00, 0.00, 0.00
6, 49649.32, 40167.60, 45952.50, 41476.12, 34282.41, 26536.77, 11571.48, -187500.02, 0.00, 0.00, 0.00
7, 49463.07, 40090.54, 45836.56, 41406.49, 34271.59, 26447.88, 11616.98, -187500.02, 0.00, 0.00, 0.00
8, 49254.75, 40044.76, 45780.30, 41449.99, 34265.69, 26482.05, 11605.74, -187500.02, 0.00, 0.00, 0.00
9, 49396.30, 40109.09, 45893.14, 41490.94, 34284.02, 26584.78, 11559.34, -187500.02, 0.00, 0.00, 0.00
10, 49630.44, 40158.59, 45981.87, 41453.70, 34268.20, 26536.75, 11538.60, -187500.02, 0.06, 0.95, 0.25
11, 49510.48, 40100.23, 45844.68, 41411.39, 34224.90, 26416.14, 11573.78, -187500.02, 0.00, 0.00, 0.00
12, 49264.83, 40037.67, 45750.51, 41444.58, 34208.58, 26441.08, 11588.11, -187500.02, 0.00, 0.00, 0.00
13, 49338.19, 40077.44, 45854.82, 41508.51, 34250.31, 26543.12, 11548.74, -187500.02, 0.00, 0.00, 0.00
14, 49606.36, 40149.34, 45955.79, 41477.62, 34252.48, 26537.53, 11533.79, -187500.02, 0.00, 0.00, 0.00
15, 49557.21, 40112.57, 45848.77, 41409.55, 34222.98, 26419.07, 11563.85, -187500.02, 0.00, 0.00, 0.00
16, 49299.70, 40048.31, 45734.44, 41445.79, 34220.61, 26429.37, 11591.08, -187500.02, 0.00, 0.00, 0.00
17, 49291.20, 40066.62, 45802.72, 41433.72, 34243.18, 26524.72, 11556.43, -187500.02, 0.00, 0.00, 0.00
18, 49556.07, 40145.16, 45947.68, 41431.82, 34250.79, 26530.58, 11520.47, -187500.02, 0.00, 0.00, 0.00
19, 49575.07, 40125.89, 45887.35, 41386.94, 34218.48, 26423.07, 11542.95, -187500.02, 0.00, 0.00, 0.00
20, 49307.03, 40035.46, 45741.28, 41385.62, 34194.32, 26394.17, 11570.83, -187500.02, 0.06, 0.97, 0.24
21, 49246.59, 40043.71, 45772.26, 41446.41, 34226.11, 26486.99, 11562.56, -187500.02, 0.00, 0.00, 0.00
22, 49515.28, 40128.04, 45935.43, 41444.74, 34237.39, 26528.90, 11517.54, -187500.02, 0.00, 0.00, 0.00
23, 49611.10, 40134.59, 45914.26, 41393.29, 34209.88, 26430.49, 11538.10, -187500.02, 0.00, 0.00, 0.00
24, 49349.92, 40042.23, 45730.39, 41370.98, 34176.40, 26368.22, 11555.92, -187500.02, 0.00, 0.00, 0.00
25, 49214.20, 40021.64, 45713.92, 41411.21, 34168.82, 26449.85, 11549.10, -187500.02, 0.00, 0.00, 0.00
26, 49455.98, 40091.27, 45878.56, 41448.78, 34203.78, 26517.17, 11508.09, -187500.02, 0.00, 0.00, 0.00
27, 49616.22, 40112.30, 45918.59, 41406.29, 34202.30, 26429.69, 11516.22, -187500.02, 0.00, 0.00, 0.00
28, 49400.66, 40035.13, 45769.96, 41401.64, 34192.40, 26361.15, 11568.01, -187500.02, 0.00, 0.00, 0.00
29, 49220.42, 39999.09, 45722.64, 41421.38, 34199.15, 26437.84, 11571.61, -187500.02, 0.00, 0.00, 0.00
30, 49401.46, 40081.21, 45880.53, 41430.81, 34221.10, 26528.86, 11528.43, -187500.02, 0.06, 0.98, 0.24
31, 49614.37, 40131.53, 45954.63, 41418.92, 34211.36, 26465.07, 11519.60, -187500.02, 0.00, 0.00, 0.00
32, 49451.69, 40069.37, 45790.88, 41369.93, 34176.02, 26362.74, 11559.74, -187500.02, 0.00, 0.00, 0.00
33, 49220.68, 40017.40, 45687.66, 41408.55, 34164.42, 26403.18, 11559.63, -187500.02, 0.00, 0.00, 0.00
34, 49346.30, 40079.07, 45816.22, 41450.73, 34179.21, 26499.98, 11516.15, -187500.02, 0.00, 0.00, 0.00
35, 49597.09, 40142.91, 45919.78, 41384.23, 34189.14, 26458.45, 11491.88, -187500.02, 0.00, 0.00, 0.00
36, 49481.75, 40083.70, 45794.99, 41364.23, 34150.40, 26336.86, 11523.51, -187500.02, 0.00, 0.00, 0.00
37, 49214.96, 40001.29, 45681.00, 41313.64, 34140.77, 26347.92, 11536.18, -187500.02, 0.00, 0.00, 0.00
38, 49274.15, 40042.77, 45785.34, 41373.55, 34167.39, 26473.34, 11503.10, -187500.02, 0.00, 0.00, 0.00
39, 49548.47, 40126.81, 45908.00, 41387.11, 34177.25, 26465.63, 11479.43, -187500.02, 0.00, 0.00, 0.00
40, 49500.08, 40090.33, 45825.48, 41323.30, 34144.25, 26343.50, 11506.19, -187500.02, 0.06, 0.96, 0.23
41, 49223.48, 40014.11, 45678.94, 41317.67, 34099.04, 26322.49, 11517.99, -187500.02, 0.00, 0.00, 0.00
42, 49206.65, 40030.54, 45733.86, 41382.98, 34135.89, 26426.15, 11493.87, -187500.02, 0.00, 0.00, 0.00
43, 49481.55, 40112.62, 45885.87, 41406.36, 34169.20, 26456.04, 11459.54, -187500.02, 0.00, 0.00, 0.00
44, 49514.97, 40101.42, 45829.37, 41318.00, 34124.43, 26336.99, 11479.72, -187500.02, 0.00, 0.00, 0.00
45, 49246.66, 40027.50, 45673.17, 41319.05, 34105.21, 26298.97, 11515.28, -187500.02, 0.00, 0.00, 0.00
46, 49166.55, 40026.74, 45680.23, 41382.11, 34123.96, 26401.90, 11499.55, -187500.02, 0.00, 0.00, 0.00
47, 49433.47, 40108.80, 45845.68, 41402.71, 34150.87, 26458.70, 11458.20, -187500.02, 0.00, 0.00, 0.00
48, 49550.66, 40128.38, 45857.57, 41309.46, 34129.68, 26360.17, 11471.61, -187500.02, 0.00, 0.00, 0.00
49, 49317.63, 40052.00, 45726.44, 41296.19, 34096.38, 26293.56, 11507.37, -187500.02, 0.06, 0.99, 0.22
50, 49182.38, 40038.30, 45688.44, 41354.37, 34121.34, 26376.82, 11512.02, -187500.02, 0.00, 0.00, 0.00
51, 49420.00, 40141.63, 45854.73, 41409.06, 34175.23, 26472.76, 11508.04, -187500.02, 0.00, 0.00, 0.00
52, 49614.41, 40191.07, 45912.02, 41380.03, 34172.62, 26414.02, 11516.80, -187500.02, 0.00, 0.00, 0.00
53, 49415.19, 40112.66, 45750.40, 41344.54, 34139.16, 26328.70, 11544.07, -187500.02, 0.00, 0.00, 0.00
54, 49236.06, 40075.36, 45704.71, 41389.24, 34163.77, 26390.77, 11570.13, -187500.02, 0.00, 0.00, 0.00
55, 49418.61, 40145.59, 45854.45, 41470.06, 34196.22, 26519.43, 11538.62, -187500.02, 0.00, 0.00, 0.00
56, 49632.89, 40193.38, 45926.48, 41418.52, 34179.62, 26453.69, 11519.82, -187500.02, 0.00, 0.00, 0.00
57, 49484.93, 40140.04, 45788.71, 41333.65, 34144.59, 26330.15, 11558.18, -187500.02, 0.00, 0.00, 0.00
58, 49259.29, 40079.74, 45706.28, 41383.07, 34158.32, 26369.54, 11558.49, -187500.02, 0.00, 0.00, 0.00
59, 49369.14, 40127.41, 45810.50, 41415.90, 34168.35, 26472.53, 11498.12, -187500.02, 0.07, 0.98, 0.22
60, 49627.78, 40192.14, 45919.58, 41378.46, 34176.04, 26429.93, 11483.68, -187500.02, 0.00, 0.00, 0.00
61, 49549.82, 40145.32, 45810.86, 41324.02, 34135.54, 26312.83, 11522.73, -187500.02, 0.00, 0.00, 0.00
62, 49299.61, 40071.38, 45685.42, 41363.20, 34131.58, 26329.28, 11552.57, -187500.02, 0.00, 0.00, 0.00
63, 49337.36, 40094.74, 45773.89, 41410.85, 34157.13, 26431.94, 11520.09, -187500.02, 0.00, 0.00, 0.00
64, 49621.16, 40173.71, 45908.78, 41391.59, 34167.28, 26437.11, 11497.07, -187500.02, 0.00, 0.00, 0.00
65, 49597.04, 40136.27, 45814.28, 41333.36, 34131.11, 26315.67, 11509.99, -187500.02, 0.00, 0.00, 0.00
66, 49328.15, 40052.25, 45656.54, 41328.91, 34110.68, 26279.21, 11522.37, -187500.02, 0.00, 0.00, 0.00
67, 49305.02, 40070.62, 45717.27, 41352.40, 34134.84, 26369.67, 11488.24, -187500.02, 0.00, 0.00, 0.00
68, 49568.19, 40138.66, 45850.98, 41332.78, 34140.07, 26386.90, 11446.64, -187500.02, 0.00, 0.00, 0.00
69, 49636.14, 40143.53, 45822.41, 41319.79, 34116.43, 26303.91, 11463.90, -187500.02, 0.07, 0.98, 0.23
70, 49377.66, 40058.30, 45659.70, 41290.44, 34090.99, 26239.96, 11506.03, -187500.02, 0.00, 0.00, 0.00
71, 49274.11, 40035.64, 45668.14, 41325.42, 34091.91, 26324.05, 11490.76, -187500.02, 0.00, 0.00, 0.00
72, 49526.61, 40117.49, 45812.89, 41357.86, 34110.28, 26392.63, 11456.32, -187500.02, 0.00, 0.00, 0.00
73, 49664.32, 40149.68, 45824.41, 41330.43, 34106.84, 26329.19, 11465.15, -187500.02, 0.00, 0.00, 0.00
74, 49436.63, 40070.91, 45674.71, 41285.19, 34093.41, 26215.76, 11431.73, -187500.02, 0.00, 0.00, 0.00
75, 49287.23, 40041.54, 45648.59, 41316.46, 34087.84, 26279.91, 11456.12, -187500.02, 0.00, 0.00, 0.00
76, 49494.96, 40111.59, 45789.58, 41356.87, 34092.40, 26400.29, 11457.48, -187500.02, 0.00, 0.00, 0.00
77, 49667.25, 40141.52, 45837.93, 41334.95, 34115.27, 26325.12, 11445.93, -187500.02, 0.00, 0.00, 0.00
78, 49463.47, 40060.43, 45682.74, 41283.78, 34078.18, 26223.13, 11469.10, -187500.02, 0.00, 0.00, 0.00
79, 49261.16, 40017.80, 45621.79, 41298.49, 34083.93, 26250.63, 11503.35, -187500.02, 0.08, 0.97, 0.24
80, 49407.81, 40072.83, 45762.96, 41340.27, 34114.41, 26351.10, 11454.84, -187500.02, 0.00, 0.00, 0.00
81, 49634.06, 40124.04, 45832.38, 41296.37, 34077.71, 26325.97, 11419.77, -187500.02, 0.00, 0.00, 0.00
82, 49485.40, 40050.73, 45712.98, 41223.72, 34059.14, 26191.08, 11468.75, -187500.02, 0.00, 0.00, 0.00
83, 49235.77, 39983.76, 45588.15, 41221.64, 34044.79, 26196.45, 11467.25, -187500.02, 0.00, 0.00, 0.00
84, 49319.77, 40029.69, 45689.51, 41333.61, 34066.74, 26318.15, 11423.24, -187500.02, 0.00, 0.00, 0.00
85, 49595.23, 40123.50, 45825.63, 41340.98, 34100.87, 26339.50, 11472.10, -187500.02, 0.00, 0.00, 0.00
86, 49527.17, 40085.26, 45714.75, 41227.48, 34072.93, 26218.80, 11477.69, -187500.02, 0.00, 0.00, 0.00
87, 49261.93, 39998.02, 45589.42, 41251.13, 34036.25, 26204.38, 11478.69, -187500.02, 0.00, 0.00, 0.00
88, 49273.32, 40009.44, 45651.78, 41337.25, 34053.55, 26282.83, 11428.07, -187500.02, 0.08, 0.96, 0.25
89, 49543.36, 40091.85, 45791.32, 41307.74, 34073.13, 26287.13, 11389.58, -187500.02, 0.00, 0.00, 0.00
90, 49577.91, 40103.07, 45743.63, 41238.30, 34061.42, 26226.57, 11449.64, -187500.02, 0.00, 0.00, 0.00
91, 49316.26, 40021.38, 45585.51, 41198.60, 34042.36, 26176.87, 11447.89, -187500.02, 0.00, 0.00, 0.00
92, 49266.51, 40022.99, 45630.26, 41281.93, 34042.55, 26286.21, 11438.30, -187500.02, 0.00, 0.00, 0.00
93, 49538.44, 40112.75, 45808.04, 41358.28, 34086.50, 26340.95, 11419.39, -187500.02, 0.00, 0.00, 0.00
94, 49610.57, 40107.79, 45784.42, 41301.69, 34079.10, 26232.81, 11440.67, -187500.02, 0.00, 0.00, 0.00
95, 49371.94, 40045.25, 45627.91, 41239.14, 34062.49, 26178.25, 11468.03, -187500.02, 0.00, 0.00, 0.00
96, 49291.94, 40058.15, 45663.41, 41273.14, 34091.57, 26271.99, 11473.37, -187500.02, 0.00, 0.00, 0.00
97, 49524.78, 40128.15, 45801.20, 41284.97, 34117.39, 26331.65, 11445.90, -187500.02, 0.00, 0.00, 0.00
98, 49671.12, 40152.61, 45811.22, 41262.10, 34086.14, 26252.77, 11437.19, -187500.02, 0.07, 0.95, 0.27
99, 49454.93, 40083.94, 45632.09, 41252.96, 34070.59, 26196.49, 11495.70, -187500.02, 0.00, 0.00, 0.00
100, 49268.74, 40031.39, 45624.89, 41261.90, 34076.20, 26254.16, 11481.29, -187500.02, 0.00, 0.00, 0.00
101, 49461.50, 40106.63, 45771.70, 41333.25, 34114.26, 26345.98, 11445.90, -187500.02, 0.00, 0.00, 0.00
102, 49662.98, 40165.28, 45856.34, 41351.33, 34103.89, 26285.56, 11434.75, -187500.02, 0.00, 0.00, 0.00
103, 49495.12, 40113.42, 45719.17, 41218.92, 34079.93, 26187.06, 11470.09, -187500.02, 0.00, 0.00, 0.00
104, 49301.44, 40073.52, 45651.69, 41302.94, 34104.38, 26238.24, 11487.59, -187500.02, 0.00, 0.00, 0.00
105, 49450.91, 40131.91, 45762.00, 41347.75, 34119.45, 26324.21, 11442.89, -187500.02, 0.00, 0.00, 0.00
106, 49701.67, 40199.86, 45856.48, 41316.48, 34117.14, 26306.42, 11437.70, -187500.02, 0.00, 0.00, 0.00
107, 49595.08, 40155.98, 45736.27, 41307.16, 34087.53, 26196.56, 11473.57, -187500.02, 0.00, 0.00, 0.00
108, 49356.74, 40112.53, 45629.09, 41257.81, 34070.20, 26213.79, 11491.52, -187500.02, 0.06, 0.91, 0.27
109, 49420.80, 40123.79, 45716.80, 41282.31, 34093.70, 26307.20, 11436.78, -187500.02, 0.00, 0.00, 0.00
110, 49691.30, 40195.83, 45851.94, 41290.84, 34096.49, 26300.98, 11407.10, -187500.02, 0.00, 0.00, 0.00
111, 49666.91, 40171.07, 45758.71, 41247.75, 34058.76, 26181.31, 11439.00, -187500.02, 0.00, 0.00, 0.00
112, 49409.42, 40096.93, 45615.19, 41254.70, 34075.66, 26178.07, 11464.61, -187500.02, 0.00, 0.00, 0.00
113, 49398.89, 40112.62, 45684.77, 41321.18, 34089.72, 26295.78, 11436.74, -187500.02, 0.00, 0.00, 0.00
114, 49676.39, 40197.44, 45838.62, 41343.75, 34105.27, 26309.30, 11398.58, -187500.02, 0.00, 0.00, 0.00
115, 49709.25, 40189.24, 45795.44, 41261.68, 34090.50, 26206.93, 11449.10, -187500.02, 0.00, 0.00, 0.00
116, 49456.96, 40117.65, 45650.29, 41246.10, 34079.50, 26194.46, 11495.14, -187500.02, 0.00, 0.00, 0.00
117, 49392.37, 40123.95, 45684.35, 41304.86, 34095.06, 26282.39, 11462.33, -187500.02, 0.00, 0.00, 0.00
118, 49653.37, 40209.98, 45833.01, 41323.66, 34120.94, 26309.14, 11416.15, -187500.02, 0.06, 0.94, 0.29
119, 49747.11, 40222.28, 45820.92, 41269.25, 34100.60, 26232.70, 11447.36, -187500.02, 0.00, 0.00, 0.00
120, 49499.34, 40140.13, 45662.36, 41254.59, 34064.71, 26176.93, 11484.15, -187500.02, 0.00, 0.00, 0.00
121, 49364.07, 40110.76, 45642.51, 41285.30, 34057.00, 26234.91, 11445.86, -187500.02, 0.00, 0.00, 0.00
122, 49605.89, 40198.96, 45805.96, 41301.35, 34109.05, 26302.37, 11416.29, -187500.02, 0.00, 0.00, 0.00
123, 49773.98, 40231.26, 45859.96, 41272.45, 34097.72, 26232.28, 11431.33, -187500.02, 0.00, 0.00, 0.00
124, 49550.75, 40145.27, 45696.82, 41299.99, 34072.77, 26163.12, 11481.11, -187500.02, 0.00, 0.00, 0.00
125, 49350.30, 40090.29, 45618.28, 41272.41, 34079.50, 26215.31, 11469.84, -187500.02, 0.00, 0.00, 0.00
126, 49512.91, 40143.87, 45761.69, 41287.65, 34083.75, 26294.17, 11406.23, -187500.02, 0.00, 0.00, 0.00
127, 49708.22, 40192.48, 45823.76, 41313.24, 34072.55, 26243.88, 11399.79, -187500.02, 0.00, 0.00, 0.00
128, 49540.61, 40130.68, 45684.30, 41211.34, 34044.28, 26142.46, 11441.83, -187500.02, 0.06, 0.93, 0.28
129, 49304.32, 40060.61, 45599.03, 41216.68, 34059.12, 26165.02, 11448.76, -187500.02, 0.00, 0.00, 0.00
130, 49405.04, 40099.99, 45728.61, 41263.58, 34080.29, 26254.00, 11391.72, -187500.02, 0.00, 0.00, 0.00
131, 49641.19, 40164.14, 45825.12, 41247.64, 34066.09, 26214.71, 11390.63, -187500.02, 0.00, 0.00, 0.00
132, 49528.94, 40118.90, 45713.61, 41195.79, 34053.08, 26115.87, 11433.90, -187500.02, 0.00, 0.00, 0.00
