%OpenBCI Raw EEG Data
%
%Sample Rate = 250.0 Hz
%First Column = SampleIndex
%Other Columns = EEG data in microvolts followed by Accel Data (in G) interleaved with Aux Data
0, 39072.82, 44050.39, 16646.42, 32648.90, 29655.20, 45668.05, 31767.46, 0.00, 0.15, 0.98, 0.16
1, 39070.69, 44073.75, 16656.92, 32610.10, 29506.60, 44887.40, 31726.78, 0.00, 0.00, 0.00, 0.00
2, 39050.13, 44062.20, 16668.10, 32648.12, 29558.21, 44890.01, 31756.78, 0.00, 0.00, 0.00, 0.00
3, 39052.14, 44038.23, 16678.07, 32719.11, 29735.66, 45625.74, 31804.94, 0.00, 0.00, 0.00, 0.00
4, 39069.89, 44041.05, 16651.51, 32664.30, 29692.88, 45806.25, 31769.34, 0.00, 0.00, 0.00, 0.00
5, 39060.99, 44062.21, 16646.51, 32593.76, 29495.70, 44963.95, 31713.19, 0.00, 0.00, 0.00, 0.00
6, 39040.98, 44054.77, 16662.02, 32629.37, 29524.15, 44793.09, 31747.05, 0.00, 0.13, 0.94, 0.24
7, 39052.54, 44041.79, 16689.51, 32722.39, 29726.99, 45511.05, 31815.25, 0.00, 0.00, 0.00, 0.00
8, 39076.12, 44038.28, 16664.57, 32683.19, 29756.50, 45965.40, 31799.71, 0.00, 0.00, 0.00, 0.00
9, 39065.68, 44065.48, 16645.81, 32581.71, 29496.46, 45032.48, 31721.66, 0.00, 0.00, 0.00, 0.00
10, 39051.38, 44068.72, 16668.43, 32619.04, 29511.99, 44706.26, 31744.13, 0.00, 0.00, 0.00, 0.00
11, 39049.41, 44046.59, 16686.18, 32705.09, 29695.54, 45348.02, 31800.12, 0.00, 0.00, 0.00, 0.00
12, 39069.26, 44032.18, 16666.82, 32701.29, 29786.52, 46019.13, 31805.26, 0.00, 0.00, 0.00, 0.00
13, 39062.62, 44057.39, 16633.94, 32581.67, 29514.67, 45184.25, 31722.29, 0.00, 0.00, 0.00, 0.00
14, 39053.59, 44065.95, 16663.92, 32599.75, 29486.85, 44673.16, 31730.56, 0.00, 0.00, 0.00, 0.00
15, 39051.02, 44048.18, 16682.31, 32681.02, 29641.56, 45171.51, 31785.88, 0.00, 0.00, 0.00, 0.00
16, 39075.79, 44033.67, 16677.60, 32718.57, 29800.57, 46001.63, 31815.12, 0.00, 0.12, 0.95, 0.24
17, 39069.55, 44049.59, 16635.11, 32594.38, 29551.80, 45371.85, 31731.59, 0.00, 0.00, 0.00, 0.00
18, 39051.38, 44062.57, 16653.19, 32588.46, 29462.59, 44689.25, 31717.17, 0.00, 0.00, 0.00, 0.00
19, 39043.09, 44052.58, 16672.86, 32669.42, 29593.73, 45014.71, 31773.41, 0.00, 0.00, 0.00, 0.00
20, 39061.77, 44033.05, 16679.16, 32734.35, 29796.97, 45920.27, 31824.72, 0.00, 0.00, 0.00, 0.00
21, 39065.24, 44046.32, 16635.08, 32616.18, 29602.22, 45568.39, 31754.38, 0.00, 0.00, 0.00, 0.00
22, 39049.01, 44063.02, 16644.76, 32582.61, 29458.62, 44747.70, 31724.17, 0.00, 0.00, 0.00, 0.00
23, 39038.82, 44050.70, 16663.54, 32644.05, 29555.00, 44901.05, 31764.71, 0.00, 0.00, 0.00, 0.00
24, 39052.99, 44030.99, 16677.64, 32722.24, 29773.15, 45792.93, 31825.82, 0.00, 0.00, 0.00, 0.00
25, 39063.27, 44035.42, 16635.58, 32632.03, 29653.86, 45742.11, 31772.04, 0.00, 0.00, 0.00, 0.00
26, 39052.52, 44062.26, 16642.37, 32586.79, 29476.45, 44867.30, 31728.50, 0.00, 0.13, 0.96, 0.24
27, 39038.17, 44057.14, 16658.82, 32639.04, 29533.22, 44837.22, 31767.24, 0.00, 0.00, 0.00, 0.00
28, 39039.69, 44032.89, 16671.25, 32717.43, 29718.01, 45598.32, 31820.70, 0.00, 0.00, 0.00, 0.00
29, 39056.32, 44029.96, 16641.52, 32658.60, 29691.52, 45849.77, 31787.42, 0.00, 0.00, 0.00, 0.00
30, 39052.48, 44057.50, 16636.71, 32583.46, 29489.30, 44993.37, 31732.84, 0.00, 0.00, 0.00, 0.00
31, 39042.86, 44062.42, 16663.87, 32631.87, 29521.45, 44801.70, 31763.04, 0.00, 0.00, 0.00, 0.00
32, 39034.14, 44036.69, 16673.78, 32708.13, 29688.35, 45457.50, 31812.41, 0.00, 0.00, 0.00, 0.00
33, 39057.75, 44034.52, 16652.85, 32684.57, 29738.82, 45957.60, 31803.22, 0.00, 0.00, 0.00, 0.00
34, 39058.18, 44061.19, 16632.74, 32583.14, 29503.65, 45126.85, 31734.34, 0.00, 0.00, 0.00, 0.00
35, 39044.65, 44066.30, 16652.56, 32611.82, 29495.63, 44751.77, 31751.21, 0.00, 0.00, 0.00, 0.00
36, 39044.43, 44050.95, 16671.36, 32695.86, 29664.97, 45317.98, 31811.65, 0.00, 0.12, 0.96, 0.25
37, 39062.91, 44035.62, 16660.39, 32702.14, 29780.81, 46034.63, 31820.79, 0.00, 0.00, 0.00, 0.00
38, 39059.29, 44057.72, 16626.63, 32582.74, 29515.32, 45265.59, 31736.21, 0.00, 0.00, 0.00, 0.00
39, 39047.89, 44072.48, 16648.92, 32596.22, 29469.79, 44703.00, 31741.13, 0.00, 0.00, 0.00, 0.00
40, 39045.84, 44063.42, 16674.49, 32684.57, 29628.22, 45167.42, 31800.52, 0.00, 0.00, 0.00, 0.00
41, 39066.51, 44044.47, 16672.28, 32727.71, 29796.51, 46028.75, 31829.96, 0.00, 0.00, 0.00, 0.00
42, 39064.75, 44061.43, 16630.08, 32608.82, 29554.06, 45447.53, 31754.09, 0.00, 0.00, 0.00, 0.00
43, 39047.54, 44073.97, 16647.80, 32600.17, 29457.12, 44722.80, 31740.95, 0.00, 0.00, 0.00, 0.00
44, 39038.62, 44058.10, 16666.87, 32664.93, 29585.66, 45019.50, 31789.74, 0.00, 0.00, 0.00, 0.00
45, 39059.83, 44039.71, 16677.96, 32729.72, 29793.67, 45934.46, 31839.84, 0.00, 0.00, 0.00, 0.00
46, 39070.16, 44057.32, 16639.67, 32622.17, 29608.15, 45623.57, 31770.86, 0.00, 0.12, 0.95, 0.25
47, 39051.40, 44073.30, 16646.89, 32583.68, 29454.55, 44759.48, 31731.41, 0.00, 0.00, 0.00, 0.00
48, 39041.77, 44060.96, 16667.20, 32648.95, 29557.41, 44898.75, 31775.31, 0.00, 0.00, 0.00, 0.00
49, 39059.92, 44043.46, 16685.96, 32730.04, 29772.70, 45794.50, 31830.02, 0.00, 0.00, 0.00, 0.00
50, 39069.60, 44045.63, 16639.51, 32637.90, 29653.79, 45798.23, 31782.35, 0.00, 0.00, 0.00, 0.00
51, 39060.30, 44076.19, 16642.21, 32580.44, 29450.63, 44859.35, 31730.04, 0.00, 0.00, 0.00, 0.00
52, 39049.08, 44072.81, 16666.22, 32632.94, 29521.94, 44806.77, 31763.19, 0.00, 0.00, 0.00, 0.00
53, 39057.84, 44049.88, 16682.69, 32717.95, 29731.53, 45609.65, 31817.95, 0.00, 0.00, 0.00, 0.00
54, 39078.85, 44047.00, 16654.46, 32667.21, 29714.03, 45920.68, 31787.67, 0.00, 0.00, 0.00, 0.00
55, 39065.73, 44070.22, 16641.74, 32579.92, 29473.50, 44988.96, 31720.57, 0.00, 0.12, 0.95, 0.25
56, 39051.80, 44071.98, 16665.37, 32621.16, 29499.52, 44743.86, 31748.57, 0.00, 0.00, 0.00, 0.00
57, 39056.50, 44056.16, 16688.19, 32710.59, 29688.90, 45415.79, 31811.43, 0.00, 0.00, 0.00, 0.00
58, 39072.48, 44040.36, 16663.40, 32691.57, 29753.26, 45977.49, 31804.27, 0.00, 0.00, 0.00, 0.00
59, 39066.63, 44064.70, 16638.64, 32588.19, 29502.92, 45135.75, 31726.02, 0.00, 0.00, 0.00, 0.00
60, 39052.21, 44070.87, 16662.53, 32611.57, 29490.44, 44727.16, 31740.46, 0.00, 0.00, 0.00, 0.00
61, 39042.19, 44048.96, 16677.44, 32689.25, 29642.48, 45240.22, 31799.18, 0.00, 0.00, 0.00, 0.00
62, 39055.16, 44027.39, 16666.89, 32703.42, 29770.47, 45976.51, 31814.85, 0.00, 0.00, 0.00, 0.00
63, 39061.01, 44053.59, 16636.13, 32591.48, 29529.92, 45301.60, 31735.43, 0.00, 0.00, 0.00, 0.00
64, 39056.72, 44071.29, 16660.68, 32596.98, 29474.93, 44732.16, 31733.13, 0.00, 0.00, 0.00, 0.00
65, 39048.47, 44057.05, 16680.32, 32663.86, 29599.21, 45089.59, 31786.21, 0.00, 0.13, 0.96, 0.25
66, 39066.00, 44037.94, 16679.74, 32709.09, 29775.61, 45928.56, 31821.57, 0.00, 0.00, 0.00, 0.00
67, 39068.19, 44051.55, 16636.38, 32599.26, 29568.43, 45472.41, 31741.46, 0.00, 0.00, 0.00, 0.00
68, 39057.08, 44067.42, 16652.00, 32586.70, 29462.75, 44756.84, 31723.40, 0.00, 0.00, 0.00, 0.00
69, 39047.78, 44061.55, 16673.89, 32658.76, 29564.90, 44969.29, 31776.67, 0.00, 0.00, 0.00, 0.00
70, 39056.68, 44037.63, 16679.45, 32723.11, 29768.81, 45837.59, 31820.95, 0.00, 0.00, 0.00, 0.00
71, 39065.19, 44046.59, 16636.71, 32619.46, 29617.69, 45644.16, 31756.04, 0.00, 0.00, 0.00, 0.00
72, 39054.06, 44067.87, 16645.05, 32579.90, 29453.85, 44805.12, 31720.14, 0.00, 0.00, 0.00, 0.00
73, 39041.77, 44057.28, 16664.72, 32637.64, 29531.28, 44860.87, 31760.93, 0.00, 0.00, 0.00, 0.00
74, 39052.92, 44035.57, 16683.10, 32723.82, 29754.26, 45736.50, 31818.00, 0.00, 0.00, 0.00, 0.00
75, 39067.70, 44041.27, 16642.68, 32639.11, 29666.78, 45819.02, 31772.62, 0.00, 0.13, 0.96, 0.25
76, 39060.41, 44070.89, 16641.68, 32570.36, 29451.46, 44864.98, 31719.45, 0.00, 0.00, 0.00, 0.00
77, 39041.75, 44058.48, 16659.60, 32617.88, 29510.96, 44779.21, 31749.71, 0.00, 0.00, 0.00, 0.00
78, 39050.62, 44039.51, 16679.21, 32711.87, 29728.18, 45594.79, 31817.80, 0.00, 0.00, 0.00, 0.00
79, 39066.07, 44036.42, 16646.55, 32659.34, 29720.64, 45951.36, 31793.95, 0.00, 0.00, 0.00, 0.00
80, 39055.11, 44063.67, 16632.92, 32568.44, 29466.97, 44990.35, 31722.11, 0.00, 0.00, 0.00, 0.00
81, 39039.91, 44062.46, 16656.70, 32609.96, 29498.85, 44731.11, 31752.57, 0.00, 0.00, 0.00, 0.00
82, 39040.96, 44041.07, 16678.18, 32696.53, 29694.16, 45412.91, 31807.31, 0.00, 0.00, 0.00, 0.00
83, 39063.61, 44030.45, 16660.28, 32688.44, 29768.70, 46029.55, 31810.53, 0.00, 0.00, 0.00, 0.00
84, 39057.64, 44056.43, 16630.90, 32576.30, 29498.11, 45162.21, 31733.31, 0.00, 0.00, 0.00, 0.00
85, 39041.54, 44062.02, 16652.41, 32594.88, 29479.60, 44695.64, 31741.22, 0.00, 0.12, 0.95, 0.25
86, 39037.01, 44044.27, 16670.40, 32675.54, 29644.29, 45225.20, 31794.04, 0.00, 0.00, 0.00, 0.00
87, 39064.12, 44034.63, 16668.10, 32705.05, 29791.30, 46009.70, 31822.42, 0.00, 0.00, 0.00, 0.00
88, 39066.76, 44061.55, 16634.53, 32587.54, 29551.17, 45340.91, 31744.79, 0.00, 0.00, 0.00, 0.00
89, 39049.48, 44070.87, 16651.33, 32584.97, 29480.52, 44725.26, 31739.01, 0.00, 0.00, 0.00, 0.00
90, 39038.19, 44054.26, 16666.42, 32657.82, 29600.35, 45067.69, 31786.59, 0.00, 0.00, 0.00, 0.00
91, 39055.22, 44036.49, 16668.10, 32709.45, 29778.51, 45904.13, 31820.12, 0.00, 0.00, 0.00, 0.00
92, 39057.21, 44046.73, 16630.12, 32598.10, 29586.24, 45511.48, 31747.95, 0.00, 0.00, 0.00, 0.00
93, 39044.94, 44058.77, 16645.54, 32575.48, 29474.33, 44795.20, 31725.46, 0.00, 0.00, 0.00, 0.00
94, 39027.73, 44041.56, 16656.92, 32630.28, 29551.98, 44953.02, 31764.29, 0.00, 0.12, 0.95, 0.24
95, 39045.43, 44024.73, 16671.70, 32707.48, 29753.99, 45799.95, 31815.34, 0.00, 0.00, 0.00, 0.00
96, 39060.63, 44037.02, 16637.28, 32619.02, 29626.92, 45682.43, 31761.63, 0.00, 0.00, 0.00, 0.00
97, 39046.75, 44058.39, 16640.05, 32572.37, 29456.98, 44829.06, 31719.16, 0.00, 0.00, 0.00, 0.00
98, 39033.01, 44052.20, 16661.24, 32629.05, 29525.60, 44845.00, 31762.03, 0.00, 0.00, 0.00, 0.00
99, 39043.22, 44031.95, 16678.51, 32713.36, 29741.14, 45692.29, 31823.09, 0.00, 0.00, 0.00, 0.00
100, 39060.52, 44035.53, 16645.97, 32641.01, 29678.96, 45855.09, 31783.17, 0.00, 0.00, 0.00, 0.00
101, 39048.12, 44059.27, 16639.00, 32567.25, 29453.16, 44909.57, 31726.51, 0.00, 0.00, 0.00, 0.00
102, 39033.54, 44053.75, 16660.21, 32613.52, 29502.00, 44772.29, 31760.22, 0.00, 0.00, 0.00, 0.00
103, 39043.89, 44038.32, 16678.40, 32704.07, 29707.55, 45544.98, 31817.86, 0.00, 0.00, 0.00, 0.00
104, 39062.76, 44031.88, 16647.76, 32661.35, 29721.31, 45977.83, 31796.56, 0.00, 0.12, 0.96, 0.25
105, 39052.25, 44057.43, 16630.12, 32560.75, 29462.41, 45038.16, 31722.33, 0.00, 0.00, 0.00, 0.00
106, 39038.57, 44060.05, 16659.16, 32596.24, 29479.51, 44717.01, 31744.77, 0.00, 0.00, 0.00, 0.00
107, 39042.24, 44042.10, 16682.54, 32686.25, 29664.21, 45365.68, 31801.61, 0.00, 0.00, 0.00, 0.00
108, 39065.35, 44031.01, 16666.40, 32683.79, 29756.00, 46041.42, 31812.03, 0.00, 0.00, 0.00, 0.00
109, 39054.62, 44051.78, 16631.96, 32564.97, 29480.01, 45202.04, 31731.14, 0.00, 0.00, 0.00, 0.00
110, 39038.06, 44055.96, 16655.60, 32580.10, 29451.69, 44699.09, 31735.79, 0.00, 0.00, 0.00, 0.00
111, 39041.77, 44044.29, 16675.99, 32664.93, 29615.57, 45217.55, 31794.55, 0.00, 0.00, 0.00, 0.00
112, 39066.47, 44033.36, 16675.27, 32703.19, 29775.56, 46053.51, 31832.08, 0.00, 0.00, 0.00, 0.00
113, 39066.45, 44056.45, 16638.04, 32582.03, 29521.13, 45392.79, 31749.98, 0.00, 0.00, 0.00, 0.00
114, 39054.66, 44074.20, 16656.88, 32587.68, 29439.48, 44720.07, 31740.24, 0.00, 0.13, 0.95, 0.25
115, 39054.91, 44068.05, 16680.73, 32677.06, 29577.68, 45081.54, 31799.11, 0.00, 0.00, 0.00, 0.00
116, 39082.89, 44057.54, 16688.39, 32741.97, 29774.49, 45998.12, 31839.14, 0.00, 0.00, 0.00, 0.00
117, 39088.35, 44073.41, 16644.56, 32619.58, 29566.30, 45600.91, 31758.01, 0.00, 0.00, 0.00, 0.00
118, 39064.54, 44083.81, 16653.52, 32584.97, 29425.15, 44764.75, 31720.99, 0.00, 0.00, 0.00, 0.00
119, 39052.61, 44068.68, 16674.89, 32654.62, 29537.25, 44949.71, 31767.71, 0.00, 0.00, 0.00, 0.00
120, 39071.68, 44048.56, 16687.66, 32730.17, 29756.23, 45868.97, 31821.51, 0.00, 0.00, 0.00, 0.00
121, 39075.39, 44049.39, 16639.49, 32626.42, 29612.33, 45757.57, 31766.43, 0.00, 0.00, 0.00, 0.00
122, 39059.65, 44070.31, 16643.60, 32569.60, 29419.77, 44814.66, 31719.74, 0.00, 0.00, 0.00, 0.00
123, 39045.28, 44060.50, 16666.29, 32623.93, 29507.30, 44837.48, 31758.77, 0.00, 0.00, 0.00, 0.00
124, 39052.16, 44034.88, 16681.29, 32708.60, 29728.04, 45703.13, 31819.58, 0.00, 0.13, 0.96, 0.24
125, 39063.16, 44030.72, 16643.64, 32639.11, 29671.54, 45906.64, 31785.21, 0.00, 0.00, 0.00, 0.00
126, 39054.49, 44059.71, 16639.80, 32562.87, 29442.19, 44936.19, 31723.63, 0.00, 0.00, 0.00, 0.00
127, 39040.14, 44060.94, 16662.51, 32613.23, 29489.93, 44764.95, 31759.68, 0.00, 0.00, 0.00, 0.00
128, 39044.07, 44042.52, 16679.16, 32701.96, 29679.56, 45496.71, 31819.79, 0.00, 0.00, 0.00, 0.00
129, 39061.15, 44033.47, 16656.47, 32674.25, 29718.07, 45980.84, 31808.79, 0.00, 0.00, 0.00, 0.00
130, 39051.31, 44053.83, 16636.87, 32568.70, 29477.55, 45115.72, 31732.48, 0.00, 0.00, 0.00, 0.00
131, 39037.23, 44056.83, 16656.81, 32596.53, 29474.19, 44766.32, 31744.42, 0.00, 0.00, 0.00, 0.00
132, 39033.36, 44041.38, 16672.99, 32678.29, 29627.75, 45314.74, 31801.93, 0.00, 0.00, 0.00, 0.00
133, 39054.80, 44029.52, 16665.48, 32687.03, 29734.86, 45979.95, 31812.90, 0.00, 0.00, 0.00, 0.00
134, 39051.65, 44049.99, 16636.87, 32573.17, 29497.10, 45256.00, 31735.32, 0.00, 0.14, 0.96, 0.24
135, 39038.73, 44060.54, 16657.48, 32582.52, 29457.14, 44737.28, 31736.28, 0.00, 0.00, 0.00, 0.00
136, 39029.61, 44043.93, 16674.20, 32660.03, 29591.85, 45156.42, 31789.41, 0.00, 0.00, 0.00, 0.00
137, 39045.10, 44025.58, 16670.80, 32700.69, 29757.90, 45989.56, 31820.08, 0.00, 0.00, 0.00, 0.00
138, 39048.36, 44045.32, 16635.08, 32582.32, 29536.96, 45445.12, 31740.57, 0.00, 0.00, 0.00, 0.00
139, 39032.02, 44055.15, 16651.63, 32569.11, 29441.81, 44752.64, 31728.72, 0.00, 0.00, 0.00, 0.00
140, 39024.31, 44044.63, 16674.49, 32641.01, 29556.67, 45023.86, 31785.79, 0.00, 0.00, 0.00, 0.00
141, 39041.75, 44027.75, 16682.13, 32705.36, 29764.03, 45925.43, 31829.80, 0.00, 0.00, 0.00, 0.00
142, 39048.74, 44039.21, 16634.70, 32591.84, 29581.10, 45617.07, 31754.32, 0.00, 0.00, 0.00, 0.00
143, 39037.39, 44062.64, 16647.53, 32558.64, 29432.91, 44769.94, 31723.58, 0.00, 0.13, 0.95, 0.25
144, 39025.54, 44054.19, 16669.51, 32622.95, 29529.07, 44900.38, 31767.13, 0.00, 0.00, 0.00, 0.00
145, 39041.86, 44030.95, 16684.32, 32704.22, 29751.29, 45806.77, 31822.83, 0.00, 0.00, 0.00, 0.00
146, 39057.62, 44039.73, 16645.28, 32611.26, 29636.87, 45786.07, 31772.94, 0.00, 0.00, 0.00, 0.00
147, 39040.25, 44062.53, 16643.64, 32549.59, 29432.35, 44847.07, 31720.28, 0.00, 0.00, 0.00, 0.00
148, 39025.23, 44055.84, 16664.99, 32608.13, 29502.42, 44806.66, 31755.46, 0.00, 0.00, 0.00, 0.00
149, 39035.96, 44036.09, 16682.40, 32696.15, 29715.21, 45641.28, 31816.43, 0.00, 0.00, 0.00, 0.00
150, 39055.85, 44036.04, 16650.60, 32640.16, 29687.56, 45931.20, 31788.78, 0.00, 0.00, 0.00, 0.00
151, 39047.31, 44063.98, 16641.30, 32556.77, 29445.54, 44964.85, 31724.01, 0.00, 0.00, 0.00, 0.00
152, 39028.74, 44059.38, 16661.06, 32596.69, 29482.62, 44751.12, 31755.01, 0.00, 0.00, 0.00, 0.00
153, 39035.11, 44042.39, 16681.17, 32688.22, 29682.22, 45482.91, 31815.61, 0.00, 0.14, 0.95, 0.24
154, 39054.53, 44032.15, 16659.98, 32664.03, 29732.42, 46031.34, 31810.42, 0.00, 0.00, 0.00, 0.00
155, 39048.63, 44059.73, 16638.93, 32559.09, 29466.33, 45109.08, 31730.71, 0.00, 0.00, 0.00, 0.00
156, 39038.08, 44068.12, 16664.30, 32593.51, 29465.57, 44705.30, 31743.14, 0.00, 0.00, 0.00, 0.00
157, 39037.41, 44049.30, 16684.50, 32681.74, 29644.85, 45304.10, 31806.33, 0.00, 0.00, 0.00, 0.00
158, 39059.45, 44035.89, 16673.48, 32695.28, 29768.92, 46057.15, 31820.61, 0.00, 0.00, 0.00, 0.00
159, 39052.23, 44057.10, 16641.05, 32575.19, 29501.26, 45279.60, 31734.22, 0.00, 0.00, 0.00, 0.00
160, 39042.59, 44071.47, 16668.34, 32593.60, 29454.77, 44693.23, 31739.39, 0.00, 0.00, 0.00, 0.00
161, 39040.58, 44056.94, 16688.28, 32672.19, 29606.99, 45132.28, 31796.65, 0.00, 0.00, 0.00, 0.00
162, 39059.18, 44034.90, 16687.86, 32713.21, 29783.27, 46006.04, 31826.83, 0.00, 0.00, 0.00, 0.00
163, 39059.29, 44051.44, 16647.58, 32592.51, 29551.13, 45470.62, 31744.46, 0.00, 0.14, 0.96, 0.24
164, 39042.66, 44064.07, 16663.45, 32578.92, 29446.25, 44722.66, 31726.36, 0.00, 0.00, 0.00, 0.00
165, 39037.34, 44051.13, 16686.11, 32652.84, 29567.11, 44993.90, 31776.56, 0.00, 0.00, 0.00, 0.00
166, 39058.27, 44032.38, 16697.85, 32722.97, 29774.82, 45890.77, 31827.27, 0.00, 0.00, 0.00, 0.00
167, 39068.86, 44040.24, 16657.62, 32612.49, 29612.57, 45657.64, 31765.83, 0.00, 0.00, 0.00, 0.00
168, 39054.60, 44055.82, 16662.73, 32575.28, 29465.21, 44841.00, 31727.03, 0.00, 0.00, 0.00, 0.00
169, 39041.50, 44047.82, 16677.04, 32627.76, 29534.59, 44904.05, 31760.04, 0.00, 0.00, 0.00, 0.00
170, 39051.09, 44029.45, 16690.25, 32705.65, 29721.29, 45691.12, 31813.04, 0.00, 0.00, 0.00, 0.00
171, 39069.71, 44036.49, 16654.53, 32631.89, 29638.46, 45747.43, 31762.74, 0.00, 0.00, 0.00, 0.00
172, 39074.74, 44069.32, 16653.08, 32577.17, 29458.93, 44904.00, 31708.94, 0.00, 0.00, 0.00, 0.00
173, 39060.70, 44061.46, 16675.23, 32630.48, 29510.96, 44831.88, 31749.51, 0.00, 0.13, 0.96, 0.25
174, 39059.40, 44037.11, 16693.22, 32708.94, 29703.75, 45571.25, 31809.46, 0.00, 0.00, 0.00, 0.00
175, 39088.33, 44039.13, 16672.75, 32659.47, 29705.91, 45924.09, 31787.55, 0.00, 0.00, 0.00, 0.00
176, 39084.01, 44066.21, 16659.27, 32568.12, 29459.26, 44996.18, 31716.14, 0.00, 0.00, 0.00, 0.00
177, 39073.60, 44068.36, 16681.91, 32606.39, 29479.63, 44723.94, 31738.45, 0.00, 0.00, 0.00, 0.00
178, 39079.66, 44048.31, 16703.14, 32691.75, 29676.37, 45412.02, 31797.84, 0.00, 0.00, 0.00, 0.00
179, 39107.28, 44043.51, 16684.28, 32677.27, 29745.46, 46012.61, 31793.77, 0.00, 0.00, 0.00, 0.00
180, 39101.85, 44071.36, 16656.94, 32565.39, 29473.63, 45126.49, 31712.81, 0.00, 0.00, 0.00, 0.00
181, 39084.53, 44073.39, 16678.09, 32587.26, 29463.02, 44682.12, 31728.03, 0.00, 0.00, 0.00, 0.00
182, 39080.93, 44053.16, 16699.12, 32668.55, 29634.79, 45243.53, 31785.83, 0.00, 0.13, 0.96, 0.25
183, 39103.57, 44038.99, 16692.13, 32691.28, 29773.28, 46031.92, 31807.07, 0.00, 0.00, 0.00, 0.00
184, 39100.44, 44061.23, 16655.42, 32568.93, 29508.66, 45296.17, 31726.76, 0.00, 0.00, 0.00, 0.00
185, 39087.59, 44074.98, 16676.37, 32576.01, 29445.70, 44666.63, 31720.92, 0.00, 0.00, 0.00, 0.00
186, 39084.77, 44058.44, 16693.04, 32656.08, 29588.63, 45076.65, 31773.92, 0.00, 0.00, 0.00, 0.00
187, 39103.91, 44036.27, 16690.81, 32702.46, 29767.83, 45969.73, 31809.12, 0.00, 0.00, 0.00, 0.00
188, 39111.66, 44058.86, 16651.85, 32584.80, 29545.85, 45493.53, 31734.80, 0.00, 0.00, 0.00, 0.00
189, 39098.27, 44076.21, 16666.60, 32563.99, 29427.08, 44709.81, 31710.89, 0.00, 0.00, 0.00, 0.00
190, 39085.71, 44061.90, 16686.07, 32632.34, 29539.71, 44943.07, 31763.46, 0.00, 0.00, 0.00, 0.00
191, 39103.88, 44041.63, 16698.00, 32708.02, 29758.55, 45872.80, 31819.09, 0.00, 0.00, 0.00, 0.00
192, 39116.58, 44057.03, 16660.23, 32608.15, 29598.27, 45676.86, 31757.56, 0.00, 0.13, 0.95, 0.24
193, 39098.14, 44074.91, 16662.31, 32558.11, 29415.65, 44769.05, 31715.07, 0.00, 0.00, 0.00, 0.00
194, 39084.10, 44061.12, 16681.46, 32613.00, 29508.01, 44837.46, 31752.75, 0.00, 0.00, 0.00, 0.00
195, 39098.95, 44038.21, 16698.21, 32695.68, 29731.66, 45725.57, 31810.71, 0.00, 0.00, 0.00, 0.00
196, 39113.29, 44040.36, 16660.28, 32616.22, 29648.34, 45835.65, 31769.05, 0.00, 0.00, 0.00, 0.00
197, 39098.30, 44064.77, 16652.14, 32540.34, 29421.47, 44860.04, 31713.64, 0.00, 0.00, 0.00, 0.00
198, 39090.14, 44066.46, 16679.16, 32598.68, 29486.22, 44750.07, 31747.43, 0.00, 0.00, 0.00, 0.00
199, 39097.40, 44041.68, 16696.93, 32685.20, 29695.77, 45551.58, 31805.48, 0.00, 0.00, 0.00, 0.00
200, 39117.96, 44039.48, 16668.50, 32637.61, 29699.34, 45960.62, 31786.77, 0.00, 0.00, 0.00, 0.00
201, 39104.09, 44065.84, 16650.17, 32537.93, 29439.44, 44996.21, 31711.63, 0.00, 0.00, 0.00, 0.00
202, 39087.90, 44062.48, 16675.03, 32576.17, 29462.79, 44692.73, 31730.71, 0.00, 0.14, 0.95, 0.24
203, 39092.21, 44042.90, 16697.02, 32668.06, 29658.60, 45374.73, 31795.96, 0.00, 0.00, 0.00, 0.00
204, 39113.63, 44030.50, 16679.12, 32661.73, 29742.57, 46028.03, 31797.19, 0.00, 0.00, 0.00, 0.00
205, 39104.31, 44051.22, 16647.45, 32545.41, 29468.43, 45173.28, 31712.34, 0.00, 0.00, 0.00, 0.00
206, 39090.59, 44058.04, 16669.91, 32569.51, 29442.37, 44692.40, 31721.77, 0.00, 0.00, 0.00, 0.00
207, 39089.63, 44047.31, 16691.52, 32659.72, 29599.70, 45193.95, 31786.06, 0.00, 0.00, 0.00, 0.00
208, 39102.99, 44028.49, 16681.04, 32686.59, 29729.65, 45947.59, 31808.41, 0.00, 0.00, 0.00, 0.00
209, 39109.02, 44054.41, 16652.00, 32576.64, 29508.06, 45343.02, 31726.69, 0.00, 0.00, 0.00, 0.00
210, 39099.19, 44067.36, 16669.68, 32574.04, 29453.03, 44772.18, 31722.49, 0.00, 0.00, 0.00, 0.00
211, 39085.82, 44052.09, 16685.20, 32637.32, 29554.57, 45067.44, 31780.11, 0.00, 0.00, 0.00, 0.00
212, 39095.61, 44026.74, 16689.62, 32690.56, 29736.04, 45915.09, 31815.92, 0.00, 0.14, 0.96, 0.24
213, 39106.19, 44043.53, 16649.21, 32576.73, 29545.59, 45540.56, 31742.22, 0.00, 0.00, 0.00, 0.00
214, 39095.61, 44063.89, 16665.82, 32552.32, 29415.70, 44751.41, 31719.27, 0.00, 0.00, 0.00, 0.00
215, 39083.77, 44051.89, 16687.57, 32619.33, 29516.57, 44928.05, 31768.24, 0.00, 0.00, 0.00, 0.00
216, 39102.01, 44034.25, 16701.36, 32696.15, 29732.38, 45830.82, 31822.13, 0.00, 0.00, 0.00, 0.00
217, 39113.34, 44046.10, 16661.08, 32603.10, 29597.69, 45725.07, 31768.15, 0.00, 0.00, 0.00, 0.00
218, 39095.73, 44066.55, 16660.07, 32548.34, 29408.79, 44802.10, 31722.18, 0.00, 0.00, 0.00, 0.00
219, 39080.79, 44058.37, 16680.73, 32604.11, 29492.50, 44823.09, 31767.84, 0.00, 0.00, 0.00, 0.00
220, 39092.20, 44036.58, 16697.07, 32695.13, 29714.92, 45695.61, 31830.16, 0.00, 0.00, 0.00, 0.00
221, 39105.63, 44037.07, 16659.51, 32624.85, 29654.30, 45882.23, 31788.18, 0.00, 0.00, 0.00, 0.00
222, 39090.99, 44061.84, 16657.35, 32541.70, 29416.32, 44899.49, 31722.51, 0.00, 0.15, 0.95, 0.24
223, 39077.64, 44060.43, 16683.12, 32587.34, 29469.41, 44741.57, 31754.09, 0.00, 0.00, 0.00, 0.00
224, 39081.60, 44037.72, 16698.16, 32673.40, 29676.83, 45517.25, 31812.92, 0.00, 0.00, 0.00, 0.00
225, 39101.80, 44029.85, 16670.78, 32637.03, 29701.06, 45992.25, 31797.19, 0.00, 0.00, 0.00, 0.00
226, 39087.86, 44050.91, 16650.19, 32529.59, 29429.83, 45044.82, 31719.20, 0.00, 0.00, 0.00, 0.00
227, 39067.72, 44047.46, 16670.91, 32560.03, 29433.54, 44687.21, 31727.14, 0.00, 0.00, 0.00, 0.00
228, 39073.71, 44033.07, 16694.47, 32658.42, 29626.95, 45332.98, 31792.12, 0.00, 0.00, 0.00, 0.00
229, 39095.95, 44021.76, 16678.60, 32668.21, 29736.22, 46041.44, 31808.72, 0.00, 0.00, 0.00, 0.00
230, 39090.25, 44047.11, 16645.99, 32550.69, 29462.32, 45208.14, 31725.55, 0.00, 0.00, 0.00, 0.00
231, 39071.74, 44051.00, 16667.34, 32564.77, 29421.67, 44673.34, 31729.55, 0.00, 0.14, 0.96, 0.25
232, 39067.92, 44034.45, 16686.61, 32648.81, 29588.25, 45169.16, 31788.25, 0.00, 0.00, 0.00, 0.00
233, 39087.66, 44016.73, 16680.50, 32681.74, 29748.23, 46028.57, 31815.65, 0.00, 0.00, 0.00, 0.00
234, 39086.02, 44038.77, 16639.33, 32558.62, 29494.56, 45404.39, 31737.44, 0.00, 0.00, 0.00, 0.00
235, 39071.23, 44054.77, 16661.57, 32557.71, 29408.81, 44697.36, 31727.21, 0.00, 0.00, 0.00, 0.00
236, 39064.01, 44040.40, 16686.36, 32628.81, 29544.29, 45023.07, 31777.23, 0.00, 0.00, 0.00, 0.00
237, 39089.98, 44024.42, 16695.19, 32693.65, 29749.19, 45943.99, 31829.24, 0.00, 0.00, 0.00, 0.00
238, 39094.38, 44039.77, 16651.22, 32577.87, 29552.87, 45599.46, 31755.39, 0.00, 0.00, 0.00, 0.00
239, 39078.58, 44057.45, 16663.89, 32547.13, 29410.04, 44753.04, 31722.31, 0.00, 0.00, 0.00, 0.00
240, 39065.80, 44045.21, 16682.98, 32615.62, 29503.94, 44892.11, 31768.87, 0.00, 0.00, 0.00, 0.00
241, 39078.63, 44023.43, 16697.00, 32696.04, 29720.42, 45796.06, 31829.71, 0.00, 0.14, 0.96, 0.24
242, 39090.50, 44032.22, 16657.93, 32606.86, 29608.37, 45771.86, 31781.30, 0.00, 0.00, 0.00, 0.00
243, 39075.27, 44054.06, 16659.09, 32545.32, 29411.07, 44837.48, 31727.85, 0.00, 0.00, 0.00, 0.00
244, 39066.22, 44051.62, 16685.69, 32607.64, 29484.52, 44804.74, 31770.88, 0.00, 0.00, 0.00, 0.00
245, 39073.15, 44026.90, 16699.46, 32692.51, 29698.34, 45648.00, 31828.86, 0.00, 0.00, 0.00, 0.00
246, 39090.70, 44022.72, 16668.01, 32629.37, 29661.17, 45917.23, 31794.28, 0.00, 0.00, 0.00, 0.00
247, 39077.84, 44044.82, 16657.37, 32540.21, 29417.55, 44945.60, 31724.84, 0.00, 0.00, 0.00, 0.00
248, 39063.09, 44042.70, 16677.80, 32582.81, 29455.11, 44731.49, 31750.34, 0.00, 0.00, 0.00, 0.00
249, 39070.04, 44025.47, 16696.48, 32669.87, 29651.62, 45460.21, 31812.01, 0.00, 0.00, 0.00, 0.00
250, 39093.33, 44018.25, 16674.13, 32647.94, 29696.93, 46000.78, 31803.65, 0.00, 0.00, 0.00, 0.00
251, 39088.93, 44047.38, 16653.26, 32540.32, 29434.83, 45094.09, 31724.70, 0.00, 0.14, 0.96, 0.24
252, 39076.10, 44054.59, 16674.38, 32569.15, 29434.88, 44704.83, 31742.56, 0.00, 0.00, 0.00, 0.00
253, 39071.23, 44032.62, 16691.39, 32650.53, 29602.45, 45278.55, 31800.50, 0.00, 0.00, 0.00, 0.00
254, 39091.88, 44021.83, 16684.32, 32666.04, 29724.49, 46008.58, 31821.60, 0.00, 0.00, 0.00, 0.00
255, 39086.56, 44042.95, 16650.02, 32545.10, 29474.84, 45278.69, 31742.02, 0.00, 0.00, 0.00, 0.00
0, 39074.38, 44054.77, 16670.31, 32553.35, 29422.81, 44724.18, 31736.99, 0.00, 0.00, 0.00, 0.00
1, 39066.33, 44039.82, 16689.80, 32629.43, 29557.37, 45127.03, 31794.06, 0.00, 0.00, 0.00, 0.00
2, 39086.79, 44023.10, 16689.67, 32676.19, 29733.36, 45972.04, 31829.42, 0.00, 0.00, 0.00, 0.00
3, 39088.48, 44039.84, 16650.22, 32557.91, 29509.98, 45450.44, 31748.33, 0.00, 0.00, 0.00, 0.00
4, 39075.12, 44054.71, 16665.46, 32550.35, 29411.38, 44729.88, 31733.96, 0.00, 0.00, 0.00, 0.00
5, 39067.88, 44044.98, 16686.78, 32623.40, 29524.64, 44986.26, 31785.32, 0.00, 0.13, 0.96, 0.24
6, 39084.84, 44024.57, 16695.12, 32686.03, 29726.25, 45879.79, 31832.86, 0.00, 0.00, 0.00, 0.00
7, 39096.02, 44037.61, 16654.46, 32582.58, 29562.26, 45643.40, 31769.63, 0.00, 0.00, 0.00, 0.00
8, 39086.92, 44058.62, 16665.68, 32548.12, 29413.84, 44816.32, 31737.98, 0.00, 0.00, 0.00, 0.00
9, 39070.85, 44046.21, 16680.68, 32605.25, 29493.75, 44901.97, 31778.66, 0.00, 0.00, 0.00, 0.00
10, 39082.76, 44027.14, 16693.20, 32690.63, 29701.91, 45755.98, 31832.24, 0.00, 0.00, 0.00, 0.00
11, 39099.17, 44032.69, 16657.39, 32610.86, 29617.31, 45805.65, 31786.59, 0.00, 0.00, 0.00, 0.00
12, 39093.00, 44059.02, 16656.54, 32544.90, 29411.74, 44891.15, 31730.60, 0.00, 0.00, 0.00, 0.00
13, 39078.13, 44053.79, 16678.00, 32594.68, 29461.79, 44807.18, 31761.25, 0.00, 0.00, 0.00, 0.00
14, 39082.49, 44029.27, 16696.15, 32681.51, 29667.42, 45604.87, 31819.96, 0.00, 0.00, 0.00, 0.00
15, 39107.08, 44031.80, 16667.72, 32635.42, 29657.93, 45944.32, 31804.65, 0.00, 0.13, 0.95, 0.24
16, 39092.39, 44056.09, 16650.44, 32541.21, 29401.75, 44981.50, 31730.02, 0.00, 0.00, 0.00, 0.00
17, 39078.92, 44055.98, 16679.45, 32581.44, 29437.27, 44735.03, 31757.04, 0.00, 0.00, 0.00, 0.00
18, 39080.19, 44035.02, 16700.87, 32670.49, 29636.47, 45443.02, 31817.15, 0.00, 0.00, 0.00, 0.00
19, 39096.39, 44021.60, 16675.96, 32654.82, 29700.21, 46031.83, 31815.16, 0.00, 0.00, 0.00, 0.00
20, 39089.49, 44048.38, 16648.99, 32548.23, 29432.91, 45137.74, 31740.28, 0.00, 0.00, 0.00, 0.00
21, 39075.83, 44052.67, 16673.84, 32570.20, 29422.03, 44700.54, 31750.94, 0.00, 0.00, 0.00, 0.00
22, 39072.77, 44031.55, 16689.06, 32650.18, 29591.34, 45268.11, 31807.49, 0.00, 0.00, 0.00, 0.00
23, 39096.26, 44018.43, 16681.06, 32667.25, 29730.75, 46053.84, 31828.17, 0.00, 0.00, 0.00, 0.00
24, 39095.37, 44042.68, 16646.82, 32542.55, 29467.38, 45312.59, 31738.00, 0.00, 0.13, 0.95, 0.24
25, 39076.91, 44050.28, 16667.45, 32548.32, 29406.27, 44691.06, 31735.36, 0.00, 0.00, 0.00, 0.00
26, 39072.95, 44035.68, 16687.61, 32630.62, 29555.35, 45114.25, 31792.70, 0.00, 0.00, 0.00, 0.00
27, 39091.28, 44011.70, 16687.74, 32676.97, 29738.99, 46010.02, 31825.73, 0.00, 0.00, 0.00, 0.00
28, 39092.15, 44029.09, 16644.96, 32556.72, 29510.00, 45505.09, 31749.78, 0.00, 0.00, 0.00, 0.00
29, 39080.04, 44052.92, 16666.29, 32543.47, 29395.36, 44723.85, 31730.07, 0.00, 0.00, 0.00, 0.00
30, 39067.41, 44039.73, 16690.54, 32614.28, 29517.51, 44978.57, 31780.60, 0.00, 0.00, 0.00, 0.00
31, 39084.17, 44018.65, 16702.54, 32689.09, 29738.08, 45918.21, 31835.97, 0.00, 0.00, 0.00, 0.00
32, 39091.19, 44029.27, 16658.11, 32582.14, 29571.96, 45705.80, 31773.03, 0.00, 0.00, 0.00, 0.00
33, 39076.35, 44049.34, 16662.02, 32538.75, 29396.86, 44794.48, 31726.15, 0.00, 0.00, 0.00, 0.00
34, 39063.00, 44038.72, 16680.95, 32597.85, 29485.82, 44869.07, 31768.15, 0.00, 0.13, 0.95, 0.24
35, 39078.63, 44018.52, 16697.31, 32680.66, 29704.82, 45761.60, 31826.49, 0.00, 0.00, 0.00, 0.00
36, 39090.45, 44023.61, 16654.57, 32602.32, 29617.65, 45863.68, 31781.94, 0.00, 0.00, 0.00, 0.00
37, 39081.78, 44056.54, 16655.58, 32536.65, 29395.25, 44888.20, 31725.24, 0.00, 0.00, 0.00, 0.00
38, 39071.16, 44055.93, 16685.33, 32593.31, 29463.42, 44788.96, 31763.57, 0.00, 0.00, 0.00, 0.00
39, 39080.55, 44038.46, 16703.86, 32684.42, 29680.52, 45604.89, 31830.34, 0.00, 0.00, 0.00, 0.00
40, 39099.88, 44031.08, 16670.47, 32633.84, 29679.79, 45999.24, 31806.62, 0.00, 0.00, 0.00, 0.00
41, 39081.91, 44047.13, 16647.76, 32528.47, 29406.87, 45020.41, 31725.80, 0.00, 0.00, 0.00, 0.00
42, 39072.28, 44051.24, 16676.95, 32570.56, 29431.64, 44721.77, 31750.94, 0.00, 0.00, 0.00, 0.00
43, 39078.29, 44034.90, 16697.63, 32666.54, 29631.95, 45407.16, 31812.66, 0.00, 0.00, 0.00, 0.00
44, 39096.46, 44020.39, 16674.83, 32652.59, 29712.42, 46050.65, 31809.75, 0.00, 0.13, 0.95, 0.24
45, 39085.76, 44044.04, 16644.14, 32532.87, 29433.42, 45175.67, 31723.34, 0.00, 0.00, 0.00, 0.00
46, 39071.16, 44050.04, 16668.59, 32556.25, 29412.28, 44695.17, 31733.57, 0.00, 0.00, 0.00, 0.00
47, 39071.61, 44034.52, 16690.18, 32644.79, 29579.81, 45225.73, 31795.00, 0.00, 0.00, 0.00, 0.00
48, 39092.15, 44017.09, 16680.84, 32670.45, 29733.76, 46040.52, 31821.82, 0.00, 0.00, 0.00, 0.00
49, 39095.08, 44044.51, 16647.65, 32552.77, 29482.58, 45360.52, 31742.18, 0.00, 0.00, 0.00, 0.00
50, 39075.86, 44054.50, 16664.43, 32549.30, 29408.99, 44705.48, 31736.88, 0.00, 0.00, 0.00, 0.00
51, 39065.15, 44038.55, 16679.41, 32620.87, 29537.65, 45066.03, 31787.51, 0.00, 0.00, 0.00, 0.00
52, 39086.02, 44020.60, 16683.97, 32679.81, 29733.59, 45985.20, 31836.62, 0.00, 0.00, 0.00, 0.00
53, 39092.21, 44039.35, 16640.11, 32561.89, 29520.33, 45556.43, 31761.18, 0.00, 0.00, 0.00, 0.00
54, 39076.08, 44053.86, 16653.28, 32535.58, 29395.43, 44759.50, 31734.65, 0.00, 0.13, 0.95, 0.25
55, 39068.75, 44047.20, 16675.99, 32606.25, 29499.74, 44949.04, 31788.00, 0.00, 0.00, 0.00, 0.00
56, 39084.53, 44030.88, 16689.78, 32685.36, 29711.05, 45838.09, 31842.74, 0.00, 0.00, 0.00, 0.00
57, 39098.00, 44043.39, 16652.32, 32595.14, 29581.19, 45729.21, 31781.36, 0.00, 0.00, 0.00, 0.00
58, 39089.38, 44066.04, 16661.68, 32552.52, 29422.81, 44882.43, 31738.69, 0.00, 0.00, 0.00, 0.00
59, 39067.47, 44049.16, 16671.92, 32592.06, 29481.93, 44890.17, 31772.24, 0.00, 0.00, 0.00, 0.00
60, 39076.64, 44029.27, 16686.11, 32670.54, 29678.18, 45683.77, 31832.48, 0.00, 0.00, 0.00, 0.00
61, 39098.07, 44034.79, 16659.22, 32607.84, 29633.03, 45865.64, 31797.50, 0.00, 0.00, 0.00, 0.00
62, 39091.16, 44062.17, 16654.64, 32538.19, 29416.59, 44954.14, 31736.82, 0.00, 0.00, 0.00, 0.00
63, 39071.72, 44056.23, 16671.54, 32580.48, 29451.91, 44795.53, 31764.42, 0.00, 0.00, 0.00, 0.00
64, 39072.30, 44035.66, 16688.01, 32669.00, 29648.25, 45538.17, 31818.89, 0.00, 0.13, 0.95, 0.25
65, 39092.55, 44029.20, 16661.66, 32633.84, 29676.59, 46007.62, 31803.02, 0.00, 0.00, 0.00, 0.00
66, 39083.61, 44055.24, 16643.27, 32534.71, 29419.12, 45081.25, 31733.22, 0.00, 0.00, 0.00, 0.00
67, 39069.26, 44056.49, 16666.51, 32568.08, 29428.87, 44740.12, 31756.15, 0.00, 0.00, 0.00, 0.00
68, 39068.99, 44035.53, 16685.20, 32654.80, 29609.82, 45366.84, 31811.90, 0.00, 0.00, 0.00, 0.00
69, 39090.38, 44023.19, 16671.99, 32659.96, 29716.22, 46060.42, 31819.83, 0.00, 0.00, 0.00, 0.00
70, 39088.06, 44049.25, 16642.59, 32545.86, 29452.89, 45242.12, 31741.15, 0.00, 0.00, 0.00, 0.00
71, 39071.72, 44056.25, 16666.60, 32564.46, 29420.75, 44717.14, 31752.13, 0.00, 0.00, 0.00, 0.00
72, 39067.63, 44042.52, 16690.25, 32654.02, 29582.94, 45216.10, 31812.05, 0.00, 0.00, 0.00, 0.00
73, 39094.34, 44029.45, 16688.79, 32693.18, 29746.46, 46074.86, 31842.38, 0.00, 0.13, 0.95, 0.24
74, 39098.70, 44055.80, 16652.47, 32570.94, 29496.50, 45438.48, 31760.89, 0.00, 0.00, 0.00, 0.00
75, 39079.18, 44064.09, 16666.98, 32563.41, 29403.58, 44734.45, 31744.97, 0.00, 0.00, 0.00, 0.00
76, 39079.59, 44059.27, 16693.80, 32650.82, 29540.45, 45082.10, 31805.46, 0.00, 0.00, 0.00, 0.00
77, 39109.47, 44048.76, 16707.53, 32723.27, 29748.85, 46013.84, 31851.50, 0.00, 0.00, 0.00, 0.00
78, 39107.50, 44055.49, 16654.46, 32592.91, 29530.88, 45622.88, 31759.46, 0.00, 0.00, 0.00, 0.00
79, 39088.24, 44068.92, 16663.11, 32551.52, 29382.69, 44764.30, 31717.01, 0.00, 0.00, 0.00, 0.00
80, 39077.62, 44057.12, 16685.49, 32618.99, 29497.17, 44936.97, 31769.05, 0.00, 0.00, 0.00, 0.00
81, 39086.56, 44030.03, 16694.34, 32694.61, 29716.29, 45859.72, 31827.83, 0.00, 0.00, 0.00, 0.00
82, 39091.08, 44031.95, 16648.21, 32590.72, 29581.39, 45793.67, 31767.66, 0.00, 0.00, 0.00, 0.00
83, 39070.71, 44054.01, 16649.50, 32530.82, 29380.88, 44839.68, 31713.95, 0.00, 0.13, 0.95, 0.24
84, 39056.81, 44049.74, 16673.28, 32591.61, 29459.35, 44829.84, 31758.34, 0.00, 0.00, 0.00, 0.00
85, 39065.71, 44021.51, 16688.46, 32676.39, 29681.35, 45689.82, 31822.04, 0.00, 0.00, 0.00, 0.00
86, 39081.44, 44018.96, 16652.79, 32613.85, 29640.47, 45932.90, 31790.17, 0.00, 0.00, 0.00, 0.00
87, 39069.93, 44047.48, 16642.68, 32532.16, 29396.97, 44957.20, 31726.29, 0.00, 0.00, 0.00, 0.00
88, 39058.04, 44045.09, 16669.24, 32577.17, 29443.73, 44763.08, 31756.91, 0.00, 0.00, 0.00, 0.00
89, 39069.69, 44030.90, 16694.81, 32671.95, 29654.71, 45520.82, 31827.16, 0.00, 0.00, 0.00, 0.00
90, 39090.29, 44022.90, 16668.95, 32641.50, 29692.37, 46043.43, 31813.97, 0.00, 0.00, 0.00, 0.00
91, 39078.92, 44046.59, 16640.63, 32533.14, 29419.28, 45107.00, 31728.37, 0.00, 0.00, 0.00, 0.00
92, 39063.76, 44050.01, 16662.69, 32565.02, 29420.55, 44720.83, 31744.62, 0.00, 0.00, 0.00, 0.00
93, 39063.54, 44033.41, 16682.54, 32655.52, 29603.28, 45335.73, 31805.99, 0.00, 0.14, 0.95, 0.24
94, 39084.86, 44018.47, 16671.18, 32667.21, 29726.21, 46075.37, 31826.22, 0.00, 0.00, 0.00, 0.00
95, 39080.55, 44040.02, 16641.16, 32544.70, 29456.98, 45286.13, 31743.95, 0.00, 0.00, 0.00, 0.00
96, 39068.57, 44052.49, 16664.54, 32553.21, 29411.74, 44721.14, 31744.35, 0.00, 0.00, 0.00, 0.00
97, 39060.63, 44038.72, 16682.98, 32631.89, 29559.58, 45165.23, 31795.85, 0.00, 0.00, 0.00, 0.00
98, 39080.50, 44025.13, 16682.09, 32671.83, 29732.83, 46026.15, 31823.18, 0.00, 0.00, 0.00, 0.00
99, 39080.32, 44044.65, 16639.93, 32546.37, 29496.57, 45465.75, 31743.14, 0.00, 0.00, 0.00, 0.00
100, 39069.86, 44060.18, 16658.40, 32541.37, 29398.04, 44751.07, 31729.17, 0.00, 0.00, 0.00, 0.00
101, 39062.45, 44050.95, 16682.22, 32615.51, 29522.76, 45023.03, 31782.71, 0.00, 0.00, 0.00, 0.00
102, 39079.34, 44031.32, 16689.47, 32678.05, 29732.09, 45927.69, 31827.45, 0.00, 0.00, 0.00, 0.00
103, 39086.74, 44041.23, 16644.27, 32572.39, 29556.52, 45653.32, 31767.84, 0.00, 0.14, 0.95, 0.25
104, 39069.98, 44056.79, 16651.31, 32539.38, 29400.81, 44804.18, 31736.64, 0.00, 0.00, 0.00, 0.00
105, 39059.18, 44048.38, 16673.95, 32604.71, 29490.85, 44919.81, 31788.40, 0.00, 0.00, 0.00, 0.00
106, 39073.22, 44029.67, 16690.07, 32691.86, 29711.86, 45825.07, 31853.11, 0.00, 0.00, 0.00, 0.00
107, 39085.78, 44032.80, 16646.91, 32604.53, 29604.28, 45837.70, 31796.96, 0.00, 0.00, 0.00, 0.00
108, 39072.32, 44056.94, 16645.68, 32539.42, 29394.46, 44879.66, 31737.33, 0.00, 0.00, 0.00, 0.00
109, 39058.69, 44052.58, 16672.48, 32594.83, 29463.42, 44822.62, 31778.93, 0.00, 0.00, 0.00, 0.00
110, 39067.16, 44032.36, 16692.08, 32683.81, 29681.80, 45655.47, 31840.08, 0.00, 0.00, 0.00, 0.00
111, 39085.09, 44030.01, 16661.26, 32627.44, 29658.75, 45964.46, 31808.56, 0.00, 0.00, 0.00, 0.00
112, 39071.68, 44053.25, 16644.09, 32533.75, 29405.46, 44981.90, 31737.22, 0.00, 0.15, 0.95, 0.25
113, 39061.32, 44055.42, 16672.52, 32580.15, 29444.91, 44750.79, 31768.24, 0.00, 0.00, 0.00, 0.00
114, 39062.31, 44032.24, 16690.00, 32666.54, 29644.96, 45478.07, 31826.71, 0.00, 0.00, 0.00, 0.00
115, 39084.15, 44024.13, 16668.86, 32651.00, 29705.65, 46053.80, 31825.40, 0.00, 0.00, 0.00, 0.00
116, 39076.08, 44050.95, 16642.95, 32542.98, 29432.29, 45143.14, 31742.40, 0.00, 0.00, 0.00, 0.00
117, 39062.60, 44057.45, 16667.61, 32571.43, 29421.13, 44716.99, 31754.81, 0.00, 0.00, 0.00, 0.00
118, 39060.25, 44040.33, 16689.49, 32661.20, 29602.43, 45298.18, 31821.91, 0.00, 0.00, 0.00, 0.00
119, 39083.95, 44026.83, 16681.26, 32681.89, 29735.89, 46068.69, 31843.54, 0.00, 0.00, 0.00, 0.00
120, 39079.90, 44045.63, 16643.40, 32555.87, 29468.27, 45313.64, 31751.12, 0.00, 0.00, 0.00, 0.00
121, 39064.75, 44055.20, 16665.35, 32564.72, 29413.17, 44704.25, 31751.59, 0.00, 0.00, 0.00, 0.00
122, 39061.41, 44041.96, 16687.97, 32648.01, 29567.04, 45128.06, 31813.48, 0.00, 0.14, 0.96, 0.25
123, 39085.04, 44024.44, 16691.03, 32697.92, 29748.23, 46018.39, 31848.64, 0.00, 0.00, 0.00, 0.00
124, 39087.46, 44041.34, 16649.95, 32580.42, 29516.28, 45509.47, 31770.52, 0.00, 0.00, 0.00, 0.00
125, 39073.91, 44058.50, 16667.31, 32567.76, 29401.21, 44743.72, 31748.55, 0.00, 0.00, 0.00, 0.00
126, 39065.10, 44046.50, 16688.42, 32638.66, 29520.44, 44996.70, 31801.55, 0.00, 0.00, 0.00, 0.00
127, 39081.60, 44023.46, 16696.17, 32706.23, 29732.76, 45922.89, 31848.64, 0.00, 0.00, 0.00, 0.00
128, 39090.70, 44036.69, 16653.44, 32602.99, 29564.94, 45698.43, 31779.02, 0.00, 0.00, 0.00, 0.00
129, 39075.52, 44056.11, 16659.60, 32559.96, 29394.64, 44806.20, 31741.78, 0.00, 0.00, 0.00, 0.00
130, 39061.01, 44045.65, 16681.35, 32624.98, 29485.46, 44888.14, 31788.63, 0.00, 0.00, 0.00, 0.00
131, 39073.26, 44023.19, 16694.36, 32709.29, 29705.56, 45780.39, 31842.45, 0.00, 0.00, 0.00, 0.00
132, 39096.24, 44032.00, 16660.56, 32633.81, 29620.73, 45863.39, 31797.32, 0.00, 0.14, 0.95, 0.25
133, 39081.89, 44052.76, 16656.79, 32563.29, 29399.43, 44896.59, 31734.98, 0.00, 0.00, 0.00, 0.00
134, 39065.62, 44043.26, 16678.16, 32612.04, 29461.45, 44802.19, 31771.69, 0.00, 0.00, 0.00, 0.00
135, 39072.28, 44021.22, 16695.84, 32697.45, 29676.12, 45611.06, 31834.43, 0.00, 0.00, 0.00, 0.00
136, 39093.73, 44019.39, 16666.38, 32647.83, 29670.87, 45987.04, 31807.02, 0.00, 0.00, 0.00, 0.00
137, 39088.37, 44047.71, 16652.56, 32555.34, 29417.80, 45036.89, 31734.07, 0.00, 0.00, 0.00, 0.00
138, 39076.61, 44050.44, 16677.15, 32593.33, 29441.52, 44753.98, 31762.01, 0.00, 0.00, 0.00, 0.00
139, 39076.26, 44030.61, 16697.07, 32683.19, 29623.84, 45411.32, 31827.12, 0.00, 0.00, 0.00, 0.00
140, 39097.83, 44019.12, 16680.46, 32675.79, 29706.07, 46035.09, 31834.47, 0.00, 0.00, 0.00, 0.00
141, 39094.72, 44043.48, 16654.31, 32560.52, 29447.28, 45200.52, 31753.18, 0.00, 0.00, 0.00, 0.00
142, 39078.20, 44046.97, 16674.83, 32577.24, 29422.25, 44736.79, 31757.83, 0.00, 0.14, 0.95, 0.25
143, 39074.29, 44031.55, 16693.85, 32662.22, 29582.06, 45257.05, 31812.10, 0.00, 0.00, 0.00, 0.00
144, 39091.64, 44012.48, 16683.77, 32684.75, 29724.49, 46050.14, 31834.65, 0.00, 0.00, 0.00, 0.00
145, 39092.98, 44034.19, 16645.90, 32561.46, 29470.80, 45362.77, 31754.18, 0.00, 0.00, 0.00, 0.00
146, 39082.09, 44047.15, 16668.66, 32565.89, 29403.83, 44724.52, 31754.50, 0.00, 0.00, 0.00, 0.00
147, 39073.44, 44028.87, 16686.98, 32643.65, 29536.13, 45095.74, 31806.04, 0.00, 0.00, 0.00, 0.00
148, 39088.98, 44006.98, 16686.49, 32696.82, 29725.16, 45990.57, 31842.41, 0.00, 0.00, 0.00, 0.00
149, 39090.99, 44020.71, 16641.25, 32576.44, 29512.66, 45546.68, 31764.64, 0.00, 0.00, 0.00, 0.00
150, 39077.35, 44039.55, 16654.71, 32557.93, 29388.18, 44756.59, 31740.01, 0.00, 0.00, 0.00, 0.00
151, 39070.91, 44032.62, 16679.03, 32630.77, 29499.63, 44968.55, 31790.46, 0.00, 0.00, 0.00, 0.00
152, 39089.04, 44013.55, 16689.13, 32705.50, 29715.06, 45887.06, 31838.52, 0.00, 0.13, 0.94, 0.25
153, 39103.62, 44025.89, 16647.40, 32608.33, 29563.71, 45740.03, 31778.32, 0.00, 0.00, 0.00, 0.00
154, 39088.21, 44044.76, 16653.81, 32559.29, 29380.61, 44831.25, 31739.54, 0.00, 0.00, 0.00, 0.00
155, 39078.27, 44038.19, 16677.44, 32621.41, 29463.71, 44876.78, 31779.78, 0.00, 0.00, 0.00, 0.00
156, 39086.25, 44013.24, 16695.14, 32703.26, 29686.18, 45756.68, 31834.72, 0.00, 0.00, 0.00, 0.00
157, 39101.76, 44014.14, 16658.84, 32622.86, 29613.13, 45896.91, 31793.95, 0.00, 0.00, 0.00, 0.00
158, 39090.03, 44039.93, 16653.86, 32548.97, 29384.52, 44918.40, 31733.57, 0.00, 0.00, 0.00, 0.00
159, 39076.32, 44038.70, 16678.96, 32601.74, 29441.45, 44785.79, 31767.53, 0.00, 0.00, 0.00, 0.00
160, 39081.73, 44019.23, 16699.57, 32692.31, 29654.51, 45571.05, 31831.48, 0.00, 0.00, 0.00, 0.00
161, 39101.61, 44014.79, 16671.70, 32654.09, 29669.97, 46009.12, 31811.43, 0.00, 0.14, 0.96, 0.25
162, 39090.43, 44040.29, 16651.65, 32555.72, 29404.30, 45047.73, 31731.05, 0.00, 0.00, 0.00, 0.00
163, 39068.03, 44035.95, 16673.57, 32588.87, 29420.66, 44733.19, 31760.84, 0.00, 0.00, 0.00, 0.00
164, 39069.73, 44016.68, 16693.15, 32679.34, 29608.44, 45398.00, 31821.57, 0.00, 0.00, 0.00, 0.00
165, 39094.86, 44006.80, 16678.04, 32679.03, 29703.41, 46074.88, 31823.50, 0.00, 0.00, 0.00, 0.00
166, 39087.23, 44029.87, 16647.15, 32556.05, 29426.90, 45216.08, 31736.93, 0.00, 0.00, 0.00, 0.00
167, 39073.29, 44037.25, 16674.13, 32575.41, 29403.23, 44704.16, 31748.73, 0.00, 0.00, 0.00, 0.00
168, 39071.47, 44021.91, 16697.09, 32663.30, 29571.36, 45228.55, 31809.68, 0.00, 0.00, 0.00, 0.00
169, 39096.13, 44009.13, 16694.85, 32694.61, 29730.66, 46068.11, 31835.28, 0.00, 0.00, 0.00, 0.00
170, 39096.44, 44030.48, 16657.46, 32565.75, 29471.78, 45403.45, 31750.72, 0.00, 0.00, 0.00, 0.00
171, 39079.30, 44039.04, 16675.83, 32562.00, 29388.77, 44718.84, 31741.13, 0.00, 0.14, 0.96, 0.24
172, 39072.48, 44023.17, 16693.82, 32637.12, 29518.81, 45058.41, 31793.70, 0.00, 0.00, 0.00, 0.00
173, 39091.21, 44005.64, 16699.17, 32691.55, 29703.19, 45921.70, 31834.31, 0.00, 0.00, 0.00, 0.00
174, 39099.66, 44021.07, 16663.67, 32578.83, 29519.93, 45564.79, 31762.81, 0.00, 0.00, 0.00, 0.00
175, 39083.43, 44035.39, 16673.93, 32551.09, 29396.23, 44801.25, 31733.78, 0.00, 0.00, 0.00, 0.00
176, 39070.11, 44025.87, 16692.10, 32613.07, 29482.35, 44948.44, 31776.94, 0.00, 0.00, 0.00, 0.00
177, 39082.98, 44007.50, 16702.77, 32687.64, 29683.88, 45802.14, 31827.61, 0.00, 0.00, 0.00, 0.00
178, 39099.46, 44017.58, 16664.74, 32598.23, 29568.41, 45729.12, 31774.90, 0.00, 0.00, 0.00, 0.00
179, 39093.69, 44042.68, 16669.62, 32546.33, 29387.96, 44849.73, 31728.79, 0.00, 0.00, 0.00, 0.00
180, 39081.82, 44039.33, 16689.89, 32600.89, 29451.84, 44841.98, 31766.10, 0.00, 0.00, 0.00, 0.00
181, 39088.98, 44018.32, 16704.40, 32685.76, 29661.99, 45675.05, 31828.66, 0.00, 0.14, 0.95, 0.25
182, 39104.73, 44017.76, 16671.00, 32620.09, 29620.04, 45904.96, 31796.52, 0.00, 0.00, 0.00, 0.00
183, 39094.29, 44041.83, 16666.00, 32536.27, 29389.79, 44957.65, 31730.49, 0.00, 0.00, 0.00, 0.00
184, 39075.14, 44033.67, 16685.11, 32576.39, 29422.34, 44771.32, 31756.98, 0.00, 0.00, 0.00, 0.00
185, 39073.38, 44009.62, 16699.66, 32665.53, 29620.73, 45504.98, 31820.59, 0.00, 0.00, 0.00, 0.00
186, 39093.16, 44003.95, 16677.40, 32639.29, 29665.55, 45999.17, 31812.39, 0.00, 0.00, 0.00, 0.00
187, 39086.96, 44033.54, 16657.06, 32539.87, 29406.11, 45089.30, 31735.36, 0.00, 0.00, 0.00, 0.00
188, 39072.84, 44037.14, 16679.90, 32571.32, 29409.78, 44725.30, 31758.70, 0.00, 0.00, 0.00, 0.00
189, 39071.41, 44018.16, 16699.21, 32654.87, 29589.55, 45333.27, 31816.77, 0.00, 0.00, 0.00, 0.00
190, 39092.06, 44004.05, 16682.71, 32660.68, 29701.60, 46048.86, 31827.36, 0.00, 0.00, 0.00, 0.00
191, 39088.15, 44028.20, 16651.31, 32541.86, 29432.87, 45250.77, 31742.05, 0.00, 0.14, 0.96, 0.25
192, 39072.55, 44038.66, 16677.04, 32557.30, 29394.76, 44700.89, 31747.66, 0.00, 0.00, 0.00, 0.00
193, 39065.84, 44023.01, 16698.00, 32640.07, 29553.30, 45170.06, 31810.06, 0.00, 0.00, 0.00, 0.00
194, 39089.91, 44006.96, 16699.10, 32686.32, 29728.51, 46038.02, 31846.12, 0.00, 0.00, 0.00, 0.00
195, 39085.58, 44021.71, 16653.79, 32552.65, 29480.86, 45438.03, 31760.04, 0.00, 0.00, 0.00, 0.00
196, 39068.84, 44035.57, 16667.16, 32537.68, 29380.70, 44716.41, 31739.83, 0.00, 0.00, 0.00, 0.00
197, 39069.71, 44031.35, 16694.70, 32619.35, 29516.10, 45032.82, 31799.63, 0.00, 0.00, 0.00, 0.00
198, 39086.02, 44009.20, 16698.90, 32682.05, 29724.94, 45958.00, 31846.03, 0.00, 0.00, 0.00, 0.00
199, 39089.64, 44022.12, 16654.53, 32568.35, 29534.01, 45622.39, 31769.96, 0.00, 0.00, 0.00, 0.00
200, 39073.44, 44038.77, 16663.78, 32532.78, 29382.84, 44761.78, 31735.23, 0.00, 0.00, 0.00, 0.00
201, 39062.20, 44028.31, 16687.28, 32599.50, 29482.26, 44904.14, 31783.80, 0.00, 0.13, 0.96, 0.26
202, 39075.05, 44005.42, 16702.03, 32679.88, 29700.86, 45815.69, 31843.01, 0.00, 0.00, 0.00, 0.00
203, 39085.55, 44005.13, 16659.40, 32586.23, 29580.48, 45795.35, 31793.75, 0.00, 0.00, 0.00, 0.00
204, 39067.47, 44024.87, 16662.40, 32525.83, 29375.24, 44844.93, 31744.48, 0.00, 0.00, 0.00, 0.00
205, 39051.18, 44016.20, 16683.23, 32580.75, 29442.32, 44810.66, 31782.64, 0.00, 0.00, 0.00, 0.00
206, 39064.90, 43999.27, 16702.83, 32670.43, 29659.00, 45651.92, 31842.05, 0.00, 0.00, 0.00, 0.00
207, 39084.21, 44000.44, 16670.38, 32609.88, 29630.79, 45930.66, 31809.62, 0.00, 0.00, 0.00, 0.00
208, 39074.56, 44026.77, 16658.93, 32523.89, 29387.58, 44950.43, 31737.38, 0.00, 0.00, 0.00, 0.00
209, 39060.19, 44024.69, 16683.07, 32565.80, 29426.38, 44733.86, 31764.38, 0.00, 0.00, 0.00, 0.00
210, 39062.20, 44004.08, 16701.65, 32651.99, 29621.51, 45470.40, 31827.10, 0.00, 0.13, 0.95, 0.26
211, 39079.48, 43992.21, 16676.64, 32623.55, 29672.59, 46021.41, 31819.18, 0.00, 0.00, 0.00, 0.00
212, 39071.03, 44015.59, 16652.03, 32510.92, 29398.91, 45100.77, 31732.75, 0.00, 0.00, 0.00, 0.00
213, 39057.28, 44020.42, 16675.00, 32541.90, 29393.66, 44690.37, 31744.44, 0.00, 0.00, 0.00, 0.00
214, 39058.35, 44003.09, 16694.23, 32630.86, 29573.28, 45282.18, 31805.14, 0.00, 0.00, 0.00, 0.00
215, 39077.15, 43983.79, 16680.30, 32641.99, 29703.28, 46037.06, 31820.19, 0.00, 0.00, 0.00, 0.00
216, 39074.36, 44011.72, 16646.55, 32525.83, 29439.12, 45285.57, 31740.01, 0.00, 0.00, 0.00, 0.00
217, 39064.39, 44027.28, 16671.03, 32540.74, 29384.38, 44707.04, 31744.57, 0.00, 0.00, 0.00, 0.00
218, 39056.83, 44011.72, 16693.33, 32624.18, 29530.88, 45129.73, 31801.84, 0.00, 0.00, 0.00, 0.00
219, 39074.04, 43992.05, 16693.69, 32670.36, 29710.56, 46010.57, 31836.17, 0.00, 0.00, 0.00, 0.00
220, 39073.29, 44006.74, 16649.88, 32545.86, 29477.57, 45478.55, 31755.10, 0.00, 0.13, 0.95, 0.26
221, 39063.14, 44026.25, 16666.60, 32535.27, 29372.47, 44737.02, 31735.27, 0.00, 0.00, 0.00, 0.00
222, 39056.27, 44018.52, 16686.85, 32611.31, 29491.83, 45005.26, 31788.67, 0.00, 0.00, 0.00, 0.00
223, 39077.55, 44001.82, 16700.17, 32685.83, 29704.48, 45927.34, 31839.39, 0.00, 0.00, 0.00, 0.00
224, 39083.72, 44012.62, 16656.16, 32578.27, 29532.55, 45675.18, 31770.10, 0.00, 0.00, 0.00, 0.00
225, 39071.38, 44032.29, 16659.96, 32540.67, 29375.18, 44807.29, 31728.97, 0.00, 0.00, 0.00, 0.00
226, 39061.75, 44025.31, 16681.87, 32598.48, 29458.53, 44892.16, 31772.71, 0.00, 0.00, 0.00, 0.00
227, 39074.38, 44004.57, 16698.85, 32681.38, 29678.36, 45785.71, 31834.43, 0.00, 0.00, 0.00, 0.00
228, 39090.43, 44009.96, 16656.99, 32601.25, 29582.96, 45844.90, 31784.49, 0.00, 0.00, 0.00, 0.00
229, 39077.02, 44031.77, 16654.75, 32532.52, 29370.57, 44894.50, 31724.43, 0.00, 0.00, 0.00, 0.00
230, 39065.82, 44030.12, 16680.73, 32584.73, 29426.41, 44807.76, 31762.07, 0.00, 0.13, 0.95, 0.26
231, 39070.47, 44006.85, 16698.96, 32670.67, 29640.24, 45621.18, 31822.13, 0.00, 0.00, 0.00, 0.00
232, 39085.31, 43999.56, 16664.21, 32614.84, 29631.33, 45971.50, 31795.98, 0.00, 0.00, 0.00, 0.00
233, 39075.90, 44027.39, 16651.94, 32525.14, 29380.56, 45012.43, 31728.03, 0.00, 0.00, 0.00, 0.00
234, 39063.90, 44029.56, 16681.49, 32569.20, 29408.93, 44755.01, 31758.21, 0.00, 0.00, 0.00, 0.00
235, 39066.13, 44009.67, 16700.73, 32655.70, 29603.99, 45450.13, 31820.41, 0.00, 0.00, 0.00, 0.00
236, 39090.92, 44002.94, 16679.86, 32644.63, 29680.17, 46053.49, 31818.36, 0.00, 0.00, 0.00, 0.00
237, 39083.36, 44028.11, 16652.70, 32536.40, 29410.96, 45173.32, 31738.76, 0.00, 0.00, 0.00, 0.00
238, 39065.02, 44031.59, 16675.99, 32560.50, 29396.70, 44729.15, 31755.14, 0.00, 0.00, 0.00, 0.00
239, 39060.54, 44014.43, 16695.95, 32645.50, 29565.01, 45279.11, 31813.48, 0.00, 0.00, 0.00, 0.00
240, 39081.55, 43996.43, 16686.54, 32668.04, 29708.02, 46072.58, 31836.57, 0.00, 0.14, 0.95, 0.25
241, 39078.31, 44017.54, 16647.76, 32546.53, 29447.17, 45349.96, 31754.47, 0.00, 0.00, 0.00, 0.00
242, 39064.59, 44032.53, 16670.27, 32554.06, 29383.40, 44724.92, 31750.05, 0.00, 0.00, 0.00, 0.00
243, 39057.32, 44019.05, 16689.44, 32634.24, 29524.13, 45114.96, 31806.49, 0.00, 0.00, 0.00, 0.00
244, 39074.51, 43997.75, 16690.81, 32687.48, 29709.85, 46009.66, 31843.79, 0.00, 0.00, 0.00, 0.00
245, 39078.47, 44015.23, 16648.96, 32568.30, 29486.44, 45536.74, 31763.82, 0.00, 0.00, 0.00, 0.00
246, 39066.40, 44034.14, 16663.76, 32553.86, 29368.43, 44765.65, 31742.63, 0.00, 0.00, 0.00, 0.00
247, 39054.66, 44023.88, 16682.71, 32620.49, 29477.48, 44985.88, 31792.72, 0.00, 0.00, 0.00, 0.00
248, 39067.68, 44001.80, 16689.62, 32691.06, 29692.08, 45902.93, 31840.66, 0.00, 0.00, 0.00, 0.00
249, 39073.35, 44007.61, 16643.35, 32585.27, 29533.31, 45723.04, 31776.02, 0.00, 0.14, 0.95, 0.25
250, 39061.77, 44031.32, 16650.30, 32537.12, 29361.50, 44821.46, 31732.44, 0.00, 0.00, 0.00, 0.00
251, 39043.60, 44018.05, 16671.47, 32593.65, 29446.03, 44872.78, 31774.17, 0.00, 0.00, 0.00, 0.00
252, 39056.12, 43995.90, 16690.03, 32680.24, 29669.35, 45755.11, 31834.78, 0.00, 0.00, 0.00, 0.00
253, 39073.48, 44000.44, 16652.18, 32602.16, 29593.28, 45878.34, 31789.97, 0.00, 0.00, 0.00, 0.00
254, 39065.71, 44032.02, 16651.15, 32531.98, 29367.80, 44907.78, 31729.82, 0.00, 0.00, 0.00, 0.00
255, 39053.10, 44029.31, 16676.28, 32587.26, 29423.84, 44786.37, 31767.51, 0.00, 0.00, 0.00, 0.00
0, 39058.15, 44004.88, 16692.10, 32673.96, 29635.30, 45582.54, 31826.67, 0.00, 0.00, 0.00, 0.00
1, 39076.61, 43999.72, 16668.72, 32627.33, 29647.82, 45997.41, 31809.68, 0.00, 0.00, 0.00, 0.00
2, 39066.98, 44024.11, 16653.03, 32524.22, 29387.45, 45036.06, 31736.01, 0.00, 0.00, 0.00, 0.00
3, 39052.27, 44023.39, 16674.67, 32561.33, 29403.14, 44733.64, 31764.60, 0.00, 0.13, 0.96, 0.25
4, 39054.17, 44007.10, 16694.36, 32654.51, 29592.84, 45408.11, 31828.50, 0.00, 0.00, 0.00, 0.00
5, 39079.34, 43998.94, 16679.25, 32650.06, 29682.85, 46068.69, 31833.31, 0.00, 0.00, 0.00, 0.00
6, 39067.52, 44019.10, 16645.10, 32527.40, 29403.00, 45198.00, 31743.34, 0.00, 0.00, 0.00, 0.00
7, 39055.74, 44029.54, 16671.83, 32557.24, 29376.81, 44704.88, 31758.05, 0.00, 0.00, 0.00, 0.00
8, 39059.65, 44020.84, 16693.96, 32650.91, 29547.17, 45243.42, 31821.51, 0.00, 0.00, 0.00, 0.00
9, 39076.77, 44002.52, 16686.09, 32682.50, 29703.63, 46081.18, 31844.55, 0.00, 0.00, 0.00, 0.00
10, 39071.99, 44023.01, 16648.14, 32559.74, 29449.23, 45397.64, 31759.46, 0.00, 0.00, 0.00, 0.00
11, 39051.40, 44030.75, 16668.28, 32552.56, 29370.08, 44722.24, 31744.01, 0.00, 0.00, 0.00, 0.00
12, 39045.37, 44015.75, 16690.96, 32626.37, 29510.25, 45089.48, 31793.75, 0.00, 0.00, 0.00, 0.00
13, 39063.32, 43992.01, 16691.21, 32680.35, 29705.69, 46007.67, 31834.54, 0.00, 0.13, 0.96, 0.24
14, 39060.66, 43999.50, 16641.63, 32549.41, 29483.58, 45566.40, 31748.08, 0.00, 0.00, 0.00, 0.00
15, 39055.67, 44027.66, 16662.13, 32531.15, 29353.72, 44748.23, 31726.80, 0.00, 0.00, 0.00, 0.00
16, 39060.81, 44035.66, 16690.45, 32620.22, 29475.31, 44958.14, 31791.02, 0.00, 0.00, 0.00, 0.00
17, 39078.05, 44017.60, 16699.41, 32702.37, 29691.01, 45877.98, 31846.56, 0.00, 0.00, 0.00, 0.00
18, 39081.80, 44018.03, 16651.60, 32595.28, 29546.52, 45764.77, 31782.53, 0.00, 0.00, 0.00, 0.00
19, 39063.54, 44034.84, 16653.46, 32537.19, 29359.02, 44848.64, 31728.59, 0.00, 0.00, 0.00, 0.00
20, 39046.46, 44023.52, 16672.54, 32590.65, 29431.30, 44864.33, 31767.08, 0.00, 0.00, 0.00, 0.00
21, 39045.43, 43990.49, 16682.58, 32664.75, 29642.08, 45712.29, 31826.07, 0.00, 0.00, 0.00, 0.00
22, 39059.74, 43987.36, 16650.89, 32594.16, 29592.30, 45907.15, 31789.63, 0.00, 0.00, 0.00, 0.00
23, 39065.57, 44031.88, 16652.70, 32534.46, 29379.11, 44965.23, 31741.35, 0.00, 0.13, 0.96, 0.24
24, 39055.45, 44036.71, 16677.24, 32585.65, 29426.29, 44804.79, 31777.96, 0.00, 0.00, 0.00, 0.00
25, 39056.95, 44015.52, 16694.38, 32673.89, 29627.08, 45561.97, 31832.77, 0.00, 0.00, 0.00, 0.00
26, 39082.38, 44016.71, 16673.78, 32646.73, 29659.11, 46042.67, 31825.66, 0.00, 0.00, 0.00, 0.00
27, 39069.15, 44035.86, 16652.21, 32538.06, 29396.19, 45109.02, 31742.78, 0.00, 0.00, 0.00, 0.00
28, 39047.42, 44030.27, 16671.94, 32563.38, 29403.94, 44758.14, 31756.51, 0.00, 0.00, 0.00, 0.00
29, 39044.92, 44010.54, 16692.93, 32652.23, 29582.29, 45382.85, 31818.02, 0.00, 0.00, 0.00, 0.00
30, 39062.60, 43996.01, 16678.40, 32657.53, 29687.52, 46082.41, 31831.74, 0.00, 0.00, 0.00, 0.00
31, 39059.43, 44021.83, 16647.22, 32543.80, 29422.29, 45268.34, 31746.20, 0.00, 0.00, 0.00, 0.00
32, 39038.82, 44023.08, 16664.52, 32549.62, 29377.03, 44723.22, 31743.25, 0.00, 0.00, 0.00, 0.00
33, 39040.92, 44014.36, 16691.59, 32636.32, 29539.15, 45215.36, 31808.30, 0.00, 0.13, 0.96, 0.24
34, 39070.60, 44007.48, 16691.37, 32686.45, 29714.27, 46090.26, 31850.47, 0.00, 0.00, 0.00, 0.00
35, 39068.34, 44024.53, 16649.39, 32558.47, 29465.83, 45462.35, 31766.05, 0.00, 0.00, 0.00, 0.00
36, 39056.48, 44042.57, 16669.82, 32556.79, 29377.14, 44757.29, 31755.14, 0.00, 0.00, 0.00, 0.00
37, 39051.65, 44030.48, 16692.26, 32630.06, 29507.23, 45084.36, 31808.99, 0.00, 0.00, 0.00, 0.00
38, 39076.52, 44018.81, 16700.46, 32700.91, 29716.24, 46016.50, 31865.05, 0.00, 0.00, 0.00, 0.00
39, 39088.46, 44045.32, 16657.66, 32595.30, 29517.96, 45666.63, 31796.16, 0.00, 0.00, 0.00, 0.00
40, 39071.61, 44062.13, 16669.13, 32559.03, 29365.63, 44812.09, 31758.30, 0.00, 0.00, 0.00, 0.00
41, 39056.01, 44046.14, 16687.43, 32621.86, 29466.50, 44971.29, 31794.89, 0.00, 0.00, 0.00, 0.00
42, 39074.38, 44030.27, 16706.56, 32704.85, 29690.20, 45889.27, 31850.03, 0.00, 0.14, 0.96, 0.25
43, 39095.50, 44047.00, 16672.14, 32617.77, 29573.59, 45844.75, 31805.32, 0.00, 0.00, 0.00, 0.00
44, 39097.04, 44086.89, 16679.81, 32577.24, 29378.62, 44904.79, 31761.07, 0.00, 0.00, 0.00, 0.00
45, 39081.71, 44078.76, 16700.02, 32633.28, 29450.81, 44880.47, 31791.96, 0.00, 0.00, 0.00, 0.00
46, 39076.05, 44037.99, 16708.85, 32700.78, 29658.60, 45714.73, 31831.63, 0.00, 0.00, 0.00, 0.00
47, 39097.85, 44037.94, 16671.00, 32636.03, 29619.82, 45966.99, 31800.45, 0.00, 0.00, 0.00, 0.00
48, 39088.33, 44067.42, 16662.40, 32555.29, 29380.21, 44989.88, 31738.29, 0.00, 0.00, 0.00, 0.00
49, 39065.89, 44056.98, 16685.13, 32591.53, 29420.01, 44779.06, 31765.38, 0.00, 0.00, 0.00, 0.00
50, 39058.20, 44022.16, 16700.62, 32664.26, 29614.50, 45507.05, 31816.81, 0.00, 0.00, 0.00, 0.00
51, 39074.67, 44011.05, 16674.45, 32633.26, 29661.03, 46035.90, 31807.45, 0.00, 0.00, 0.00, 0.00
52, 39066.85, 44038.05, 16651.69, 32525.99, 29398.82, 45117.64, 31734.76, 0.00, 0.13, 0.95, 0.25
53, 39049.82, 44039.48, 16672.79, 32553.84, 29394.15, 44728.88, 31749.40, 0.00, 0.00, 0.00, 0.00
54, 39056.77, 44029.96, 16695.81, 32645.53, 29572.05, 45340.98, 31812.57, 0.00, 0.00, 0.00, 0.00
55, 39077.55, 44013.55, 16683.27, 32653.66, 29690.11, 46085.41, 31824.99, 0.00, 0.00, 0.00, 0.00
56, 39071.34, 44033.29, 16647.00, 32529.59, 29419.59, 45298.85, 31735.63, 0.00, 0.00, 0.00, 0.00
57, 39062.33, 44051.96, 16671.85, 32550.58, 29376.03, 44735.32, 31743.01, 0.00, 0.00, 0.00, 0.00
58, 39059.63, 44041.16, 16692.62, 32637.55, 29530.52, 45197.04, 31806.73, 0.00, 0.00, 0.00, 0.00
59, 39078.52, 44019.95, 16690.90, 32676.93, 29708.51, 46065.07, 31839.30, 0.00, 0.00, 0.00, 0.00
60, 39074.25, 44029.94, 16646.73, 32546.02, 29471.27, 45486.45, 31755.10, 0.00, 0.00, 0.00, 0.00
61, 39060.41, 44045.32, 16667.79, 32536.14, 29372.85, 44745.64, 31740.21, 0.00, 0.00, 0.00, 0.00
62, 39051.96, 44037.50, 16689.29, 32616.92, 29497.64, 45036.82, 31791.87, 0.00, 0.13, 0.95, 0.24
63, 39066.47, 44015.95, 16696.10, 32684.82, 29705.40, 45947.45, 31838.27, 0.00, 0.00, 0.00, 0.00
64, 39073.46, 44027.59, 16652.52, 32572.06, 29529.07, 45676.57, 31773.14, 0.00, 0.00, 0.00, 0.00
65, 39056.72, 44046.26, 16658.44, 32532.36, 29365.68, 44813.43, 31738.60, 0.00, 0.00, 0.00, 0.00
66, 39045.14, 44037.29, 16682.13, 32599.53, 29458.46, 44926.67, 31784.27, 0.00, 0.00, 0.00, 0.00
67, 39061.97, 44019.25, 16698.00, 32683.32, 29682.71, 45837.82, 31844.82, 0.00, 0.00, 0.00, 0.00
68, 39076.50, 44025.38, 16659.34, 32594.61, 29577.53, 45858.78, 31791.73, 0.00, 0.00, 0.00, 0.00
69, 39066.40, 44051.60, 16661.41, 32532.07, 29365.81, 44897.03, 31732.12, 0.00, 0.00, 0.00, 0.00
70, 39047.78, 44041.52, 16683.25, 32581.60, 29434.74, 44829.66, 31775.55, 0.00, 0.00, 0.00, 0.00
71, 39054.04, 44016.82, 16700.04, 32668.48, 29649.45, 45653.46, 31840.73, 0.00, 0.00, 0.00, 0.00
72, 39072.99, 44014.90, 16670.33, 32620.85, 29632.40, 45978.23, 31811.61, 0.00, 0.14, 0.95, 0.25
73, 39066.63, 44046.59, 16660.72, 32536.90, 29386.89, 45032.82, 31745.76, 0.00, 0.00, 0.00, 0.00
74, 39053.55, 44046.35, 16680.12, 32573.96, 29410.16, 44786.59, 31770.12, 0.00, 0.00, 0.00, 0.00
75, 39052.59, 44021.94, 16694.70, 32659.79, 29601.64, 45484.93, 31830.49, 0.00, 0.00, 0.00, 0.00
76, 39074.29, 44014.00, 16671.88, 32643.98, 29667.38, 46067.32, 31826.51, 0.00, 0.00, 0.00, 0.00
77, 39075.72, 44046.88, 16653.75, 32540.14, 29407.05, 45181.57, 31753.85, 0.00, 0.00, 0.00, 0.00
78, 39061.62, 44051.78, 16679.05, 32561.42, 29389.44, 44744.68, 31765.76, 0.00, 0.00, 0.00, 0.00
79, 39058.64, 44032.60, 16697.31, 32650.40, 29565.25, 45320.98, 31826.33, 0.00, 0.00, 0.00, 0.00
80, 39079.41, 44021.04, 16687.50, 32675.21, 29706.96, 46108.14, 31849.69, 0.00, 0.00, 0.00, 0.00
81, 39082.49, 44050.05, 16655.98, 32553.37, 29449.54, 45357.41, 31766.72, 0.00, 0.00, 0.00, 0.00
82, 39072.03, 44061.41, 16678.60, 32562.98, 29395.58, 44748.73, 31770.61, 0.00, 0.13, 0.95, 0.25
83, 39063.16, 44042.90, 16695.72, 32642.93, 29542.77, 45174.26, 31829.35, 0.00, 0.00, 0.00, 0.00
84, 39083.16, 44024.98, 16694.96, 32694.43, 29726.32, 46069.49, 31865.38, 0.00, 0.00, 0.00, 0.00
85, 39088.42, 44046.43, 16656.27, 32580.10, 29496.52, 45556.61, 31785.72, 0.00, 0.00, 0.00, 0.00
86, 39068.93, 44061.16, 16674.56, 32560.12, 29384.07, 44778.45, 31762.92, 0.00, 0.00, 0.00, 0.00
87, 39057.50, 44045.81, 16698.74, 32629.97, 29502.76, 45027.99, 31812.43, 0.00, 0.00, 0.00, 0.00
88, 39071.79, 44019.59, 16705.16, 32701.16, 29709.33, 45954.87, 31857.61, 0.00, 0.00, 0.00, 0.00
89, 39079.48, 44030.77, 16662.53, 32594.92, 29540.22, 45721.27, 31788.05, 0.00, 0.00, 0.00, 0.00
90, 39071.56, 44057.23, 16674.38, 32559.92, 29374.04, 44826.15, 31747.30, 0.00, 0.00, 0.00, 0.00
91, 39056.57, 44043.66, 16694.76, 32620.67, 29463.91, 44910.80, 31787.58, 0.00, 0.14, 0.96, 0.25
92, 39068.41, 44019.21, 16708.04, 32701.96, 29681.28, 45802.70, 31846.54, 0.00, 0.00, 0.00, 0.00
93, 39088.24, 44023.84, 16670.85, 32620.49, 29597.82, 45888.98, 31804.21, 0.00, 0.00, 0.00, 0.00
94, 39078.40, 44049.92, 16670.42, 32554.38, 29386.53, 44931.21, 31749.67, 0.00, 0.00, 0.00, 0.00
95, 39063.79, 44046.55, 16693.09, 32608.94, 29445.14, 44829.08, 31789.28, 0.00, 0.00, 0.00, 0.00
96, 39074.36, 44025.83, 16709.81, 32698.63, 29653.14, 45626.39, 31852.78, 0.00, 0.00, 0.00, 0.00
97, 39092.48, 44018.81, 16677.48, 32649.88, 29651.35, 46006.68, 31828.79, 0.00, 0.00, 0.00, 0.00
98, 39080.68, 44041.79, 16659.83, 32556.01, 29395.31, 45057.32, 31753.63, 0.00, 0.00, 0.00, 0.00
99, 39074.09, 44048.36, 16689.06, 32599.62, 29418.78, 44780.63, 31784.38, 0.00, 0.00, 0.00, 0.00
100, 39074.69, 44028.18, 16705.58, 32683.66, 29604.62, 45458.44, 31844.66, 0.00, 0.00, 0.00, 0.00
102, 39096.87, 44043.84, 16660.32, 32557.55, 29418.98, 45214.85, 31760.51, 0.00, 0.00, 0.00, 0.00
103, 39088.53, 44054.93, 16685.64, 32583.59, 29403.67, 44748.88, 31779.44, 0.00, 0.00, 0.00, 0.00
104, 39086.58, 44037.25, 16703.79, 32670.36, 29560.58, 45276.83, 31835.52, 0.00, 0.00, 0.00, 0.00
105, 39102.32, 44017.18, 16696.22, 32696.67, 29703.03, 46072.93, 31857.45, 0.00, 0.00, 0.00, 0.00
106, 39102.12, 44036.78, 16660.72, 32574.02, 29455.44, 45396.93, 31768.96, 0.00, 0.00, 0.00, 0.00
107, 39085.91, 44045.70, 16681.69, 32575.23, 29387.09, 44772.35, 31764.38, 0.00, 0.00, 0.00, 0.00
108, 39071.32, 44026.18, 16696.10, 32646.76, 29512.71, 45130.11, 31817.15, 0.00, 0.00, 0.00, 0.00
109, 39087.32, 44006.63, 16700.64, 32703.28, 29704.64, 46016.54, 31857.85, 0.00, 0.00, 0.00, 0.00
110, 39091.41, 44020.04, 16661.39, 32587.32, 29503.54, 45582.67, 31780.00, 0.00, 0.00, 0.00, 0.00
111, 39077.17, 44034.12, 16676.12, 32568.19, 29378.48, 44795.75, 31757.11, 0.00, 0.13, 0.95, 0.25
112, 39068.25, 44023.39, 16702.16, 32633.57, 29486.22, 44998.84, 31810.44, 0.00, 0.00, 0.00, 0.00
113, 39078.25, 43995.94, 16709.56, 32695.88, 29694.58, 45906.46, 31858.70, 0.00, 0.00, 0.00, 0.00
114, 39093.96, 44006.87, 16674.11, 32597.27, 29553.61, 45752.52, 31797.34, 0.00, 0.00, 0.00, 0.00
115, 39083.12, 44032.64, 16683.74, 32557.01, 29380.34, 44849.64, 31755.23, 0.00, 0.00, 0.00, 0.00
116, 39068.86, 44024.89, 16702.43, 32614.77, 29458.88, 44891.00, 31797.43, 0.00, 0.00, 0.00, 0.00
117, 39076.88, 43999.90, 16713.25, 32696.09, 29672.01, 45756.05, 31852.82, 0.00, 0.00, 0.00, 0.00
118, 39088.48, 43996.57, 16674.87, 32619.40, 29604.86, 45909.79, 31811.49, 0.00, 0.00, 0.00, 0.00
119, 39076.84, 44020.44, 16666.62, 32539.85, 29375.87, 44952.82, 31745.20, 0.00, 0.00, 0.00, 0.00
120, 39070.20, 44024.89, 16689.18, 32594.27, 29421.80, 44804.59, 31777.72, 0.00, 0.00, 0.00, 0.00
121, 39074.78, 44002.85, 16705.69, 32682.74, 29624.96, 45574.49, 31835.57, 0.00, 0.13, 0.95, 0.25
122, 39089.94, 43993.68, 16677.06, 32640.65, 29641.56, 46010.48, 31812.32, 0.00, 0.00, 0.00, 0.00
123, 39077.35, 44016.55, 16654.53, 32536.23, 29378.73, 45063.53, 31728.48, 0.00, 0.00, 0.00, 0.00
124, 39069.86, 44025.11, 16684.12, 32582.16, 29395.13, 44744.52, 31759.66, 0.00, 0.00, 0.00, 0.00
125, 39071.70, 44004.17, 16703.32, 32671.72, 29581.37, 45396.26, 31825.35, 0.00, 0.00, 0.00, 0.00
126, 39096.71, 43993.35, 16687.83, 32669.80, 29676.07, 46061.76, 31829.46, 0.00, 0.00, 0.00, 0.00
127, 39089.42, 44016.33, 16658.89, 32547.34, 29410.63, 45222.14, 31747.25, 0.00, 0.00, 0.00, 0.00
128, 39069.66, 44019.21, 16678.96, 32559.23, 29375.22, 44714.80, 31752.95, 0.00, 0.00, 0.00, 0.00
129, 39071.88, 44008.62, 16703.73, 32647.85, 29537.54, 45225.16, 31811.70, 0.00, 0.00, 0.00, 0.00
130, 39088.77, 43989.86, 16697.18, 32676.44, 29694.47, 46060.60, 31841.09, 0.00, 0.13, 0.96, 0.25
131, 39089.91, 44012.68, 16661.28, 32554.51, 29452.94, 45418.30, 31760.49, 0.00, 0.00, 0.00, 0.00
132, 39079.95, 44029.31, 16685.71, 32556.39, 29371.89, 44740.41, 31752.02, 0.00, 0.00, 0.00, 0.00
133, 39068.75, 44011.32, 16703.75, 32628.88, 29499.07, 45080.63, 31803.63, 0.00, 0.00, 0.00, 0.00
134, 39083.21, 43986.53, 16703.68, 32683.12, 29692.75, 45992.89, 31845.60, 0.00, 0.00, 0.00, 0.00
135, 39086.89, 43996.86, 16657.12, 32560.77, 29491.88, 45597.91, 31767.66, 0.00, 0.00, 0.00, 0.00
136, 39078.92, 44022.45, 16676.81, 32539.71, 29363.87, 44769.13, 31742.40, 0.00, 0.00, 0.00, 0.00
137, 39063.45, 44006.40, 16694.67, 32603.77, 29467.11, 44950.34, 31788.45, 0.00, 0.00, 0.00, 0.00
138, 39077.31, 43983.71, 16704.82, 32681.51, 29678.00, 45860.97, 31845.07, 0.00, 0.00, 0.00, 0.00
139, 39086.47, 43989.89, 16662.42, 32585.89, 29547.89, 45777.33, 31783.87, 0.00, 0.00, 0.00, 0.00
140, 39075.79, 44014.41, 16667.61, 32534.62, 29368.38, 44880.18, 31730.63, 0.00, 0.13, 0.95, 0.25
141, 39057.59, 44003.63, 16683.54, 32580.71, 29427.88, 44862.05, 31773.32, 0.00, 0.00, 0.00, 0.00
142, 39063.79, 43984.39, 16698.54, 32664.97, 29629.52, 45662.31, 31836.46, 0.00, 0.00, 0.00, 0.00
143, 39090.29, 43992.72, 16676.21, 32611.98, 29601.51, 45896.51, 31808.90, 0.00, 0.00, 0.00, 0.00
144, 39083.28, 44016.80, 16670.20, 32535.04, 29383.63, 44982.19, 31744.53, 0.00, 0.00, 0.00, 0.00
145, 39066.45, 44011.03, 16683.41, 32576.79, 29409.89, 44798.26, 31772.06, 0.00, 0.00, 0.00, 0.00
146, 39075.23, 43999.05, 16702.07, 32669.82, 29601.82, 45522.95, 31838.72, 0.00, 0.00, 0.00, 0.00
147, 39096.35, 43994.22, 16679.54, 32641.57, 29644.98, 46027.31, 31831.05, 0.00, 0.00, 0.00, 0.00
148, 39089.15, 44020.64, 16657.28, 32533.83, 29386.98, 45110.49, 31749.40, 0.00, 0.00, 0.00, 0.00
149, 39075.07, 44025.36, 16679.86, 32564.79, 29385.37, 44740.43, 31764.87, 0.00, 0.00, 0.00, 0.00
150, 39075.72, 44007.81, 16696.62, 32654.22, 29561.72, 45354.28, 31824.79, 0.00, 0.14, 0.95, 0.25
151, 39101.47, 43997.51, 16684.62, 32665.67, 29676.66, 46068.80, 31832.64, 0.00, 0.00, 0.00, 0.00
152, 39097.91, 44021.58, 16654.62, 32545.88, 29416.79, 45271.31, 31750.72, 0.00, 0.00, 0.00, 0.00
153, 39083.99, 44031.01, 16676.21, 32559.63, 29371.29, 44722.48, 31756.73, 0.00, 0.00, 0.00, 0.00
154, 39076.73, 44012.77, 16694.83, 32639.60, 29523.05, 45189.70, 31814.60, 0.00, 0.00, 0.00, 0.00
155, 39100.22, 43997.20, 16695.70, 32681.74, 29694.49, 46060.13, 31851.12, 0.00, 0.00, 0.00, 0.00
156, 39100.06, 44017.47, 16658.17, 32557.48, 29450.61, 45466.89, 31767.95, 0.00, 0.00, 0.00, 0.00
157, 39084.91, 44033.89, 16672.34, 32548.59, 29351.86, 44745.24, 31752.69, 0.00, 0.00, 0.00, 0.00
158, 39077.13, 44023.05, 16691.95, 32622.21, 29478.17, 45048.06, 31804.10, 0.00, 0.00, 0.00, 0.00
159, 39098.32, 44005.80, 16702.77, 32691.44, 29687.99, 45979.23, 31857.16, 0.00, 0.00, 0.00, 0.00
160, 39109.54, 44022.45, 16660.95, 32579.21, 29501.08, 45651.63, 31791.09, 0.00, 0.14, 0.95, 0.25
161, 39090.59, 44038.16, 16667.56, 32542.96, 29346.10, 44788.49, 31757.42, 0.00, 0.00, 0.00, 0.00
162, 39075.74, 44022.07, 16687.83, 32606.19, 29441.98, 44926.47, 31796.94, 0.00, 0.00, 0.00, 0.00
163, 39094.18, 44004.48, 16705.45, 32691.93, 29665.93, 45841.26, 31855.71, 0.00, 0.00, 0.00, 0.00
164, 39110.93, 44012.53, 16670.18, 32605.94, 29556.49, 45827.27, 31807.96, 0.00, 0.00, 0.00, 0.00
165, 39093.36, 44030.83, 16667.99, 32539.51, 29354.05, 44877.92, 31749.49, 0.00, 0.00, 0.00, 0.00
166, 39085.11, 44031.17, 16695.57, 32597.74, 29420.39, 44835.16, 31784.36, 0.00, 0.00, 0.00, 0.00
167, 39093.36, 44009.42, 16714.90, 32688.51, 29631.71, 45668.14, 31847.55, 0.00, 0.00, 0.00, 0.00
168, 39113.54, 44010.11, 16681.31, 32632.63, 29612.86, 45965.82, 31818.78, 0.00, 0.00, 0.00, 0.00
169, 39103.73, 44037.02, 16669.66, 32540.85, 29378.10, 45009.71, 31748.17, 0.00, 0.00, 0.00, 0.00
170, 39085.85, 44032.44, 16691.97, 32579.05, 29404.86, 44780.09, 31776.00, 0.00, 0.13, 0.95, 0.25
171, 39086.67, 44011.12, 16709.89, 32665.69, 29595.07, 45496.68, 31833.31, 0.00, 0.00, 0.00, 0.00
172, 39105.58, 44001.42, 16684.55, 32645.01, 29650.64, 46058.72, 31824.57, 0.00, 0.00, 0.00, 0.00
173, 39100.09, 44027.41, 16662.40, 32534.17, 29390.06, 45153.70, 31740.46, 0.00, 0.00, 0.00, 0.00
174, 39085.93, 44032.93, 16689.49, 32559.65, 29375.98, 44737.30, 31753.96, 0.00, 0.00, 0.00, 0.00
175, 39081.82, 44014.41, 16711.33, 32642.51, 29537.61, 45304.48, 31810.78, 0.00, 0.00, 0.00, 0.00
176, 39113.45, 44014.99, 16700.80, 32670.72, 29681.08, 46069.36, 31838.96, 0.00, 0.00, 0.00, 0.00
177, 39113.32, 44041.14, 16664.32, 32555.18, 29431.52, 45329.92, 31762.23, 0.00, 0.00, 0.00, 0.00
178, 39095.12, 44048.20, 16682.98, 32566.69, 29375.64, 44749.84, 31762.23, 0.00, 0.00, 0.00, 0.00
179, 39086.25, 44030.77, 16705.69, 32648.50, 29507.95, 45165.54, 31816.92, 0.00, 0.13, 0.95, 0.25
180, 39106.75, 44014.00, 16709.81, 32695.08, 29685.71, 46041.22, 31854.39, 0.00, 0.00, 0.00, 0.00
181, 39104.51, 44025.58, 16673.64, 32568.97, 29464.58, 45521.09, 31767.62, 0.00, 0.00, 0.00, 0.00
182, 39090.36, 44040.69, 16690.31, 32558.02, 29355.19, 44771.41, 31752.98, 0.00, 0.00, 0.00, 0.00
183, 39086.14, 44030.57, 16722.41, 32630.84, 29480.97, 45036.04, 31810.09, 0.00, 0.00, 0.00, 0.00
184, 39102.01, 44005.15, 16743.09, 32699.44, 29684.86, 45965.76, 31859.39, 0.00, 0.00, 0.00, 0.00
185, 39114.16, 44021.45, 16723.20, 32606.79, 29511.86, 45708.18, 31788.98, 0.00, 0.00, 0.00, 0.00
186, 39105.00, 44047.55, 16742.98, 32588.80, 29353.79, 44822.73, 31751.30, 0.00, 0.00, 0.00, 0.00
187, 39092.21, 44035.64, 16779.99, 32619.38, 29439.55, 44924.61, 31797.17, 0.00, 0.00, 0.00, 0.00
188, 39111.93, 44024.82, 16808.53, 32690.39, 29658.04, 45822.95, 31856.02, 0.00, 0.00, 0.00, 0.00
189, 39129.97, 44035.42, 16789.24, 32613.41, 29571.69, 45881.54, 31810.98, 0.00, 0.14, 0.95, 0.25
190, 39114.03, 44054.75, 16802.52, 32543.31, 29359.15, 44916.34, 31754.34, 0.00, 0.00, 0.00, 0.00
191, 39096.06, 44043.82, 16838.15, 32608.36, 29414.65, 44832.08, 31790.19, 0.00, 0.00, 0.00, 0.00
192, 39100.22, 44019.84, 16870.34, 32701.74, 29621.85, 45651.67, 31857.34, 0.00, 0.00, 0.00, 0.00
193, 39116.87, 44014.41, 16857.39, 32646.53, 29616.93, 46010.17, 31836.73, 0.00, 0.00, 0.00, 0.00
194, 39104.06, 44037.88, 16857.08, 32553.62, 29362.77, 45038.27, 31759.32, 0.00, 0.00, 0.00, 0.00
195, 39087.59, 44035.26, 16889.65, 32594.18, 29387.45, 44770.43, 31783.31, 0.00, 0.00, 0.00, 0.00
196, 39086.70, 44013.40, 16926.75, 32686.83, 29577.53, 45466.87, 31846.16, 0.00, 0.00, 0.00, 0.00
197, 39110.19, 44007.54, 16927.56, 32677.09, 29658.15, 46081.02, 31850.61, 0.00, 0.00, 0.00, 0.00
198, 39096.29, 44025.09, 16912.25, 32560.43, 29386.82, 45193.01, 31757.98, 0.00, 0.00, 0.00, 0.00
199, 39074.76, 44026.09, 16946.44, 32594.16, 29367.35, 44745.06, 31769.12, 0.00, 0.14, 0.95, 0.25
200, 39071.99, 44010.32, 16985.92, 32684.87, 29529.07, 45295.09, 31828.41, 0.00, 0.00, 0.00, 0.00
201, 39095.05, 43996.48, 16995.24, 32718.21, 29665.46, 46075.19, 31845.89, 0.00, 0.00, 0.00, 0.00
202, 39097.54, 44017.54, 16983.06, 32606.37, 29424.91, 45394.58, 31762.88, 0.00, 0.00, 0.00, 0.00
203, 39081.51, 44026.36, 17017.14, 32608.49, 29351.42, 44773.31, 31758.54, 0.00, 0.00, 0.00, 0.00
204, 39073.73, 44013.64, 17051.45, 32688.73, 29486.33, 45144.64, 31817.10, 0.00, 0.00, 0.00, 0.00
205, 39092.04, 43996.05, 17069.89, 32748.28, 29673.73, 46029.46, 31853.56, 0.00, 0.00, 0.00, 0.00
206, 39095.68, 44010.27, 17038.60, 32628.88, 29465.48, 45576.66, 31774.48, 0.00, 0.00, 0.00, 0.00
207, 39074.29, 44020.33, 17063.12, 32605.85, 29346.81, 44807.56, 31749.69, 0.00, 0.00, 0.00, 0.00
208, 39062.27, 44011.43, 17097.81, 32697.05, 29452.20, 45024.48, 31799.07, 0.00, 0.00, 0.00, 0.00
209, 39076.48, 43989.64, 17116.45, 32775.39, 29657.93, 45913.03, 31845.69, 0.00, 0.13, 0.96, 0.25
210, 39087.34, 43994.96, 17096.04, 32644.50, 29523.88, 45758.13, 31783.69, 0.00, 0.00, 0.00, 0.00
211, 39070.96, 44013.40, 17116.99, 32597.38, 29355.75, 44894.62, 31742.56, 0.00, 0.00, 0.00, 0.00
212, 39053.86, 44003.90, 17132.97, 32660.99, 29420.39, 44924.99, 31781.88, 0.00, 0.00, 0.00, 0.00
213, 39064.37, 43982.49, 17152.59, 32754.33, 29631.91, 45771.99, 31840.71, 0.00, 0.00, 0.00, 0.00
214, 39080.10, 43983.98, 17125.64, 32679.28, 29570.60, 45916.81, 31799.92, 0.00, 0.00, 0.00, 0.00
215, 39071.09, 44010.83, 17122.55, 32611.33, 29351.04, 44975.84, 31741.26, 0.00, 0.00, 0.00, 0.00
216, 39060.97, 44013.51, 17154.96, 32666.31, 29397.88, 44841.49, 31777.59, 0.00, 0.00, 0.00, 0.00
217, 39063.67, 43991.96, 17178.90, 32758.25, 29604.39, 45628.65, 31838.47, 0.00, 0.00, 0.00, 0.00
218, 39078.85, 43983.61, 17159.81, 32721.14, 29616.20, 46046.47, 31818.85, 0.00, 0.13, 0.96, 0.25
219, 39060.57, 44003.61, 17150.89, 32624.92, 29353.67, 45086.69, 31741.17, 0.00, 0.00, 0.00, 0.00
220, 39044.54, 44007.14, 17179.95, 32659.85, 29370.84, 44777.34, 31766.77, 0.00, 0.00, 0.00, 0.00
221, 39049.97, 43990.27, 17211.18, 32748.05, 29561.84, 45452.96, 31826.94, 0.00, 0.00, 0.00, 0.00
222, 39073.17, 43979.65, 17203.44, 32747.36, 29656.20, 46117.10, 31840.28, 0.00, 0.00, 0.00, 0.00
223, 39063.47, 44000.10, 17181.94, 32637.75, 29387.98, 45259.73, 31757.87, 0.00, 0.00, 0.00, 0.00
224, 39051.16, 44008.88, 17213.53, 32675.99, 29363.29, 44765.27, 31768.18, 0.00, 0.00, 0.00, 0.00
225, 39049.23, 43993.35, 17244.01, 32736.43, 29528.82, 45286.64, 31822.76, 0.00, 0.00, 0.00, 0.00
226, 39069.37, 43976.03, 17245.82, 32756.95, 29683.43, 46113.28, 31846.45, 0.00, 0.00, 0.00, 0.00
227, 39066.04, 43994.73, 17219.36, 32640.36, 29430.09, 45440.29, 31762.68, 0.00, 0.00, 0.00, 0.00
228, 39049.75, 44002.89, 17246.96, 32645.35, 29347.50, 44764.80, 31749.42, 0.00, 0.13, 0.95, 0.25
229, 39042.33, 43989.93, 17261.51, 32720.11, 29484.81, 45138.61, 31806.33, 0.00, 0.00, 0.00, 0.00
230, 39064.05, 43972.65, 17265.11, 32763.77, 29681.57, 46065.42, 31849.27, 0.00, 0.00, 0.00, 0.00
231, 39070.76, 43989.91, 17229.57, 32651.67, 29466.95, 45632.74, 31768.20, 0.00, 0.00, 0.00, 0.00
232, 39058.64, 44011.39, 17243.61, 32628.92, 29330.76, 44802.93, 31742.31, 0.00, 0.00, 0.00, 0.00
233, 39052.48, 44004.62, 17267.48, 32705.09, 29443.19, 45013.37, 31794.64, 0.00, 0.00, 0.00, 0.00
234, 39066.85, 43980.77, 17273.61, 32783.13, 29653.86, 45945.66, 31847.75, 0.00, 0.00, 0.00, 0.00
235, 39082.38, 43992.66, 17236.35, 32688.71, 29525.56, 45832.54, 31797.08, 0.00, 0.00, 0.00, 0.00
236, 39068.32, 44011.50, 17242.09, 32638.44, 29335.37, 44896.92, 31746.38, 0.00, 0.00, 0.00, 0.00
237, 39060.41, 44007.54, 17270.50, 32700.91, 29413.17, 44910.31, 31787.26, 0.00, 0.00, 0.00, 0.00
238, 39071.86, 43987.29, 17283.44, 32781.83, 29628.94, 45777.09, 31848.75, 0.00, 0.13, 0.96, 0.25
239, 39087.79, 43988.34, 17249.71, 32712.71, 29582.26, 45981.20, 31809.55, 0.00, 0.00, 0.00, 0.00
240, 39076.39, 44010.96, 17248.75, 32632.12, 29352.09, 45012.86, 31739.23, 0.00, 0.00, 0.00, 0.00
241, 39060.23, 44006.31, 17270.92, 32677.87, 29396.37, 44838.13, 31772.71, 0.00, 0.00, 0.00, 0.00
242, 39066.78, 43990.76, 17287.31, 32765.22, 29598.34, 45593.29, 31834.31, 0.00, 0.00, 0.00, 0.00
243, 39085.40, 43983.96, 17266.70, 32735.27, 29627.59, 46079.48, 31813.71, 0.00, 0.00, 0.00, 0.00
244, 39076.10, 44008.01, 17251.95, 32634.75, 29374.46, 45163.29, 31735.43, 0.00, 0.00, 0.00, 0.00
245, 39062.11, 44010.09, 17273.16, 32646.82, 29376.38, 44808.88, 31754.41, 0.00, 0.00, 0.00, 0.00
246, 39052.32, 43984.57, 17283.84, 32721.77, 29540.91, 45403.03, 31813.37, 0.00, 0.00, 0.00, 0.00
247, 39072.37, 43971.00, 17268.24, 32726.60, 29643.58, 46069.13, 31823.25, 0.00, 0.00, 0.00, 0.00
248, 39077.78, 43997.20, 17250.96, 32624.22, 29408.05, 45312.01, 31742.36, 0.00, 0.14, 0.95, 0.25
249, 39064.43, 44004.97, 17269.38, 32634.51, 29374.26, 44812.86, 31750.72, 0.00, 0.00, 0.00, 0.00
250, 39053.48, 43988.41, 17275.78, 32709.07, 29507.56, 45251.42, 31803.71, 0.00, 0.00, 0.00, 0.00
251, 39077.55, 43974.75, 17271.04, 32744.25, 29679.65, 46101.41, 31832.82, 0.00, 0.00, 0.00, 0.00
252, 39079.12, 43994.11, 17232.21, 32620.63, 29440.38, 45490.11, 31750.18, 0.00, 0.00, 0.00, 0.00
253, 39065.68, 44011.25, 17247.01, 32617.36, 29343.64, 44769.67, 31737.93, 0.00, 0.00, 0.00, 0.00
254, 39058.20, 44000.17, 17261.54, 32698.21, 29477.12, 45100.52, 31797.61, 0.00, 0.00, 0.00, 0.00
255, 39072.05, 43978.02, 17257.02, 32758.18, 29682.87, 46042.51, 31845.89, 0.00, 0.00, 0.00, 0.00
0, 39075.68, 43993.44, 17211.98, 32638.44, 29477.39, 45672.30, 31769.29, 0.00, 0.00, 0.00, 0.00
1, 39064.14, 44015.99, 17228.08, 32608.62, 29330.25, 44808.83, 31740.82, 0.00, 0.00, 0.00, 0.00
2, 39058.06, 44010.34, 17247.77, 32682.25, 29443.19, 44983.51, 31793.46, 0.00, 0.14, 0.95, 0.25
3, 39068.81, 43983.52, 17251.57, 32752.05, 29665.90, 45915.49, 31841.76, 0.00, 0.00, 0.00, 0.00
4, 39073.84, 43983.11, 17206.48, 32642.71, 29531.86, 45854.04, 31780.18, 0.00, 0.00, 0.00, 0.00
5, 39070.58, 44020.82, 17218.96, 32597.45, 29337.54, 44893.93, 31739.68, 0.00, 0.00, 0.00, 0.00
6, 39067.72, 44026.32, 17244.50, 32664.10, 29420.57, 44886.75, 31787.26, 0.00, 0.00, 0.00, 0.00
7, 39081.35, 44006.52, 17257.20, 32750.06, 29643.60, 45762.69, 31844.82, 0.00, 0.00, 0.00, 0.00
8, 39097.60, 44008.93, 17224.68, 32685.20, 29600.46, 46018.84, 31809.75, 0.00, 0.00, 0.00, 0.00
9, 39088.30, 44041.96, 17218.69, 32606.72, 29351.42, 45010.89, 31742.78, 0.00, 0.00, 0.00, 0.00
10, 39074.67, 44038.39, 17246.25, 32652.05, 29395.94, 44808.12, 31770.93, 0.00, 0.00, 0.00, 0.00
11, 39074.71, 44009.24, 17255.32, 32727.20, 29596.70, 45568.77, 31821.57, 0.00, 0.14, 0.95, 0.25
12, 39089.36, 43995.05, 17215.96, 32687.68, 29635.93, 46099.44, 31803.98, 0.00, 0.00, 0.00, 0.00
13, 39074.40, 44017.49, 17193.50, 32575.07, 29357.54, 45134.00, 31717.59, 0.00, 0.00, 0.00, 0.00
14, 39054.49, 44015.59, 17216.16, 32600.00, 29363.11, 44739.12, 31740.41, 0.00, 0.00, 0.00, 0.00
15, 39043.02, 43980.41, 17228.90, 32672.53, 29543.98, 45358.86, 31792.61, 0.00, 0.00, 0.00, 0.00
16, 39049.86, 43952.87, 17208.67, 32665.96, 29662.51, 46110.29, 31798.44, 0.00, 0.00, 0.00, 0.00
17, 39029.48, 43964.85, 17176.22, 32534.57, 29384.76, 45284.10, 31712.41, 0.00, 0.00, 0.00, 0.00
18, 39015.06, 43975.34, 17200.31, 32551.72, 29342.38, 44708.58, 31727.38, 0.00, 0.00, 0.00, 0.00
19, 39019.28, 43967.13, 17222.51, 32637.23, 29503.52, 45182.84, 31791.98, 0.00, 0.00, 0.00, 0.00
20, 39041.46, 43948.33, 17219.36, 32678.45, 29682.65, 46083.35, 31827.54, 0.00, 0.00, 0.00, 0.00
21, 39043.33, 43968.96, 17171.93, 32552.77, 29431.41, 45498.41, 31738.76, 0.00, 0.13, 0.95, 0.25
22, 39029.79, 43986.51, 17187.13, 32542.31, 29326.74, 44742.36, 31729.62, 0.00, 0.00, 0.00, 0.00
23, 39024.20, 43976.23, 17203.98, 32617.23, 29462.24, 45043.48, 31787.62, 0.00, 0.00, 0.00, 0.00
24, 39039.96, 43955.93, 17203.91, 32680.89, 29680.75, 46002.10, 31840.28, 0.00, 0.00, 0.00, 0.00
25, 39051.36, 43977.12, 17159.72, 32574.98, 29491.49, 45709.11, 31774.28, 0.00, 0.00, 0.00, 0.00
26, 39044.23, 44005.87, 17176.13, 32548.79, 29338.03, 44830.29, 31745.09, 0.00, 0.00, 0.00, 0.00
27, 39028.87, 43995.99, 17195.06, 32615.84, 29436.67, 44948.93, 31790.51, 0.00, 0.00, 0.00, 0.00
28, 39034.71, 43969.37, 17192.51, 32686.70, 29646.12, 45834.66, 31844.69, 0.00, 0.00, 0.00, 0.00
29, 39050.35, 43972.21, 17159.05, 32598.54, 29551.69, 45853.17, 31795.11, 0.00, 0.00, 0.00, 0.00
30, 39044.14, 43995.81, 17163.77, 32542.66, 29369.07, 44958.05, 31739.39, 0.00, 0.00, 0.00, 0.00
31, 39028.04, 43988.19, 17174.32, 32585.02, 29420.95, 44892.25, 31772.38, 0.00, 0.13, 0.95, 0.25
32, 39022.30, 43957.48, 17183.80, 32660.90, 29615.46, 45662.18, 31832.75, 0.00, 0.00, 0.00, 0.00
33, 39044.96, 43958.48, 17156.73, 32614.72, 29611.79, 46003.51, 31814.98, 0.00, 0.00, 0.00, 0.00
34, 39036.29, 43987.00, 17144.12, 32529.70, 29354.95, 45043.59, 31742.34, 0.00, 0.00, 0.00, 0.00
35, 39021.81, 43990.87, 17163.30, 32568.93, 29385.05, 44789.72, 31770.57, 0.00, 0.00, 0.00, 0.00
36, 39024.76, 43969.50, 17175.77, 32654.40, 29591.96, 45521.18, 31834.11, 0.00, 0.00, 0.00, 0.00
37, 39050.31, 43965.30, 17155.46, 32636.59, 29661.26, 46120.07, 31832.06, 0.00, 0.00, 0.00, 0.00
38, 39038.82, 43992.57, 17129.04, 32526.03, 29378.57, 45193.95, 31752.11, 0.00, 0.00, 0.00, 0.00
39, 39020.98, 43993.37, 17148.82, 32548.25, 29369.48, 44748.88, 31764.85, 0.00, 0.00, 0.00, 0.00
40, 39024.76, 43978.44, 17165.11, 32631.98, 29554.91, 45336.78, 31823.47, 0.00, 0.00, 0.00, 0.00
41, 39049.34, 43962.64, 17153.04, 32643.02, 29694.58, 46136.39, 31835.68, 0.00, 0.15, 0.95, 0.25
42, 39048.00, 43989.66, 17120.03, 32518.55, 29415.77, 45356.89, 31743.63, 0.00, 0.00, 0.00, 0.00
43, 39032.25, 44001.33, 17140.28, 32529.68, 29352.94, 44725.93, 31741.82, 0.00, 0.00, 0.00, 0.00
44, 39025.92, 43985.68, 17159.10, 32611.80, 29507.47, 45170.55, 31801.88, 0.00, 0.00, 0.00, 0.00
45, 39040.18, 43958.19, 17150.58, 32648.23, 29699.50, 46093.41, 31832.88, 0.00, 0.00, 0.00, 0.00
46, 39039.96, 43975.51, 17109.32, 32521.72, 29456.87, 45546.42, 31751.37, 0.00, 0.00, 0.00, 0.00
47, 39017.61, 43988.52, 17122.35, 32508.60, 29338.61, 44746.89, 31727.61, 0.00, 0.00, 0.00, 0.00
48, 39010.99, 43980.14, 17146.98, 32590.74, 29474.87, 45024.55, 31784.22, 0.00, 0.00, 0.00, 0.00
49, 39032.80, 43961.23, 17153.18, 32669.51, 29702.99, 45995.60, 31845.89, 0.00, 0.00, 0.00, 0.00
50, 39042.26, 43975.38, 17106.39, 32561.91, 29523.21, 45757.46, 31781.92, 0.00, 0.14, 0.95, 0.26
51, 39024.65, 43997.04, 17109.30, 32517.43, 29344.46, 44822.13, 31738.49, 0.00, 0.00, 0.00, 0.00
52, 39019.39, 43989.64, 17128.65, 32582.79, 29443.04, 44911.43, 31783.53, 0.00, 0.00, 0.00, 0.00
53, 39038.80, 43972.34, 17140.30, 32673.04, 29674.60, 45840.66, 31849.33, 0.00, 0.00, 0.00, 0.00
54, 39055.02, 43979.56, 17105.79, 32591.73, 29577.24, 45922.42, 31805.84, 0.00, 0.00, 0.00, 0.00
55, 39041.12, 44006.14, 17102.84, 32525.50, 29345.69, 44918.87, 31740.79, 0.00, 0.00, 0.00, 0.00
56, 39024.29, 43996.75, 17125.66, 32577.20, 29411.72, 44823.07, 31772.80, 0.00, 0.00, 0.00, 0.00
57, 39032.83, 43973.68, 17139.65, 32663.83, 29636.20, 45663.90, 31838.61, 0.00, 0.00, 0.00, 0.00
58, 39058.38, 43978.20, 17114.02, 32625.21, 29638.21, 46060.80, 31821.28, 0.00, 0.00, 0.00, 0.00
59, 39041.86, 44002.22, 17097.18, 32526.62, 29366.95, 45056.51, 31739.23, 0.00, 0.00, 0.00, 0.00
60, 39026.79, 44000.93, 17123.98, 32563.88, 29393.33, 44764.35, 31765.09, 0.00, 0.14, 0.95, 0.25
61, 39030.37, 43979.25, 17141.84, 32658.09, 29599.32, 45473.50, 31830.87, 0.00, 0.00, 0.00, 0.00
62, 39049.05, 43963.04, 17120.74, 32649.50, 29685.11, 46121.73, 31836.04, 0.00, 0.00, 0.00, 0.00
63, 39037.75, 43983.76, 17094.93, 32530.21, 29394.93, 45216.59, 31749.04, 0.00, 0.00, 0.00, 0.00
64, 39017.76, 43986.20, 17116.54, 32552.92, 29372.29, 44734.67, 31753.83, 0.00, 0.00, 0.00, 0.00
65, 39017.67, 43969.03, 17146.65, 32636.18, 29555.58, 45287.56, 31817.30, 0.00, 0.00, 0.00, 0.00
66, 39039.69, 43952.69, 17133.37, 32660.08, 29709.65, 46118.60, 31841.20, 0.00, 0.00, 0.00, 0.00
67, 39031.49, 43969.97, 17094.28, 32534.73, 29434.92, 45392.10, 31756.71, 0.00, 0.00, 0.00, 0.00
68, 39014.19, 43977.88, 17117.57, 32535.49, 29362.55, 44724.81, 31752.57, 0.00, 0.00, 0.00, 0.00
69, 39009.54, 43961.43, 17136.03, 32610.52, 29509.08, 45112.32, 31806.04, 0.00, 0.00, 0.00, 0.00
70, 39028.13, 43941.20, 17133.62, 32662.63, 29709.76, 46033.26, 31841.98, 0.00, 0.14, 0.94, 0.25
71, 39033.25, 43960.02, 17091.64, 32543.85, 29489.84, 45583.16, 31763.64, 0.00, 0.00, 0.00, 0.00
72, 39024.22, 43985.21, 17104.40, 32526.73, 29361.21, 44783.62, 31739.95, 0.00, 0.00, 0.00, 0.00
73, 39017.61, 43977.41, 17116.09, 32601.83, 29470.24, 45000.09, 31790.66, 0.00, 0.00, 0.00, 0.00
74, 39032.76, 43953.16, 17124.77, 32674.05, 29697.04, 45944.30, 31846.34, 0.00, 0.00, 0.00, 0.00
75, 39043.54, 43962.28, 17080.89, 32564.88, 29539.86, 45779.57, 31782.77, 0.00, 0.00, 0.00, 0.00
76, 39024.20, 43980.72, 17081.94, 32509.85, 29343.57, 44835.52, 31737.64, 0.00, 0.00, 0.00, 0.00
77, 39015.80, 43974.64, 17105.32, 32577.13, 29436.40, 44889.34, 31784.60, 0.00, 0.00, 0.00, 0.00
78, 39032.58, 43956.18, 17120.70, 32670.92, 29667.31, 45800.91, 31848.84, 0.00, 0.00, 0.00, 0.00
79, 39042.53, 43950.75, 17077.45, 32586.58, 29585.46, 45946.56, 31800.79, 0.00, 0.00, 0.00, 0.00
80, 39032.49, 43978.98, 17074.56, 32517.34, 29346.86, 44942.92, 31737.71, 0.00, 0.13, 0.94, 0.25
81, 39025.50, 43979.31, 17105.92, 32573.40, 29406.89, 44809.66, 31776.94, 0.00, 0.00, 0.00, 0.00
82, 39025.70, 43950.37, 17125.48, 32654.69, 29624.22, 45611.19, 31837.35, 0.00, 0.00, 0.00, 0.00
83, 39038.50, 43938.12, 17094.05, 32610.37, 29641.12, 46058.59, 31820.23, 0.00, 0.00, 0.00, 0.00
84, 39027.62, 43963.45, 17074.59, 32508.02, 29363.29, 45071.46, 31736.99, 0.00, 0.00, 0.00, 0.00
85, 39017.74, 43970.37, 17102.06, 32549.08, 29381.12, 44738.76, 31762.41, 0.00, 0.00, 0.00, 0.00
86, 39016.67, 43949.32, 17118.24, 32635.49, 29579.72, 45416.44, 31828.57, 0.00, 0.00, 0.00, 0.00
87, 39040.09, 43935.91, 17096.25, 32630.62, 29678.62, 46116.18, 31828.50, 0.00, 0.00, 0.00, 0.00
88, 39034.32, 43962.77, 17064.08, 32508.87, 29388.92, 45241.63, 31740.15, 0.00, 0.00, 0.00, 0.00
89, 39020.64, 43975.40, 17091.13, 32531.46, 29358.84, 44717.64, 31750.32, 0.00, 0.00, 0.00, 0.00
90, 39016.71, 43958.44, 17113.93, 32618.30, 29535.39, 45246.93, 31816.92, 0.00, 0.13, 0.94, 0.25
91, 39035.51, 43936.71, 17102.77, 32647.61, 29701.00, 46104.56, 31840.55, 0.00, 0.00, 0.00, 0.00
92, 39034.95, 43958.30, 17065.36, 32522.21, 29430.74, 45419.05, 31746.92, 0.00, 0.00, 0.00, 0.00
93, 39015.48, 43966.42, 17087.26, 32513.88, 29344.33, 44711.96, 31734.76, 0.00, 0.00, 0.00, 0.00
94, 39008.46, 43952.49, 17108.31, 32590.21, 29488.61, 45071.20, 31793.75, 0.00, 0.00, 0.00, 0.00
95, 39032.09, 43935.95, 17108.31, 32651.52, 29702.92, 46024.43, 31838.23, 0.00, 0.00, 0.00, 0.00
96, 39035.29, 43948.51, 17058.54, 32528.47, 29477.64, 45621.00, 31752.60, 0.00, 0.00, 0.00, 0.00
97, 39024.18, 43976.79, 17074.14, 32507.97, 29327.28, 44757.31, 31719.87, 0.00, 0.00, 0.00, 0.00
98, 39020.85, 43975.22, 17099.75, 32585.58, 29448.31, 44944.24, 31780.22, 0.00, 0.00, 0.00, 0.00
99, 39036.18, 43952.87, 17107.31, 32665.71, 29679.52, 45896.91, 31841.11, 0.00, 0.13, 0.95, 0.26
100, 39045.01, 43959.20, 17060.48, 32566.74, 29536.46, 45809.25, 31782.06, 0.00, 0.00, 0.00, 0.00
101, 39032.58, 43985.19, 17064.33, 32518.57, 29332.48, 44839.81, 31730.78, 0.00, 0.00, 0.00, 0.00
102, 39021.47, 43980.70, 17084.62, 32583.95, 29418.87, 44851.37, 31776.33, 0.00, 0.00, 0.00, 0.00
103, 39032.61, 43959.80, 17101.97, 32668.28, 29651.96, 45749.88, 31836.24, 0.00, 0.00, 0.00, 0.00
104, 39044.65, 43956.67, 17057.80, 32592.93, 29589.30, 45967.86, 31795.98, 0.00, 0.00, 0.00, 0.00
105, 39033.27, 43986.09, 17045.64, 32512.31, 29325.51, 44943.59, 31724.79, 0.00, 0.00, 0.00, 0.00
106, 39027.08, 43993.26, 17080.26, 32573.29, 29388.27, 44773.36, 31768.38, 0.00, 0.00, 0.00, 0.00
107, 39030.84, 43968.25, 17096.98, 32663.61, 29606.63, 45562.93, 31830.87, 0.00, 0.00, 0.00, 0.00
108, 39052.16, 43959.04, 17068.10, 32624.31, 29641.77, 46075.28, 31818.53, 0.00, 0.00, 0.00, 0.00
109, 39045.28, 43991.88, 17049.91, 32523.75, 29359.64, 45099.20, 31743.83, 0.00, 0.13, 0.95, 0.25
110, 39027.62, 43993.91, 17076.40, 32559.36, 29369.14, 44724.52, 31764.29, 0.00, 0.00, 0.00, 0.00
111, 39024.00, 43969.19, 17091.24, 32643.36, 29561.75, 45378.20, 31822.07, 0.00, 0.00, 0.00, 0.00
112, 39050.82, 43960.56, 17077.22, 32651.61, 29680.57, 46121.68, 31837.89, 0.00, 0.00, 0.00, 0.00
113, 39045.86, 43986.13, 17045.17, 32526.99, 29391.36, 45272.50, 31753.09, 0.00, 0.00, 0.00, 0.00
114, 39024.31, 43990.22, 17068.93, 32543.94, 29349.87, 44711.76, 31755.75, 0.00, 0.00, 0.00, 0.00
115, 39016.18, 43967.80, 17084.98, 32624.72, 29517.40, 45214.58, 31810.31, 0.00, 0.00, 0.00, 0.00
116, 39040.67, 43949.47, 17080.64, 32662.47, 29693.31, 46113.41, 31841.27, 0.00, 0.00, 0.00, 0.00
117, 39041.57, 43971.87, 17042.71, 32536.07, 29431.14, 45474.09, 31754.09, 0.00, 0.00, 0.00, 0.00
118, 39022.81, 43985.77, 17058.36, 32530.82, 29327.97, 44732.19, 31737.26, 0.00, 0.00, 0.00, 0.00
119, 39017.70, 43975.49, 17080.46, 32612.92, 29466.66, 45063.55, 31795.80, 0.00, 0.13, 0.95, 0.25
120, 39043.11, 43959.46, 17092.56, 32682.63, 29688.57, 46014.89, 31850.03, 0.00, 0.00, 0.00, 0.00
121, 39050.42, 43977.23, 17043.74, 32568.14, 29485.95, 45671.59, 31778.23, 0.00, 0.00, 0.00, 0.00
122, 39032.83, 43996.14, 17051.36, 32532.07, 29325.51, 44787.60, 31740.46, 0.00, 0.00, 0.00, 0.00
123, 39023.26, 43987.41, 17073.69, 32600.42, 29432.02, 44937.11, 31787.78, 0.00, 0.00, 0.00, 0.00
124, 39036.98, 43963.49, 17079.50, 32678.83, 29658.93, 45866.58, 31844.44, 0.00, 0.00, 0.00, 0.00
125, 39043.96, 43963.38, 17030.71, 32574.67, 29540.15, 45849.59, 31782.99, 0.00, 0.00, 0.00, 0.00
126, 39042.33, 44000.64, 17038.55, 32521.94, 29335.05, 44883.04, 31731.56, 0.00, 0.00, 0.00, 0.00
127, 39031.11, 43998.09, 17058.09, 32583.32, 29407.45, 44851.07, 31777.03, 0.00, 0.00, 0.00, 0.00
128, 39035.09, 43973.17, 17067.81, 32671.01, 29629.43, 45710.41, 31849.04, 0.00, 0.00, 0.00, 0.00
129, 39048.83, 43967.87, 17030.93, 32606.59, 29601.04, 45999.40, 31816.23, 0.00, 0.12, 0.96, 0.25
130, 39043.60, 44000.93, 17022.78, 32520.63, 29345.78, 45009.19, 31747.59, 0.00, 0.00, 0.00, 0.00
131, 39030.35, 44002.58, 17044.10, 32570.40, 29383.98, 44789.63, 31778.12, 0.00, 0.00, 0.00, 0.00
132, 39027.20, 43973.32, 17055.48, 32653.53, 29582.96, 45517.96, 31834.83, 0.00, 0.00, 0.00, 0.00
133, 39045.46, 43961.57, 17030.24, 32623.85, 29638.95, 46071.77, 31824.14, 0.00, 0.00, 0.00, 0.00
134, 39043.09, 43995.52, 17012.81, 32522.30, 29374.37, 45163.91, 31748.33, 0.00, 0.00, 0.00, 0.00
135, 39035.67, 44007.03, 17040.77, 32561.19, 29371.96, 44758.23, 31770.79, 0.00, 0.00, 0.00, 0.00
136, 39026.43, 43979.29, 17056.35, 32636.79, 29540.56, 45332.53, 31822.85, 0.00, 0.00, 0.00, 0.00
137, 39043.36, 43959.38, 17041.08, 32644.32, 29672.12, 46100.20, 31841.82, 0.00, 0.00, 0.00, 0.00
138, 39044.05, 43984.92, 17006.19, 32523.73, 29403.88, 45329.65, 31755.99, 0.00, 0.00, 0.00, 0.00
139, 39029.41, 43996.12, 17028.07, 32537.88, 29348.20, 44736.21, 31755.46, 0.00, 0.13, 0.95, 0.24
140, 39024.89, 43980.77, 17046.42, 32618.41, 29503.41, 45181.88, 31818.02, 0.00, 0.00, 0.00, 0.00
141, 39044.83, 43956.96, 17043.38, 32656.75, 29687.79, 46085.70, 31851.19, 0.00, 0.00, 0.00, 0.00
142, 39044.05, 43974.13, 16996.85, 32526.66, 29439.91, 45516.00, 31762.32, 0.00, 0.00, 0.00, 0.00
143, 39032.11, 43997.62, 17013.81, 32520.31, 29331.32, 44741.89, 31748.28, 0.00, 0.00, 0.00, 0.00
144, 39024.56, 43986.36, 17034.24, 32598.70, 29467.42, 45028.55, 31804.27, 0.00, 0.00, 0.00, 0.00
145, 39044.23, 43964.61, 17038.51, 32669.06, 29690.00, 45985.32, 31855.88, 0.00, 0.00, 0.00, 0.00
146, 39052.63, 43976.23, 16992.67, 32552.50, 29501.33, 45712.91, 31785.99, 0.00, 0.00, 0.00, 0.00
147, 39035.49, 43994.87, 16996.47, 32510.52, 29332.73, 44807.13, 31747.23, 0.00, 0.00, 0.00, 0.00
148, 39017.38, 43979.38, 17010.08, 32571.10, 29430.85, 44905.52, 31788.94, 0.00, 0.13, 0.95, 0.25
149, 39038.17, 43965.68, 17021.88, 32661.33, 29665.14, 45837.97, 31852.58, 0.00, 0.00, 0.00, 0.00
150, 39057.13, 43975.25, 16980.31, 32577.78, 29561.66, 45883.23, 31803.63, 0.00, 0.00, 0.00, 0.00
151, 39039.49, 43995.81, 16973.65, 32509.18, 29338.59, 44894.10, 31747.72, 0.00, 0.00, 0.00, 0.00
152, 39022.70, 43985.91, 16990.52, 32559.56, 29403.67, 44819.89, 31783.62, 0.00, 0.00, 0.00, 0.00
153, 39036.05, 43968.83, 17008.85, 32658.00, 29631.95, 45672.95, 31849.09, 0.00, 0.00, 0.00, 0.00
154, 39054.49, 43966.06, 16971.97, 32603.21, 29614.59, 46023.80, 31821.42, 0.00, 0.00, 0.00, 0.00
155, 39043.69, 43990.98, 16954.20, 32509.85, 29344.02, 45015.88, 31746.63, 0.00, 0.00, 0.00, 0.00
156, 39026.97, 43989.10, 16976.93, 32554.71, 29375.02, 44754.02, 31772.98, 0.00, 0.00, 0.00, 0.00
157, 39029.25, 43969.03, 16993.16, 32641.64, 29583.36, 45487.56, 31836.33, 0.00, 0.00, 0.00, 0.00
158, 39050.02, 43957.88, 16968.42, 32620.60, 29657.90, 46103.45, 31833.89, 0.00, 0.14, 0.95, 0.25
159, 39037.70, 43979.27, 16938.64, 32501.22, 29371.40, 45174.80, 31743.30, 0.00, 0.00, 0.00, 0.00
160, 39024.78, 43986.84, 16964.08, 32529.10, 29360.65, 44718.91, 31759.12, 0.00, 0.00, 0.00, 0.00
161, 39025.14, 43970.26, 16982.12, 32617.23, 29540.47, 45305.06, 31824.05, 0.00, 0.00, 0.00, 0.00
162, 39044.09, 43948.85, 16966.40, 32630.30, 29680.01, 46112.27, 31839.50, 0.00, 0.00, 0.00, 0.00
163, 39043.38, 43971.60, 16932.00, 32505.72, 29408.19, 45357.93, 31749.13, 0.00, 0.00, 0.00, 0.00
164, 39032.25, 43985.84, 16953.89, 32514.39, 29341.74, 44715.29, 31742.07, 0.00, 0.00, 0.00, 0.00
165, 39024.98, 43970.53, 16971.86, 32597.69, 29489.91, 45133.02, 31797.52, 0.00, 0.00, 0.00, 0.00
166, 39043.33, 43950.08, 16964.04, 32650.22, 29681.46, 46061.27, 31837.44, 0.00, 0.00, 0.00, 0.00
167, 39047.94, 43970.57, 16915.17, 32522.81, 29443.42, 45547.78, 31754.90, 0.00, 0.00, 0.00, 0.00
168, 39033.83, 43990.76, 16932.21, 32506.99, 29327.23, 44745.91, 31732.57, 0.00, 0.14, 0.95, 0.26
169, 39024.98, 43979.45, 16949.53, 32582.83, 29455.08, 44994.91, 31788.38, 0.00, 0.00, 0.00, 0.00
170, 39043.36, 43958.86, 16953.22, 32658.67, 29679.76, 45951.68, 31845.94, 0.00, 0.00, 0.00, 0.00
171, 39050.91, 43969.81, 16905.03, 32551.65, 29509.04, 45750.38, 31780.36, 0.00, 0.00, 0.00, 0.00
172, 39035.60, 43993.80, 16912.65, 32512.51, 29333.40, 44831.68, 31738.31, 0.00, 0.00, 0.00, 0.00
173, 39024.47, 43985.46, 16934.08, 32572.39, 29421.11, 44894.01, 31780.16, 0.00, 0.00, 0.00, 0.00
174, 39040.98, 43966.42, 16949.13, 32657.19, 29647.73, 45795.41, 31838.45, 0.00, 0.00, 0.00, 0.00
175, 39054.62, 43966.95, 16907.62, 32573.91, 29568.32, 45916.81, 31794.80, 0.00, 0.00, 0.00, 0.00
176, 39042.04, 43993.15, 16904.22, 32506.50, 29345.89, 44937.09, 31734.63, 0.00, 0.00, 0.00, 0.00
177, 39024.11, 43988.34, 16925.05, 32559.07, 29403.94, 44814.98, 31770.86, 0.00, 0.00, 0.00, 0.00
178, 39033.39, 43971.96, 16942.02, 32655.88, 29621.22, 45628.61, 31837.73, 0.00, 0.14, 0.95, 0.25
179, 39053.19, 43968.34, 16910.37, 32610.28, 29630.37, 46046.80, 31824.77, 0.00, 0.00, 0.00, 0.00
180, 39043.49, 43995.52, 16892.35, 32507.97, 29365.21, 45070.37, 31747.37, 0.00, 0.00, 0.00, 0.00
181, 39029.36, 43997.57, 16915.64, 32546.22, 29381.57, 44757.06, 31766.99, 0.00, 0.00, 0.00, 0.00
182, 39028.04, 43978.11, 16932.79, 32635.94, 29575.78, 45439.42, 31833.87, 0.00, 0.00, 0.00, 0.00
183, 39051.16, 43967.02, 16911.08, 32628.58, 29667.89, 46104.94, 31840.24, 0.00, 0.00, 0.00, 0.00
184, 39046.89, 43994.76, 16882.34, 32512.80, 29391.76, 45234.36, 31754.43, 0.00, 0.00, 0.00, 0.00
185, 39030.19, 44001.17, 16901.90, 32535.73, 29363.26, 44747.16, 31763.68, 0.00, 0.00, 0.00, 0.00
186, 39027.66, 43986.29, 16921.77, 32621.01, 29527.90, 45269.84, 31821.08, 0.00, 0.00, 0.00, 0.00
187, 39046.86, 43968.74, 16912.83, 32648.16, 29687.34, 46108.38, 31846.74, 0.00, 0.14, 0.95, 0.25
188, 39042.26, 43987.61, 16872.50, 32520.89, 29425.76, 45423.13, 31763.53, 0.00, 0.00, 0.00, 0.00
189, 39028.07, 44002.25, 16893.40, 32522.26, 29347.33, 44753.38, 31758.59, 0.00, 0.00, 0.00, 0.00
190, 39018.12, 43989.64, 16913.63, 32602.77, 29485.93, 45121.46, 31811.76, 0.00, 0.00, 0.00, 0.00
191, 39033.39, 43964.11, 16911.51, 32653.84, 29688.57, 46061.76, 31854.21, 0.00, 0.00, 0.00, 0.00
192, 39043.63, 43982.02, 16865.26, 32533.66, 29474.93, 45628.34, 31777.36, 0.00, 0.00, 0.00, 0.00
193, 39029.39, 44000.28, 16873.40, 32508.22, 29340.37, 44797.81, 31748.89, 0.00, 0.00, 0.00, 0.00
194, 39015.44, 43987.25, 16892.76, 32579.97, 29455.60, 45005.55, 31804.45, 0.00, 0.00, 0.00, 0.00
195, 39030.41, 43964.74, 16903.08, 32662.42, 29686.54, 45963.52, 31865.58, 0.00, 0.00, 0.00, 0.00
196, 39035.42, 43967.76, 16854.18, 32552.05, 29532.42, 45814.88, 31802.15, 0.00, 0.00, 0.00, 0.00
197, 39018.05, 43989.19, 16856.50, 32500.17, 29336.08, 44852.42, 31753.22, 0.00, 0.14, 0.96, 0.26
198, 39005.49, 43983.89, 16874.61, 32562.62, 29419.32, 44889.92, 31793.95, 0.00, 0.00, 0.00, 0.00
199, 39017.90, 43963.71, 16889.89, 32650.24, 29651.49, 45794.23, 31856.09, 0.00, 0.00, 0.00, 0.00
200, 39033.34, 43966.57, 16850.11, 32580.88, 29589.46, 45968.98, 31818.33, 0.00, 0.00, 0.00, 0.00
201, 39024.56, 43997.26, 16847.98, 32505.98, 29352.00, 44966.95, 31757.89, 0.00, 0.00, 0.00, 0.00
202, 39010.14, 43992.28, 16869.87, 32549.15, 29399.81, 44813.17, 31785.83, 0.00, 0.00, 0.00, 0.00
203, 39017.63, 43973.14, 16887.84, 32641.91, 29617.20, 45617.09, 31850.97, 0.00, 0.00, 0.00, 0.00
204, 39035.55, 43964.11, 16858.00, 32604.47, 29646.91, 46095.02, 31836.88, 0.00, 0.00, 0.00, 0.00
205, 39023.64, 43990.22, 16840.34, 32505.34, 29371.00, 45125.67, 31757.67, 0.00, 0.00, 0.00, 0.00
206, 39008.22, 43994.29, 16862.63, 32544.18, 29374.91, 44775.80, 31778.95, 0.00, 0.00, 0.00, 0.00
207, 39008.73, 43975.29, 16883.43, 32633.81, 29566.06, 45429.85, 31839.70, 0.00, 0.14, 0.96, 0.26
208, 39029.03, 43958.26, 16864.23, 32632.00, 29674.55, 46144.57, 31848.24, 0.00, 0.00, 0.00, 0.00
209, 39020.64, 43981.55, 16829.95, 32511.17, 29388.92, 45281.93, 31755.26, 0.00, 0.00, 0.00, 0.00
210, 39004.35, 43989.10, 16852.92, 32528.38, 29353.23, 44741.57, 31759.15, 0.00, 0.00, 0.00, 0.00
211, 39002.65, 43975.20, 16877.24, 32607.46, 29522.59, 45251.48, 31822.54, 0.00, 0.00, 0.00, 0.00
212, 39024.51, 43958.35, 16875.14, 32640.74, 29693.02, 46115.58, 31849.54, 0.00, 0.00, 0.00, 0.00
213, 39021.81, 43975.80, 16831.85, 32513.36, 29430.96, 45470.29, 31758.27, 0.00, 0.00, 0.00, 0.00
214, 39012.80, 43993.21, 16851.38, 32514.32, 29350.57, 44780.45, 31747.10, 0.00, 0.00, 0.00, 0.00
215, 39005.13, 43980.79, 16866.96, 32588.48, 29475.78, 45090.38, 31800.61, 0.00, 0.00, 0.00, 0.00
216, 39023.51, 43963.49, 16870.96, 32650.15, 29671.56, 45983.97, 31846.54, 0.00, 0.00, 0.00, 0.00
217, 39030.30, 43977.23, 16829.16, 32539.80, 29486.93, 45647.13, 31773.99, 0.00, 0.13, 0.95, 0.25
218, 39021.07, 43996.79, 16840.50, 32511.57, 29355.08, 44846.20, 31744.26, 0.00, 0.00, 0.00, 0.00
219, 39005.87, 43988.72, 16852.01, 32572.37, 29441.54, 44979.71, 31789.57, 0.00, 0.00, 0.00, 0.00
220, 39018.25, 43968.29, 16861.80, 32657.69, 29667.54, 45900.71, 31847.46, 0.00, 0.00, 0.00, 0.00
221, 39034.48, 43976.41, 16823.17, 32565.33, 29542.66, 45848.81, 31796.50, 0.00, 0.00, 0.00, 0.00
222, 39017.27, 43998.76, 16824.45, 32511.04, 29338.41, 44888.54, 31750.03, 0.00, 0.00, 0.00, 0.00
223, 39004.31, 43991.43, 16848.86, 32570.45, 29418.00, 44884.20, 31793.66, 0.00, 0.00, 0.00, 0.00
224, 39011.37, 43966.42, 16860.52, 32655.70, 29644.83, 45769.35, 31855.59, 0.00, 0.00, 0.00, 0.00
225, 39026.37, 43964.89, 16822.62, 32586.34, 29595.92, 46010.68, 31820.52, 0.00, 0.00, 0.00, 0.00
226, 39015.82, 43993.89, 16810.52, 32500.64, 29344.69, 45006.18, 31752.71, 0.00, 0.00, 0.00, 0.00
227, 39004.71, 43995.59, 16837.46, 32547.09, 29389.19, 44813.70, 31782.91, 0.00, 0.13, 0.95, 0.26
228, 39013.02, 43977.05, 16859.92, 32639.85, 29602.85, 45586.36, 31848.73, 0.00, 0.00, 0.00, 0.00
229, 39036.89, 43972.32, 16835.29, 32613.43, 29647.76, 46117.32, 31841.65, 0.00, 0.00, 0.00, 0.00
230, 39030.35, 44003.50, 16815.98, 32514.10, 29366.17, 45160.89, 31756.26, 0.00, 0.00, 0.00, 0.00
231, 39015.46, 44008.28, 16840.63, 32552.32, 29367.69, 44776.20, 31771.39, 0.00, 0.00, 0.00, 0.00
232, 39024.02, 43998.38, 16862.29, 32654.47, 29561.72, 45423.23, 31834.67, 0.00, 0.00, 0.00, 0.00
233, 39054.64, 43993.24, 16854.24, 32664.35, 29685.13, 46178.19, 31853.40, 0.00, 0.00, 0.00, 0.00
234, 39047.67, 44017.04, 16818.03, 32531.94, 29397.59, 45348.22, 31760.17, 0.00, 0.00, 0.00, 0.00
235, 39020.85, 44017.11, 16829.97, 32533.81, 29339.19, 44757.36, 31742.74, 0.00, 0.00, 0.00, 0.00
236, 39012.71, 43995.36, 16843.92, 32611.64, 29499.25, 45228.15, 31789.32, 0.00, 0.13, 0.95, 0.26
237, 39033.25, 43974.73, 16839.45, 32654.62, 29682.20, 46125.24, 31830.74, 0.00, 0.00, 0.00, 0.00
238, 39030.30, 43990.13, 16793.89, 32525.14, 29433.40, 45519.13, 31750.45, 0.00, 0.00, 0.00, 0.00
239, 39009.70, 43998.34, 16811.37, 32510.43, 29331.95, 44759.34, 31735.81, 0.00, 0.00, 0.00, 0.00
240, 38994.98, 43977.61, 16825.25, 32581.33, 29461.48, 45060.69, 31789.95, 0.00, 0.00, 0.00, 0.00
241, 39007.13, 43948.07, 16828.27, 32645.53, 29677.82, 46013.07, 31844.46, 0.00, 0.00, 0.00, 0.00
242, 39014.43, 43962.48, 16783.70, 32534.46, 29488.52, 45709.56, 31778.46, 0.00, 0.00, 0.00, 0.00
243, 38998.50, 43984.66, 16794.61, 32501.69, 29327.66, 44823.56, 31746.70, 0.00, 0.00, 0.00, 0.00
244, 38987.90, 43975.67, 16818.14, 32568.48, 29432.08, 44958.43, 31797.10, 0.00, 0.00, 0.00, 0.00
245, 39005.43, 43956.56, 16835.42, 32656.37, 29668.07, 45888.80, 31859.57, 0.00, 0.00, 0.00, 0.00
246, 39019.19, 43964.54, 16794.85, 32566.92, 29556.40, 45892.18, 31805.21, 0.00, 0.13, 0.95, 0.25
247, 39004.66, 43988.25, 16795.46, 32497.18, 29340.49, 44914.36, 31746.65, 0.00, 0.00, 0.00, 0.00
248, 38993.38, 43981.88, 16819.82, 32553.59, 29410.16, 44866.83, 31790.53, 0.00, 0.00, 0.00, 0.00
249, 39002.81, 43959.60, 16836.81, 32640.79, 29626.43, 45709.18, 31848.62, 0.00, 0.00, 0.00, 0.00
250, 39019.75, 43957.57, 16802.45, 32584.66, 29606.65, 46026.29, 31819.92, 0.00, 0.00, 0.00, 0.00
251, 39012.71, 43988.88, 16792.98, 32501.67, 29360.98, 45059.64, 31755.10, 0.00, 0.00, 0.00, 0.00
252, 39003.70, 43994.38, 16818.86, 32548.86, 29394.26, 44825.48, 31787.17, 0.00, 0.00, 0.00, 0.00
253, 39005.60, 43973.75, 16835.06, 32635.36, 29586.96, 45529.77, 31846.70, 0.00, 0.00, 0.00, 0.00
254, 39021.61, 43961.14, 16811.28, 32617.12, 29649.23, 46104.41, 31843.14, 0.00, 0.00, 0.00, 0.00
255, 39014.84, 43986.80, 16789.38, 32504.76, 29379.82, 45213.20, 31761.29, 0.00, 0.00, 0.00, 0.00
0, 38996.62, 43990.04, 16812.18, 32527.11, 29364.89, 44781.76, 31772.87, 0.00, 0.13, 0.95, 0.26
1, 38987.05, 43965.86, 16827.94, 32612.22, 29545.99, 45366.30, 31839.37, 0.00, 0.00, 0.00, 0.00
2, 39007.77, 43947.48, 16812.31, 32627.58, 29679.18, 46147.99, 31856.89, 0.00, 0.00, 0.00, 0.00
3, 39004.13, 43971.76, 16775.86, 32506.90, 29403.83, 45380.86, 31766.21, 0.00, 0.00, 0.00, 0.00
4, 38988.50, 43984.10, 16796.35, 32511.39, 29342.61, 44767.17, 31762.48, 0.00, 0.00, 0.00, 0.00
5, 38989.29, 43976.07, 16822.08, 32595.06, 29501.80, 45203.07, 31825.17, 0.00, 0.00, 0.00, 0.00
6, 39011.82, 43959.29, 16823.44, 32643.96, 29693.02, 46109.28, 31864.60, 0.00, 0.00, 0.00, 0.00
7, 39014.52, 43977.26, 16779.45, 32520.71, 29456.65, 45579.30, 31783.98, 0.00, 0.00, 0.00, 0.00
8, 39001.31, 43996.41, 16794.56, 32506.72, 29343.88, 44803.76, 31762.90, 0.00, 0.00, 0.00, 0.00
9, 38991.12, 43983.94, 16814.70, 32582.38, 29469.12, 45073.81, 31815.74, 0.00, 0.00, 0.00, 0.00
10, 39005.20, 43957.23, 16820.92, 32650.91, 29684.77, 46013.43, 31864.51, 0.00, 0.14, 0.95, 0.26
11, 39017.41, 43972.16, 16781.85, 32544.50, 29511.97, 45766.63, 31797.32, 0.00, 0.00, 0.00, 0.00
12, 39002.09, 43992.68, 16791.32, 32503.91, 29338.63, 44860.08, 31756.08, 0.00, 0.00, 0.00, 0.00
13, 38988.23, 43981.77, 16811.69, 32565.66, 29429.83, 44953.11, 31797.14, 0.00, 0.00, 0.00, 0.00
14, 39012.98, 43975.04, 16834.30, 32664.86, 29663.04, 45876.04, 31862.88, 0.00, 0.00, 0.00, 0.00
15, 39030.12, 43982.29, 16794.23, 32584.93, 29570.55, 45943.52, 31813.33, 0.00, 0.00, 0.00, 0.00
16, 39017.00, 44005.51, 16789.94, 32510.50, 29349.81, 44961.52, 31756.24, 0.00, 0.00, 0.00, 0.00
17, 39003.46, 44002.56, 16812.33, 32561.93, 29413.35, 44868.76, 31788.11, 0.00, 0.00, 0.00, 0.00
18, 39012.87, 43982.18, 16829.54, 32649.93, 29632.11, 45687.01, 31845.47, 0.00, 0.00, 0.00, 0.00
19, 39031.40, 43977.30, 16800.40, 32599.19, 29630.28, 46059.14, 31821.75, 0.00, 0.00, 0.00, 0.00
20, 39014.14, 43996.88, 16781.73, 32500.02, 29367.35, 45076.05, 31745.04, 0.00, 0.14, 0.95, 0.26
21, 39001.27, 44001.00, 16807.37, 32547.63, 29393.28, 44789.30, 31773.65, 0.00, 0.00, 0.00, 0.00
22, 39006.21, 43982.38, 16827.98, 32643.27, 29594.51, 45503.19, 31842.32, 0.00, 0.00, 0.00, 0.00
23, 39028.09, 43968.07, 16809.52, 32627.38, 29673.97, 46129.95, 31840.48, 0.00, 0.00, 0.00, 0.00
24, 39021.36, 43994.38, 16787.30, 32518.10, 29398.71, 45236.15, 31758.56, 0.00, 0.00, 0.00, 0.00
25, 39004.33, 43997.42, 16810.61, 32542.93, 29379.67, 44768.84, 31772.98, 0.00, 0.00, 0.00, 0.00
26, 39007.79, 43982.96, 16834.39, 32633.79, 29555.87, 45336.24, 31835.32, 0.00, 0.00, 0.00, 0.00
27, 39018.88, 43951.75, 16819.35, 32644.52, 29699.50, 46146.80, 31845.65, 0.00, 0.00, 0.00, 0.00
28, 39020.18, 43978.64, 16784.68, 32523.71, 29438.16, 45424.42, 31762.03, 0.00, 0.00, 0.00, 0.00
29, 39010.68, 43995.90, 16811.82, 32532.87, 29372.31, 44776.64, 31765.90, 0.00, 0.14, 0.95, 0.26
30, 39001.45, 43979.27, 16831.96, 32614.52, 29512.77, 45169.14, 31820.08, 0.00, 0.00, 0.00, 0.00
31, 39019.77, 43957.32, 16834.80, 32664.37, 29707.14, 46081.99, 31857.74, 0.00, 0.00, 0.00, 0.00
32, 39029.41, 43978.04, 16793.83, 32545.99, 29489.84, 45610.07, 31779.82, 0.00, 0.00, 0.00, 0.00
33, 39015.33, 43994.63, 16805.85, 32527.53, 29362.44, 44810.08, 31756.33, 0.00, 0.00, 0.00, 0.00
34, 39003.75, 43978.51, 16825.05, 32594.99, 29474.51, 45029.64, 31799.51, 0.00, 0.00, 0.00, 0.00
35, 39014.48, 43945.45, 16832.18, 32659.76, 29693.44, 45969.18, 31850.47, 0.00, 0.00, 0.00, 0.00
36, 39022.57, 43952.67, 16785.06, 32552.32, 29529.63, 45782.61, 31785.23, 0.00, 0.00, 0.00, 0.00
37, 39018.61, 43986.02, 16795.41, 32514.43, 29352.20, 44859.08, 31746.27, 0.00, 0.00, 0.00, 0.00
38, 39011.04, 43981.37, 16822.64, 32575.97, 29445.90, 44920.48, 31796.34, 0.00, 0.00, 0.00, 0.00
39, 39024.76, 43957.99, 16838.62, 32658.67, 29671.92, 45816.89, 31863.15, 0.00, 0.13, 0.95, 0.26
40, 39036.14, 43953.96, 16798.92, 32573.75, 29595.45, 45951.41, 31820.34, 0.00, 0.00, 0.00, 0.00
41, 39023.75, 43978.26, 16791.39, 32500.62, 29361.34, 44966.46, 31759.10, 0.00, 0.00, 0.00, 0.00
42, 39011.57, 43977.37, 16816.16, 32556.39, 29417.71, 44828.30, 31796.94, 0.00, 0.00, 0.00, 0.00
43, 39021.09, 43958.41, 16835.06, 32646.82, 29636.36, 45634.30, 31858.83, 0.00, 0.00, 0.00, 0.00
44, 39038.30, 43947.55, 16803.73, 32601.02, 29645.41, 46061.82, 31833.76, 0.00, 0.00, 0.00, 0.00
45, 39026.61, 43968.03, 16784.84, 32496.60, 29377.75, 45084.92, 31756.62, 0.00, 0.00, 0.00, 0.00
46, 39015.57, 43973.23, 16813.05, 32535.44, 29399.58, 44769.11, 31781.79, 0.00, 0.00, 0.00, 0.00
47, 39016.00, 43950.64, 16829.54, 32623.69, 29597.24, 45448.38, 31842.18, 0.00, 0.00, 0.00, 0.00
48, 39036.58, 43934.45, 16811.19, 32615.87, 29688.32, 46119.43, 31845.36, 0.00, 0.00, 0.00, 0.00
49, 39026.88, 43959.31, 16781.40, 32497.94, 29409.53, 45248.33, 31761.89, 0.00, 0.13, 0.95, 0.26
50, 39012.13, 43968.43, 16808.24, 32521.09, 29378.62, 44737.75, 31770.77, 0.00, 0.00, 0.00, 0.00
51, 39013.76, 43957.52, 16828.87, 32609.29, 29546.68, 45265.43, 31833.80, 0.00, 0.00, 0.00, 0.00
52, 39035.91, 43940.33, 16821.32, 32640.32, 29703.86, 46107.87, 31859.21, 0.00, 0.00, 0.00, 0.00
53, 39034.44, 43960.96, 16780.46, 32518.72, 29444.69, 45437.16, 31774.12, 0.00, 0.00, 0.00, 0.00
54, 39025.72, 43984.07, 16800.67, 32527.76, 29366.91, 44764.82, 31776.87, 0.00, 0.00, 0.00, 0.00
55, 39019.08, 43970.20, 16819.71, 32607.08, 29502.40, 45125.85, 31834.67, 0.00, 0.00, 0.00, 0.00
56, 39041.39, 43951.71, 16825.86, 32663.03, 29704.69, 46051.92, 31875.04, 0.00, 0.00, 0.00, 0.00
57, 39052.27, 43975.25, 16787.72, 32547.11, 29498.94, 45637.93, 31799.63, 0.00, 0.00, 0.00, 0.00
58, 39034.48, 43990.98, 16797.92, 32516.40, 29359.26, 44799.82, 31767.93, 0.00, 0.00, 0.00, 0.00
59, 39025.34, 43981.50, 16817.85, 32583.88, 29466.93, 44990.77, 31813.33, 0.00, 0.13, 0.96, 0.26
60, 39042.51, 43962.84, 16831.98, 32662.74, 29687.83, 45923.80, 31865.72, 0.00, 0.00, 0.00, 0.00
61, 39052.41, 43969.39, 16790.25, 32564.55, 29545.59, 45807.57, 31806.89, 0.00, 0.00, 0.00, 0.00
62, 39039.58, 43993.17, 16793.49, 32509.54, 29351.46, 44860.64, 31760.06, 0.00, 0.00, 0.00, 0.00
63, 39027.06, 43986.42, 16816.07, 32566.58, 29434.43, 44876.18, 31801.10, 0.00, 0.00, 0.00, 0.00
64, 39043.45, 43969.99, 16835.40, 32663.25, 29661.12, 45762.00, 31861.31, 0.00, 0.00, 0.00, 0.00
65, 39056.39, 43966.10, 16795.08, 32587.39, 29600.03, 45961.87, 31814.71, 0.00, 0.00, 0.00, 0.00
66, 39043.38, 43991.76, 16787.46, 32504.38, 29363.60, 44974.41, 31757.13, 0.00, 0.00, 0.00, 0.00
67, 39025.63, 43987.92, 16811.46, 32553.44, 29413.06, 44810.80, 31793.97, 0.00, 0.00, 0.00, 0.00
68, 39029.77, 43965.07, 16830.13, 32645.57, 29623.75, 45589.89, 31856.87, 0.00, 0.14, 0.95, 0.26
69, 39047.56, 43955.17, 16803.21, 32610.14, 29654.86, 46080.94, 31844.11, 0.00, 0.00, 0.00, 0.00
70, 39038.32, 43983.09, 16785.73, 32507.55, 29383.20, 45127.77, 31762.92, 0.00, 0.00, 0.00, 0.00
71, 39022.16, 43987.94, 16806.59, 32542.82, 29386.73, 44772.46, 31781.47, 0.00, 0.00, 0.00, 0.00
72, 39028.87, 43976.90, 16830.77, 32639.07, 29576.03, 45422.41, 31847.95, 0.00, 0.00, 0.00, 0.00
73, 39052.65, 43961.39, 16816.92, 32641.91, 29684.61, 46139.41, 31862.88, 0.00, 0.00, 0.00, 0.00
74, 39048.03, 43983.85, 16783.54, 32520.40, 29405.84, 45303.70, 31773.34, 0.00, 0.00, 0.00, 0.00
75, 39032.87, 43990.82, 16801.58, 32530.10, 29361.41, 44753.06, 31773.43, 0.00, 0.00, 0.00, 0.00
76, 39030.93, 43979.13, 16825.65, 32613.23, 29525.54, 45244.09, 31837.71, 0.00, 0.00, 0.00, 0.00
77, 39050.17, 43957.41, 16821.61, 32645.24, 29697.40, 46108.41, 31865.92, 0.00, 0.00, 0.00, 0.00
78, 39049.01, 43974.11, 16781.29, 32516.33, 29444.87, 45482.69, 31776.20, 0.00, 0.13, 0.95, 0.25
79, 39034.59, 43990.64, 16800.87, 32511.33, 29353.00, 44766.65, 31764.46, 0.00, 0.00, 0.00, 0.00
80, 39022.79, 43974.46, 16819.98, 32586.03, 29487.18, 45092.18, 31819.47, 0.00, 0.00, 0.00, 0.00
81, 39041.81, 43953.32, 16826.35, 32650.27, 29697.64, 46025.64, 31865.76, 0.00, 0.00, 0.00, 0.00
82, 39048.90, 43968.99, 16785.96, 32535.91, 29504.99, 45680.50, 31798.33, 0.00, 0.00, 0.00, 0.00
83, 39028.47, 43984.84, 16795.32, 32502.63, 29349.49, 44815.27, 31763.66, 0.00, 0.00, 0.00, 0.00
84, 39016.93, 43974.80, 16816.11, 32572.17, 29453.63, 44973.72, 31814.78, 0.00, 0.00, 0.00, 0.00
85, 39034.26, 43954.10, 16826.79, 32652.90, 29680.72, 45902.79, 31873.38, 0.00, 0.00, 0.00, 0.00
86, 39048.05, 43961.99, 16784.21, 32559.23, 29557.16, 45856.28, 31821.13, 0.00, 0.00, 0.00, 0.00
87, 39031.09, 43984.84, 16784.28, 32500.29, 29351.26, 44895.98, 31766.37, 0.00, 0.00, 0.00, 0.00
88, 39012.31, 43976.59, 16803.91, 32550.98, 29421.80, 44871.21, 31798.33, 0.00, 0.13, 0.96, 0.25
89, 39025.45, 43958.06, 16821.99, 32647.78, 29643.31, 45745.84, 31863.10, 0.00, 0.00, 0.00, 0.00
90, 39046.04, 43960.16, 16787.70, 32590.27, 29603.28, 46013.39, 31831.23, 0.00, 0.00, 0.00, 0.00
91, 39034.75, 43988.97, 16773.60, 32505.94, 29350.83, 45023.41, 31766.21, 0.00, 0.00, 0.00, 0.00
92, 39024.33, 43990.46, 16798.05, 32556.10, 29387.85, 44812.86, 31793.14, 0.00, 0.00, 0.00, 0.00
93, 39031.96, 43973.03, 16817.32, 32651.56, 29597.46, 45572.88, 31857.90, 0.00, 0.00, 0.00, 0.00
94, 39049.93, 43962.41, 16790.47, 32622.57, 29646.44, 46120.54, 31850.74, 0.00, 0.00, 0.00, 0.00
95, 39045.25, 43995.03, 16772.03, 32517.27, 29372.83, 45184.56, 31770.21, 0.00, 0.00, 0.00, 0.00
96, 39031.11, 44001.26, 16797.96, 32546.62, 29372.54, 44779.17, 31784.38, 0.00, 0.00, 0.00, 0.00
97, 39029.21, 43982.73, 16820.74, 32634.87, 29556.43, 45385.48, 31844.66, 0.00, 0.00, 0.00, 0.00
98, 39056.18, 43971.38, 16813.96, 32650.58, 29683.36, 46145.09, 31860.62, 0.00, 0.14, 0.96, 0.25
99, 39056.01, 43997.35, 16782.61, 32528.67, 29411.38, 45354.01, 31772.56, 0.00, 0.00, 0.00, 0.00
100, 39037.10, 44005.09, 16804.69, 32532.61, 29363.55, 44766.32, 31772.42, 0.00, 0.00, 0.00, 0.00
101, 39023.48, 43981.66, 16820.85, 32604.96, 29517.06, 45222.45, 31826.40, 0.00, 0.00, 0.00, 0.00
102, 39047.49, 43965.12, 16822.55, 32650.62, 29698.58, 46113.43, 31861.72, 0.00, 0.00, 0.00, 0.00
103, 39047.89, 43984.86, 16778.89, 32527.13, 29454.17, 45541.92, 31779.22, 0.00, 0.00, 0.00, 0.00
104, 39034.17, 44006.52, 16798.41, 32523.02, 29349.72, 44790.57, 31767.95, 0.00, 0.00, 0.00, 0.00
105, 39017.29, 43983.23, 16816.04, 32588.82, 29475.27, 45080.90, 31816.79, 0.00, 0.00, 0.00, 0.00
106, 39037.19, 43959.89, 16824.78, 32654.73, 29691.14, 46019.43, 31866.90, 0.00, 0.00, 0.00, 0.00
107, 39048.63, 43976.74, 16782.70, 32550.44, 29511.92, 45740.03, 31801.30, 0.00, 0.00, 0.00, 0.00
108, 39031.49, 43998.04, 16787.61, 32517.99, 29349.83, 44865.85, 31768.04, 0.00, 0.13, 0.95, 0.25
109, 39016.69, 43984.97, 16807.48, 32582.63, 29441.90, 44971.37, 31814.87, 0.00, 0.00, 0.00, 0.00
110, 39028.80, 43960.36, 16819.53, 32666.20, 29662.42, 45868.50, 31873.34, 0.00, 0.00, 0.00, 0.00
111, 39043.54, 43966.75, 16784.46, 32579.79, 29567.27, 45901.05, 31824.32, 0.00, 0.00, 0.00, 0.00
112, 39031.64, 43990.55, 16781.31, 32511.75, 29359.87, 44966.57, 31769.12, 0.00, 0.00, 0.00, 0.00
113, 39015.53, 43984.59, 16799.15, 32559.54, 29412.55, 44886.53, 31806.78, 0.00, 0.00, 0.00, 0.00
114, 39023.64, 43967.24, 16819.80, 32653.01, 29624.71, 45695.66, 31871.37, 0.00, 0.00, 0.00, 0.00
115, 39043.85, 43963.96, 16793.33, 32602.77, 29614.47, 46034.18, 31844.39, 0.00, 0.00, 0.00, 0.00
116, 39032.02, 43981.53, 16778.61, 32501.87, 29368.45, 45073.83, 31765.65, 0.00, 0.00, 0.00, 0.00
117, 39022.28, 43987.47, 16806.12, 32545.46, 29395.36, 44819.11, 31792.76, 0.00, 0.13, 0.96, 0.25
118, 39027.04, 43971.18, 16828.74, 32640.50, 29595.12, 45521.67, 31859.37, 0.00, 0.00, 0.00, 0.00
119, 39044.65, 43954.28, 16804.80, 32617.45, 29662.57, 46115.78, 31854.72, 0.00, 0.00, 0.00, 0.00
120, 39030.75, 43969.21, 16772.93, 32491.93, 29386.98, 45211.57, 31769.88, 0.00, 0.00, 0.00, 0.00
121, 39011.50, 43970.62, 16795.32, 32518.95, 29371.35, 44772.78, 31786.13, 0.00, 0.00, 0.00, 0.00
122, 39008.84, 43952.89, 16818.37, 32608.51, 29547.31, 45345.90, 31845.67, 0.00, 0.00, 0.00, 0.00
123, 39032.05, 43939.53, 16808.11, 32631.33, 29689.46, 46143.97, 31870.44, 0.00, 0.00, 0.00, 0.00
124, 39031.02, 43963.73, 16772.28, 32513.45, 29426.12, 45400.10, 31787.42, 0.00, 0.00, 0.00, 0.00
125, 39014.50, 43974.51, 16789.42, 32514.32, 29362.23, 44773.76, 31782.50, 0.00, 0.00, 0.00, 0.00
126, 39009.89, 43962.68, 16815.48, 32596.11, 29512.64, 45196.86, 31840.71, 0.00, 0.00, 0.00, 0.00
127, 39027.80, 43940.89, 16815.08, 32645.82, 29698.85, 46104.23, 31877.63, 0.00, 0.13, 0.96, 0.26
128, 39035.15, 43963.18, 16776.97, 32527.93, 29472.65, 45602.81, 31797.90, 0.00, 0.00, 0.00, 0.00
129, 39019.80, 43978.00, 16789.94, 32511.71, 29354.41, 44824.03, 31770.46, 0.00, 0.00, 0.00, 0.00
130, 39011.23, 43967.13, 16810.81, 32587.88, 29475.83, 45074.55, 31828.99, 0.00, 0.00, 0.00, 0.00
131, 39031.02, 43947.98, 16820.09, 32660.32, 29692.93, 46013.79, 31882.86, 0.00, 0.00, 0.00, 0.00
132, 39038.93, 43956.49, 16775.59, 32553.08, 29524.55, 45792.15, 31814.15, 0.00, 0.00, 0.00, 0.00
133, 39025.34, 43980.14, 16784.33, 32511.24, 29351.64, 44881.43, 31770.86, 0.00, 0.00, 0.00, 0.00
134, 39010.92, 43969.61, 16804.89, 32571.90, 29442.34, 44964.20, 31808.86, 0.00, 0.00, 0.00, 0.00
135, 39030.82, 43957.50, 16825.54, 32663.43, 29669.35, 45869.45, 31885.30, 0.00, 0.00, 0.00, 0.00
136, 39044.99, 43962.44, 16788.69, 32574.63, 29586.40, 45953.13, 31842.23, 0.00, 0.00, 0.00, 0.00
137, 39031.69, 43986.96, 16785.96, 32502.92, 29364.92, 44976.00, 31780.04, 0.00, 0.13, 0.95, 0.25
138, 39011.57, 43978.64, 16803.26, 32553.57, 29418.22, 44866.97, 31813.46, 0.00, 0.00, 0.00, 0.00
139, 39015.17, 43954.28, 16820.00, 32641.28, 29632.13, 45678.83, 31876.51, 0.00, 0.00, 0.00, 0.00
140, 39035.29, 43952.27, 16792.40, 32602.66, 29637.34, 46075.39, 31858.25, 0.00, 0.00, 0.00, 0.00
141, 39025.38, 43978.87, 16776.53, 32506.61, 29376.03, 45101.75, 31782.14, 0.00, 0.00, 0.00, 0.00
142, 39010.07, 43976.83, 16800.53, 32542.44, 29397.30, 44808.07, 31802.53, 0.00, 0.00, 0.00, 0.00
143, 39011.71, 43958.95, 16816.76, 32630.30, 29590.71, 45503.23, 31867.04, 0.00, 0.00, 0.00, 0.00
144, 39031.80, 43950.01, 16796.15, 32620.27, 29675.38, 46140.77, 31869.96, 0.00, 0.00, 0.00, 0.00
145, 39022.52, 43974.78, 16767.18, 32506.45, 29403.34, 45259.02, 31785.19, 0.00, 0.00, 0.00, 0.00
146, 39005.83, 43981.75, 16788.13, 32532.16, 29379.76, 44782.37, 31796.72, 0.00, 0.00, 0.00, 0.00
147, 39008.00, 43969.90, 16809.61, 32624.34, 29551.53, 45330.97, 31863.66, 0.00, 0.13, 0.95, 0.26
148, 39030.66, 43954.01, 16805.22, 32650.80, 29706.23, 46159.43, 31894.06, 0.00, 0.00, 0.00, 0.00
149, 39024.31, 43968.03, 16764.19, 32516.80, 29445.81, 45457.28, 31804.30, 0.00, 0.00, 0.00, 0.00
150, 39012.02, 43982.15, 16788.04, 32522.61, 29370.68, 44796.65, 31798.19, 0.00, 0.00, 0.00, 0.00
151, 39009.29, 43971.51, 16809.38, 32607.66, 29514.05, 45184.59, 31857.81, 0.00, 0.00, 0.00, 0.00
152, 39028.43, 43950.97, 16807.10, 32661.13, 29709.69, 46106.42, 31900.92, 0.00, 0.00, 0.00, 0.00
153, 39032.40, 43968.20, 16762.64, 32537.70, 29489.28, 45648.32, 31819.63, 0.00, 0.00, 0.00, 0.00
154, 39025.43, 43994.09, 16781.98, 32517.56, 29361.76, 44828.05, 31791.87, 0.00, 0.00, 0.00, 0.00
155, 39018.77, 43987.72, 16803.53, 32588.60, 29476.45, 45057.00, 31842.18, 0.00, 0.00, 0.00, 0.00
156, 39035.75, 43969.99, 16814.50, 32666.29, 29693.26, 46001.07, 31897.26, 0.00, 0.13, 0.95, 0.25
157, 39051.69, 43985.01, 16775.95, 32563.12, 29537.07, 45833.46, 31833.06, 0.00, 0.00, 0.00, 0.00
158, 39034.82, 44004.64, 16779.59, 32511.46, 29350.25, 44898.66, 31785.14, 0.00, 0.00, 0.00, 0.00
159, 39022.70, 43998.31, 16802.54, 32577.29, 29438.77, 44947.95, 31828.10, 0.00, 0.00, 0.00, 0.00
160, 39037.88, 43977.93, 16820.71, 32666.92, 29661.57, 45842.46, 31888.21, 0.00, 0.00, 0.00, 0.00
161, 39048.34, 43976.50, 16780.88, 32585.06, 29587.79, 45991.55, 31843.03, 0.00, 0.00, 0.00, 0.00
162, 39033.34, 44002.52, 16776.86, 32505.11, 29353.07, 44996.74, 31775.42, 0.00, 0.00, 0.00, 0.00
163, 39021.45, 44000.66, 16802.88, 32558.13, 29409.82, 44861.31, 31811.45, 0.00, 0.00, 0.00, 0.00
164, 39028.38, 43978.02, 16820.07, 32648.03, 29621.38, 45658.49, 31876.38, 0.00, 0.00, 0.00, 0.00
165, 39054.82, 43980.27, 16794.07, 32614.41, 29640.38, 46110.15, 31862.88, 0.00, 0.00, 0.00, 0.00
166, 39046.80, 44012.64, 16777.53, 32521.05, 29377.16, 45149.72, 31787.17, 0.00, 0.14, 0.95, 0.26
167, 39024.20, 44010.63, 16796.64, 32555.90, 29394.31, 44818.33, 31809.19, 0.00, 0.00, 0.00, 0.00
168, 39027.39, 43991.43, 16815.87, 32649.62, 29582.76, 45479.25, 31871.93, 0.00, 0.00, 0.00, 0.00
169, 39050.15, 43979.13, 16797.42, 32649.04, 29679.40, 46172.13, 31877.45, 0.00, 0.00, 0.00, 0.00
170, 39041.25, 44004.17, 16765.33, 32528.09, 29402.85, 45320.98, 31792.29, 0.00, 0.00, 0.00, 0.00
171, 39019.11, 44006.27, 16784.33, 32542.60, 29366.73, 44801.34, 31794.77, 0.00, 0.00, 0.00, 0.00
172, 39015.04, 43988.63, 16803.44, 32626.71, 29528.24, 45305.96, 31853.83, 0.00, 0.00, 0.00, 0.00
173, 39047.07, 43982.69, 16807.53, 32664.97, 29691.25, 46137.08, 31889.12, 0.00, 0.00, 0.00, 0.00
174, 39054.06, 44008.08, 16777.29, 32547.60, 29455.11, 45521.88, 31807.98, 0.00, 0.00, 0.00, 0.00
175, 39030.19, 44014.38, 16785.24, 32536.14, 29363.29, 44842.98, 31789.90, 0.00, 0.00, 0.00, 0.00
176, 39024.71, 44002.09, 16803.10, 32608.51, 29485.39, 45157.81, 31840.53, 0.00, 0.13, 0.96, 0.25
177, 39050.31, 43985.73, 16813.14, 32672.42, 29692.95, 46069.11, 31889.30, 0.00, 0.00, 0.00, 0.00
178, 39059.98, 44004.39, 16775.05, 32562.69, 29502.40, 45700.31, 31816.50, 0.00, 0.00, 0.00, 0.00
179, 39038.71, 44016.62, 16784.71, 32529.68, 29354.43, 44860.57, 31783.84, 0.00, 0.00, 0.00, 0.00
180, 39021.88, 44001.55, 16804.91, 32590.61, 29456.45, 45027.61, 31826.71, 0.00, 0.00, 0.00, 0.00
181, 39031.13, 43974.80, 16814.88, 32664.53, 29680.17, 45950.94, 31881.54, 0.00, 0.00, 0.00, 0.00
182, 39047.67, 43985.59, 16777.35, 32572.37, 29553.10, 45870.61, 31833.31, 0.00, 0.00, 0.00, 0.00
183, 39031.24, 44003.39, 16777.51, 32510.25, 29353.09, 44918.38, 31779.31, 0.00, 0.00, 0.00, 0.00
184, 39020.29, 44000.10, 16805.02, 32572.93, 29434.81, 44922.98, 31820.34, 0.00, 0.00, 0.00, 0.00
185, 39023.48, 43974.84, 16816.24, 32656.99, 29651.18, 45784.02, 31877.70, 0.00, 0.00, 0.00, 0.00
186, 39035.71, 43972.00, 16777.20, 32590.50, 29599.21, 46012.05, 31836.35, 0.00, 0.13, 0.96, 0.25
187, 39025.61, 44000.05, 16769.35, 32510.86, 29355.39, 45033.38, 31771.19, 0.00, 0.00, 0.00, 0.00
188, 39017.41, 44002.38, 16800.38, 32559.76, 29403.58, 44848.24, 31817.55, 0.00, 0.00, 0.00, 0.00
189, 39025.05, 43984.43, 16819.38, 32652.43, 29610.76, 45605.22, 31881.10, 0.00, 0.00, 0.00, 0.00
190, 39045.72, 43977.14, 16791.41, 32626.57, 29653.83, 46118.96, 31869.63, 0.00, 0.00, 0.00, 0.00
191, 39031.15, 43997.24, 16763.38, 32517.63, 29381.10, 45188.79, 31788.78, 0.00, 0.00, 0.00, 0.00
192, 39017.96, 44003.41, 16787.37, 32550.11, 29381.66, 44812.09, 31807.00, 0.00, 0.00, 0.00, 0.00
193, 39023.86, 43992.72, 16810.48, 32646.31, 29568.85, 45451.18, 31878.01, 0.00, 0.00, 0.00, 0.00
194, 39050.22, 43984.75, 16800.22, 32654.87, 29684.28, 46186.95, 31887.36, 0.00, 0.00, 0.00, 0.00
195, 39053.39, 44017.38, 16773.64, 32543.13, 29415.70, 45377.62, 31804.74, 0.00, 0.00, 0.00, 0.00
196, 39048.45, 44039.06, 16800.08, 32567.79, 29373.61, 44822.36, 31814.64, 0.00, 0.13, 0.96, 0.26
197, 39041.28, 44028.11, 16820.16, 32646.89, 29526.94, 45291.47, 31870.99, 0.00, 0.00, 0.00, 0.00
198, 39062.80, 44010.79, 16818.35, 32682.92, 29697.89, 46165.31, 31899.40, 0.00, 0.00, 0.00, 0.00
199, 39060.88, 44024.40, 16773.89, 32548.59, 29448.94, 45557.84, 31800.54, 0.00, 0.00, 0.00, 0.00
200, 39041.14, 44030.16, 16789.87, 32526.50, 29344.46, 44807.40, 31766.99, 0.00, 0.00, 0.00, 0.00
201, 39025.94, 44007.68, 16806.19, 32591.46, 29468.56, 45101.57, 31814.04, 0.00, 0.00, 0.00, 0.00
202, 39039.20, 43982.66, 16808.15, 32650.55, 29675.11, 46031.74, 31863.17, 0.00, 0.00, 0.00, 0.00
203, 39047.11, 43999.61, 16768.28, 32541.57, 29492.19, 45719.44, 31798.46, 0.00, 0.00, 0.00, 0.00
204, 39023.13, 44011.32, 16775.52, 32504.08, 29336.31, 44846.41, 31763.97, 0.00, 0.00, 0.00, 0.00
