%OpenBCI Raw EEG Data
%
%Sample Rate = 250.0 Hz
%First Column = SampleIndex
%Other Columns = EEG data in microvolts followed by Accel Data (in G) interleaved with Aux Data
0, 39354.65, 45303.21, 16294.29, 30467.42, 26309.97, 39737.78, 29699.21, 0.00, 0.07, 0.46, 0.15
1, 39341.82, 45332.13, 16297.35, 30415.22, 26149.35, 39033.36, 29669.55, 0.00, 0.00, 0.00, 0.00
2, 39332.09, 45331.35, 16322.90, 30469.18, 26215.18, 39071.99, 29704.57, 0.00, 0.00, 0.00, 0.00
3, 39341.75, 45310.94, 16339.39, 30550.79, 26393.34, 39723.72, 29749.57, 0.00, 0.00, 0.00, 0.00
4, 39352.91, 45302.83, 16294.53, 30493.84, 26350.36, 39859.75, 29709.18, 0.00, 0.00, 0.00, 0.00
5, 39343.94, 45334.12, 16287.13, 30424.81, 26155.54, 39116.71, 29665.55, 0.00, 0.00, 0.00, 0.00
6, 39328.88, 45332.00, 16315.50, 30461.60, 26196.82, 39009.80, 29697.67, 0.00, 0.00, 0.00, 0.00
7, 39326.62, 45304.46, 16332.31, 30527.38, 26359.21, 39578.30, 29735.35, 0.00, 0.14, 0.93, 0.31
8, 39343.98, 45290.09, 16304.30, 30506.51, 26389.09, 39928.30, 29714.16, 0.00, 0.00, 0.00, 0.00
9, 39344.05, 45321.98, 16285.99, 30413.66, 26169.06, 39208.63, 29658.82, 0.00, 0.00, 0.00, 0.00
10, 39326.77, 45328.18, 16312.77, 30436.50, 26170.40, 38959.49, 29673.55, 0.00, 0.00, 0.00, 0.00
11, 39327.25, 45310.61, 16333.89, 30514.64, 26317.21, 39449.57, 29722.86, 0.00, 0.00, 0.00, 0.00
12, 39346.80, 45290.24, 16317.85, 30525.26, 26412.72, 39971.31, 29725.70, 0.00, 0.00, 0.00, 0.00
13, 39341.21, 45310.79, 16283.54, 30414.49, 26193.05, 39335.74, 29659.87, 0.00, 0.00, 0.00, 0.00
14, 39325.19, 45326.34, 16304.05, 30423.36, 26158.85, 38931.57, 29665.44, 0.00, 0.00, 0.00, 0.00
15, 39327.51, 45320.38, 16326.92, 30505.59, 26289.49, 39323.00, 29720.49, 0.00, 0.00, 0.00, 0.00
16, 39348.41, 45302.20, 16321.15, 30544.84, 26427.25, 39964.16, 29737.01, 0.00, 0.14, 0.93, 0.31
17, 39350.27, 45319.14, 16281.19, 30435.99, 26227.29, 39493.14, 29671.22, 0.00, 0.00, 0.00, 0.00
18, 39339.47, 45338.48, 16303.81, 30428.52, 26148.39, 38956.05, 29675.54, 0.00, 0.00, 0.00, 0.00
19, 39328.21, 45323.50, 16325.74, 30489.83, 26256.66, 39209.88, 29718.74, 0.00, 0.00, 0.00, 0.00
20, 39341.71, 45295.23, 16325.85, 30546.45, 26419.81, 39894.27, 29739.08, 0.00, 0.00, 0.00, 0.00
21, 39348.32, 45305.20, 16282.82, 30447.84, 26264.66, 39628.95, 29675.92, 0.00, 0.00, 0.00, 0.00
22, 39343.32, 45340.78, 16304.10, 30420.43, 26140.56, 38987.57, 29659.00, 0.00, 0.00, 0.00, 0.00
23, 39333.57, 45336.73, 16328.26, 30492.65, 26232.52, 39135.71, 29712.87, 0.00, 0.00, 0.00, 0.00
24, 39343.67, 45311.43, 16330.45, 30557.78, 26406.15, 39815.61, 29746.73, 0.00, 0.00, 0.00, 0.00
25, 39355.03, 45314.34, 16284.63, 30472.76, 26311.49, 39778.08, 29696.68, 0.00, 0.00, 0.00, 0.00
26, 39338.73, 45339.30, 16287.16, 30410.29, 26142.55, 39055.07, 29663.07, 0.00, 0.14, 0.93, 0.31
27, 39326.51, 45333.79, 16314.58, 30456.80, 26205.16, 39056.59, 29697.18, 0.00, 0.00, 0.00, 0.00
28, 39339.36, 45315.34, 16333.18, 30544.13, 26382.39, 39693.86, 29741.32, 0.00, 0.00, 0.00, 0.00
29, 39353.44, 45307.23, 16302.47, 30500.16, 26364.96, 39890.35, 29719.55, 0.00, 0.00, 0.00, 0.00
30, 39344.23, 45338.25, 16291.54, 30419.47, 26161.44, 39143.36, 29668.79, 0.00, 0.00, 0.00, 0.00
31, 39330.89, 45339.57, 16316.62, 30455.08, 26188.60, 38998.90, 29691.45, 0.00, 0.00, 0.00, 0.00
32, 39331.89, 45316.57, 16331.57, 30529.96, 26347.10, 39552.13, 29735.44, 0.00, 0.00, 0.00, 0.00
33, 39347.59, 45296.88, 16302.71, 30511.20, 26391.49, 39948.49, 29715.88, 0.00, 0.00, 0.00, 0.00
34, 39340.77, 45325.52, 16280.27, 30416.12, 26170.72, 39242.38, 29654.42, 0.00, 0.00, 0.00, 0.00
35, 39330.04, 45340.96, 16308.41, 30443.21, 26171.50, 38960.92, 29678.96, 0.00, 0.00, 0.00, 0.00
36, 39324.79, 45320.26, 16325.02, 30519.09, 26311.80, 39422.39, 29729.12, 0.00, 0.15, 0.92, 0.31
37, 39342.58, 45300.26, 16311.41, 30537.40, 26415.76, 39979.91, 29732.38, 0.00, 0.00, 0.00, 0.00
38, 39342.27, 45322.56, 16282.04, 30431.99, 26201.74, 39382.16, 29665.68, 0.00, 0.00, 0.00, 0.00
39, 39327.78, 45336.89, 16308.03, 30435.72, 26159.45, 38950.30, 29678.96, 0.00, 0.00, 0.00, 0.00
40, 39312.45, 45314.79, 16320.80, 30495.67, 26278.03, 39296.96, 29722.07, 0.00, 0.00, 0.00, 0.00
41, 39334.60, 45294.78, 16317.64, 30541.11, 26423.14, 39951.35, 29741.90, 0.00, 0.00, 0.00, 0.00
42, 39344.30, 45316.30, 16283.00, 30444.01, 26239.20, 39528.19, 29682.76, 0.00, 0.00, 0.00, 0.00
43, 39329.82, 45336.78, 16299.25, 30428.12, 26151.88, 38970.55, 29677.42, 0.00, 0.00, 0.00, 0.00
44, 39316.80, 45322.92, 16314.63, 30483.93, 26249.02, 39198.10, 29708.15, 0.00, 0.00, 0.00, 0.00
45, 39334.09, 45302.36, 16321.60, 30546.09, 26417.66, 39883.71, 29733.94, 0.00, 0.00, 0.00, 0.00
46, 39349.33, 45313.71, 16281.97, 30459.79, 26283.06, 39687.71, 29691.45, 0.00, 0.15, 0.93, 0.32
47, 39338.22, 45339.80, 16290.26, 30417.95, 26146.02, 39014.16, 29669.06, 0.00, 0.00, 0.00, 0.00
48, 39323.00, 45329.47, 16309.91, 30468.42, 26221.26, 39111.19, 29700.68, 0.00, 0.00, 0.00, 0.00
49, 39333.13, 45303.41, 16323.30, 30542.79, 26399.22, 39786.64, 29741.54, 0.00, 0.00, 0.00, 0.00
50, 39345.08, 45301.69, 16282.46, 30476.92, 26326.98, 39814.00, 29705.51, 0.00, 0.00, 0.00, 0.00
51, 39335.11, 45332.87, 16284.25, 30421.13, 26149.48, 39084.21, 29673.24, 0.00, 0.00, 0.00, 0.00
52, 39319.64, 45334.10, 16313.64, 30469.65, 26205.25, 39044.18, 29708.06, 0.00, 0.00, 0.00, 0.00
53, 39326.44, 45314.90, 16330.27, 30544.44, 26377.07, 39656.89, 29747.87, 0.00, 0.00, 0.00, 0.00
54, 39345.06, 45305.20, 16296.05, 30501.05, 26370.83, 39906.29, 29718.07, 0.00, 0.00, 0.00, 0.00
55, 39338.55, 45335.91, 16283.65, 30417.84, 26163.68, 39168.52, 29663.40, 0.00, 0.14, 0.93, 0.32
56, 39319.73, 45332.62, 16309.04, 30444.71, 26186.95, 38986.98, 29685.46, 0.00, 0.00, 0.00, 0.00
57, 39323.22, 45316.64, 16328.84, 30521.11, 26344.86, 39516.00, 29736.11, 0.00, 0.00, 0.00, 0.00
58, 39347.70, 45305.33, 16309.55, 30519.83, 26406.60, 39962.88, 29726.01, 0.00, 0.00, 0.00, 0.00
59, 39343.63, 45331.39, 16281.97, 30423.94, 26188.29, 39282.88, 29668.72, 0.00, 0.00, 0.00, 0.00
60, 39333.13, 45343.89, 16308.46, 30443.43, 26172.35, 38963.74, 29689.35, 0.00, 0.00, 0.00, 0.00
61, 39332.41, 45331.30, 16331.59, 30521.13, 26309.81, 39395.11, 29733.36, 0.00, 0.00, 0.00, 0.00
62, 39353.35, 45312.82, 16318.61, 30551.68, 26430.94, 39982.33, 29739.87, 0.00, 0.00, 0.00, 0.00
63, 39353.96, 45333.88, 16278.28, 30441.98, 26219.53, 39426.49, 29673.75, 0.00, 0.00, 0.00, 0.00
64, 39337.88, 45352.38, 16300.75, 30442.09, 26165.40, 38961.39, 29681.10, 0.00, 0.00, 0.00, 0.00
65, 39327.02, 45340.09, 16324.06, 30513.97, 26281.09, 39281.63, 29723.51, 0.00, 0.14, 0.93, 0.32
66, 39338.51, 45308.21, 16314.94, 30553.13, 26431.79, 39940.49, 29737.34, 0.00, 0.00, 0.00, 0.00
67, 39349.29, 45326.57, 16279.96, 30450.54, 26258.92, 39566.54, 29677.13, 0.00, 0.00, 0.00, 0.00
68, 39340.21, 45353.77, 16299.54, 30434.51, 26158.45, 38979.96, 29676.25, 0.00, 0.00, 0.00, 0.00
69, 39338.89, 45348.56, 16322.23, 30494.91, 26246.96, 39178.11, 29714.27, 0.00, 0.00, 0.00, 0.00
70, 39357.93, 45325.18, 16328.33, 30556.49, 26414.06, 39862.19, 29739.73, 0.00, 0.00, 0.00, 0.00
71, 39367.59, 45336.58, 16288.52, 30480.80, 26301.65, 39719.14, 29699.19, 0.00, 0.00, 0.00, 0.00
72, 39362.61, 45380.36, 16297.84, 30447.17, 26163.36, 39042.39, 29687.27, 0.00, 0.00, 0.00, 0.00
73, 39357.02, 45386.73, 16316.86, 30502.82, 26233.66, 39120.83, 29723.86, 0.00, 0.00, 0.00, 0.00
74, 39383.53, 45380.05, 16333.47, 30584.56, 26407.89, 39777.86, 29761.82, 0.00, 0.00, 0.00, 0.00
75, 39407.91, 45392.88, 16298.80, 30535.70, 26358.07, 39868.34, 29734.14, 0.00, 0.15, 0.94, 0.32
76, 39400.07, 45425.27, 16296.25, 30467.28, 26170.94, 39138.24, 29694.78, 0.00, 0.00, 0.00, 0.00
77, 39391.84, 45433.96, 16320.75, 30519.38, 26223.67, 39070.76, 29728.85, 0.00, 0.00, 0.00, 0.00
78, 39407.15, 45423.55, 16336.02, 30598.89, 26393.01, 39670.97, 29775.29, 0.00, 0.00, 0.00, 0.00
79, 39429.88, 45411.46, 16307.92, 30562.12, 26405.32, 39972.92, 29748.79, 0.00, 0.00, 0.00, 0.00
80, 39419.51, 45435.86, 16290.80, 30472.00, 26192.18, 39235.71, 29694.20, 0.00, 0.00, 0.00, 0.00
81, 39404.47, 45437.79, 16315.95, 30497.50, 26206.57, 39013.65, 29712.55, 0.00, 0.00, 0.00, 0.00
82, 39404.71, 45420.15, 16337.40, 30575.78, 26356.42, 39524.59, 29754.64, 0.00, 0.00, 0.00, 0.00
83, 39426.98, 45408.75, 16319.88, 30579.09, 26432.14, 40020.75, 29755.40, 0.00, 0.00, 0.00, 0.00
84, 39421.01, 45434.64, 16286.87, 30473.76, 26211.87, 39365.38, 29701.91, 0.00, 0.00, 0.00, 0.00
85, 39406.86, 45448.79, 16318.38, 30489.54, 26193.47, 39008.57, 29717.49, 0.00, 0.15, 0.94, 0.32
86, 39402.70, 45432.78, 16335.84, 30562.63, 26323.16, 39409.95, 29760.77, 0.00, 0.00, 0.00, 0.00
87, 39423.98, 45412.57, 16326.07, 30596.12, 26448.08, 40017.96, 29769.08, 0.00, 0.00, 0.00, 0.00
88, 39425.14, 45431.33, 16289.26, 30489.72, 26244.59, 39495.26, 29700.10, 0.00, 0.00, 0.00, 0.00
89, 39413.12, 45449.10, 16312.33, 30481.54, 26179.73, 38993.64, 29708.42, 0.00, 0.00, 0.00, 0.00
90, 39404.07, 45438.55, 16332.73, 30548.78, 26290.99, 39285.11, 29750.53, 0.00, 0.00, 0.00, 0.00
91, 39422.08, 45413.65, 16331.79, 30609.35, 26449.44, 39961.61, 29764.05, 0.00, 0.00, 0.00, 0.00
92, 39431.79, 45428.98, 16294.15, 30528.88, 26287.57, 39640.35, 29710.74, 0.00, 0.00, 0.00, 0.00
93, 39416.81, 45450.95, 16307.16, 30481.63, 26173.42, 39020.07, 29704.66, 0.00, 0.00, 0.00, 0.00
94, 39403.91, 45439.55, 16329.16, 30537.80, 26265.02, 39188.84, 29745.32, 0.00, 0.00, 0.00, 0.00
95, 39417.43, 45416.42, 16338.61, 30614.87, 26444.41, 39880.20, 29781.96, 0.00, 0.15, 0.93, 0.32
96, 39439.68, 45426.81, 16301.86, 30538.36, 26340.28, 39782.28, 29734.48, 0.00, 0.00, 0.00, 0.00
97, 39427.83, 45456.45, 16303.47, 30484.49, 26178.54, 39075.03, 29701.11, 0.00, 0.00, 0.00, 0.00
98, 39420.00, 45460.47, 16330.38, 30542.00, 26246.85, 39118.97, 29738.32, 0.00, 0.00, 0.00, 0.00
99, 39434.60, 45448.38, 16350.23, 30634.61, 26427.72, 39777.16, 29784.68, 0.00, 0.00, 0.00, 0.00
100, 39452.75, 45449.34, 16314.38, 30590.33, 26385.59, 39921.58, 29747.13, 0.00, 0.00, 0.00, 0.00
101, 39440.21, 45477.26, 16302.47, 30508.70, 26182.45, 39167.25, 29688.32, 0.00, 0.00, 0.00, 0.00
102, 39423.13, 45470.87, 16324.69, 30531.45, 26217.23, 39054.38, 29707.17, 0.00, 0.00, 0.00, 0.00
103, 39428.03, 45444.56, 16343.75, 30604.43, 26380.53, 39623.67, 29745.77, 0.00, 0.00, 0.00, 0.00
104, 39445.69, 45425.14, 16313.58, 30578.50, 26411.40, 39975.45, 29730.97, 0.00, 0.15, 0.93, 0.32
105, 39433.95, 45451.18, 16288.92, 30482.39, 26194.41, 39254.07, 29672.77, 0.00, 0.00, 0.00, 0.00
106, 39412.50, 45454.71, 16312.88, 30503.29, 26197.52, 38997.11, 29688.10, 0.00, 0.00, 0.00, 0.00
107, 39404.83, 45430.54, 16330.65, 30575.71, 26345.89, 39477.76, 29730.03, 0.00, 0.00, 0.00, 0.00
108, 39420.07, 45406.38, 16310.42, 30580.83, 26436.37, 39992.05, 29731.24, 0.00, 0.00, 0.00, 0.00
109, 39421.12, 45434.46, 16280.05, 30481.43, 26221.08, 39369.60, 29673.91, 0.00, 0.00, 0.00, 0.00
110, 39410.39, 45453.05, 16307.81, 30494.37, 26189.76, 38978.00, 29686.20, 0.00, 0.00, 0.00, 0.00
111, 39403.11, 45438.95, 16325.40, 30565.09, 26316.05, 39358.61, 29734.28, 0.00, 0.00, 0.00, 0.00
112, 39425.64, 45421.74, 16323.63, 30615.90, 26457.29, 40005.08, 29755.89, 0.00, 0.00, 0.00, 0.00
113, 39429.50, 45438.93, 16283.22, 30510.35, 26262.05, 39535.63, 29698.18, 0.00, 0.00, 0.00, 0.00
114, 39416.99, 45459.42, 16304.41, 30496.12, 26186.43, 39008.84, 29704.53, 0.00, 0.15, 0.93, 0.32
115, 39408.40, 45448.76, 16327.90, 30560.51, 26290.37, 39268.91, 29743.31, 0.00, 0.00, 0.00, 0.00
116, 39426.66, 45424.13, 16331.84, 30619.16, 26456.06, 39954.32, 29767.92, 0.00, 0.00, 0.00, 0.00
117, 39433.77, 45430.68, 16287.11, 30519.27, 26304.05, 39681.90, 29713.16, 0.00, 0.00, 0.00, 0.00
118, 39420.05, 45452.36, 16301.44, 30483.82, 26182.63, 39036.76, 29696.84, 0.00, 0.00, 0.00, 0.00
119, 39407.82, 45446.14, 16326.34, 30538.54, 26269.54, 39178.47, 29735.80, 0.00, 0.00, 0.00, 0.00
120, 39416.56, 45423.06, 16334.23, 30612.68, 26448.17, 39859.77, 29771.94, 0.00, 0.00, 0.00, 0.00
121, 39432.52, 45429.65, 16295.74, 30541.02, 26361.00, 39820.04, 29730.63, 0.00, 0.00, 0.00, 0.00
122, 39426.00, 45462.31, 16298.67, 30482.73, 26190.12, 39096.75, 29693.20, 0.00, 0.00, 0.00, 0.00
123, 39409.86, 45457.12, 16322.12, 30527.99, 26251.97, 39099.97, 29729.72, 0.00, 0.00, 0.00, 0.00
124, 39416.36, 45433.76, 16334.03, 30604.43, 26421.79, 39728.23, 29768.25, 0.00, 0.15, 0.93, 0.31
125, 39432.54, 45425.00, 16298.09, 30557.65, 26398.84, 39917.35, 29731.57, 0.00, 0.00, 0.00, 0.00
126, 39427.67, 45455.54, 16287.89, 30477.68, 26197.32, 39168.68, 29689.08, 0.00, 0.00, 0.00, 0.00
127, 39415.47, 45459.82, 16316.79, 30509.10, 26233.32, 39030.41, 29719.62, 0.00, 0.00, 0.00, 0.00
128, 39418.71, 45441.90, 16334.86, 30585.10, 26388.47, 39584.47, 29757.46, 0.00, 0.00, 0.00, 0.00
129, 39439.92, 45432.02, 16313.11, 30575.38, 26432.68, 39987.89, 29742.37, 0.00, 0.00, 0.00, 0.00
130, 39438.58, 45463.47, 16290.26, 30479.87, 26213.01, 39286.23, 29680.30, 0.00, 0.00, 0.00, 0.00
131, 39425.61, 45471.96, 16317.31, 30499.96, 26210.97, 38989.91, 29690.80, 0.00, 0.00, 0.00, 0.00
132, 39420.14, 45452.79, 16338.14, 30575.58, 26352.66, 39448.44, 29744.78, 0.00, 0.00, 0.00, 0.00
133, 39448.82, 45439.95, 16325.56, 30601.06, 26461.13, 40013.51, 29761.77, 0.00, 0.00, 0.00, 0.00
134, 39449.22, 45462.13, 16291.09, 30495.22, 26244.32, 39424.48, 29698.56, 0.00, 0.15, 0.93, 0.32
135, 39431.79, 45473.68, 16314.72, 30495.45, 26196.67, 38996.46, 29700.13, 0.00, 0.00, 0.00, 0.00
136, 39425.59, 45459.69, 16332.55, 30563.48, 26316.65, 39346.85, 29737.68, 0.00, 0.00, 0.00, 0.00
137, 39450.00, 45444.89, 16333.56, 30616.14, 26473.74, 40002.36, 29763.18, 0.00, 0.00, 0.00, 0.00
138, 39455.92, 45460.16, 16293.17, 30511.38, 26288.96, 39576.54, 29697.85, 0.00, 0.00, 0.00, 0.00
139, 39441.62, 45478.71, 16314.07, 30490.57, 26199.04, 39010.41, 29688.17, 0.00, 0.00, 0.00, 0.00
140, 39429.79, 45468.39, 16336.38, 30560.27, 26303.35, 39251.92, 29740.65, 0.00, 0.00, 0.00, 0.00
141, 39440.99, 45435.53, 16336.13, 30616.05, 26472.22, 39935.48, 29767.36, 0.00, 0.00, 0.00, 0.00
142, 39459.93, 45452.63, 16305.73, 30529.22, 26341.02, 39723.61, 29718.05, 0.00, 0.00, 0.00, 0.00
143, 39445.93, 45476.88, 16316.35, 30489.28, 26206.55, 39059.96, 29698.98, 0.00, 0.15, 0.94, 0.32
144, 39431.67, 45468.54, 16339.42, 30543.12, 26284.91, 39161.75, 29740.04, 0.00, 0.00, 0.00, 0.00
145, 39444.88, 45449.61, 16352.89, 30621.44, 26457.49, 39830.11, 29772.61, 0.00, 0.00, 0.00, 0.00
146, 39458.02, 45446.08, 16313.44, 30554.19, 26380.27, 39840.42, 29724.49, 0.00, 0.00, 0.00, 0.00
147, 39447.68, 45470.78, 16307.18, 30489.86, 26197.85, 39108.89, 29681.33, 0.00, 0.00, 0.00, 0.00
148, 39429.50, 45465.48, 16329.54, 30536.79, 26249.26, 39085.45, 29718.50, 0.00, 0.00, 0.00, 0.00
149, 39435.83, 45443.69, 16349.21, 30632.13, 26423.29, 39703.60, 29768.61, 0.00, 0.00, 0.00, 0.00
150, 39455.28, 45434.75, 16320.89, 30590.46, 26423.20, 39955.66, 29750.17, 0.00, 0.00, 0.00, 0.00
151, 39446.38, 45460.96, 16305.22, 30486.08, 26213.23, 39208.51, 29692.48, 0.00, 0.00, 0.00, 0.00
152, 39433.19, 45466.78, 16338.30, 30523.50, 26239.40, 39029.21, 29720.13, 0.00, 0.00, 0.00, 0.00
153, 39433.15, 45447.02, 16355.69, 30593.84, 26391.69, 39562.27, 29766.62, 0.00, 0.15, 0.93, 0.32
154, 39453.42, 45432.94, 16332.80, 30587.56, 26449.91, 40001.82, 29758.37, 0.00, 0.00, 0.00, 0.00
155, 39451.68, 45460.27, 16308.99, 30486.95, 26231.27, 39324.47, 29707.99, 0.00, 0.00, 0.00, 0.00
156, 39438.04, 45468.23, 16339.97, 30505.75, 26216.20, 39002.36, 29722.77, 0.00, 0.00, 0.00, 0.00
157, 39433.37, 45451.22, 16355.80, 30585.66, 26346.20, 39433.08, 29768.16, 0.00, 0.00, 0.00, 0.00
158, 39454.61, 45432.63, 16342.34, 30613.87, 26460.66, 40018.16, 29769.30, 0.00, 0.00, 0.00, 0.00
159, 39454.02, 45453.90, 16304.64, 30506.96, 26254.54, 39467.10, 29703.19, 0.00, 0.00, 0.00, 0.00
160, 39435.61, 45466.04, 16328.62, 30503.56, 26201.61, 38997.98, 29710.97, 0.00, 0.00, 0.00, 0.00
161, 39424.68, 45449.45, 16349.05, 30571.04, 26315.65, 39310.55, 29747.27, 0.00, 0.00, 0.00, 0.00
162, 39442.65, 45425.49, 16349.12, 30625.44, 26470.21, 39980.52, 29764.48, 0.00, 0.00, 0.00, 0.00
163, 39444.10, 45436.89, 16302.74, 30519.09, 26290.99, 39608.50, 29710.38, 0.00, 0.14, 0.93, 0.32
164, 39432.41, 45460.00, 16322.32, 30498.69, 26189.18, 39015.01, 29711.12, 0.00, 0.00, 0.00, 0.00
165, 39424.09, 45448.25, 16345.41, 30561.99, 26282.77, 39217.01, 29750.82, 0.00, 0.00, 0.00, 0.00
166, 39436.93, 45424.22, 16347.71, 30627.83, 26452.53, 39907.92, 29777.93, 0.00, 0.00, 0.00, 0.00
167, 39446.89, 45431.84, 16303.90, 30540.73, 26328.03, 39754.45, 29728.18, 0.00, 0.00, 0.00, 0.00
168, 39436.23, 45461.68, 16311.36, 30498.60, 26178.72, 39066.33, 29700.77, 0.00, 0.00, 0.00, 0.00
169, 39428.83, 45461.61, 16341.40, 30555.97, 26254.00, 39137.93, 29741.59, 0.00, 0.00, 0.00, 0.00
170, 39435.34, 45437.50, 16350.05, 30629.85, 26423.56, 39787.85, 29768.97, 0.00, 0.00, 0.00, 0.00
171, 39451.03, 45432.40, 16312.62, 30566.28, 26362.34, 39868.38, 29730.46, 0.00, 0.00, 0.00, 0.00
172, 39445.11, 45460.96, 16311.10, 30497.41, 26179.05, 39134.64, 29694.60, 0.00, 0.00, 0.00, 0.00
173, 39433.62, 45466.69, 16339.53, 30545.76, 26228.05, 39077.66, 29729.34, 0.00, 0.15, 0.92, 0.31
174, 39432.79, 45437.43, 16356.78, 30618.18, 26393.25, 39673.65, 29770.82, 0.00, 0.00, 0.00, 0.00
175, 39451.57, 45424.18, 16327.95, 30584.52, 26403.18, 39965.75, 29745.03, 0.00, 0.00, 0.00, 0.00
176, 39449.29, 45460.34, 16312.01, 30499.76, 26195.97, 39233.90, 29693.58, 0.00, 0.00, 0.00, 0.00
177, 39443.03, 45473.26, 16343.17, 30536.95, 26214.82, 39024.16, 29723.08, 0.00, 0.00, 0.00, 0.00
178, 39432.54, 45445.43, 16358.48, 30616.01, 26364.24, 39533.95, 29766.40, 0.00, 0.00, 0.00, 0.00
179, 39439.16, 45413.94, 16336.20, 30614.69, 26439.36, 40015.32, 29755.92, 0.00, 0.00, 0.00, 0.00
180, 39430.91, 45435.51, 16310.36, 30517.55, 26218.62, 39353.35, 29694.83, 0.00, 0.00, 0.00, 0.00
181, 39408.38, 45443.75, 16332.62, 30528.55, 26191.86, 38990.92, 29710.34, 0.00, 0.00, 0.00, 0.00
182, 39393.52, 45410.56, 16351.73, 30594.57, 26320.52, 39391.30, 29750.28, 0.00, 0.00, 0.00, 0.00
183, 39386.32, 45353.59, 16347.64, 30620.75, 26451.32, 40001.71, 29756.61, 0.00, 0.15, 0.93, 0.32
184, 39352.26, 45331.48, 16311.72, 30506.55, 26252.10, 39476.04, 29690.36, 0.00, 0.00, 0.00, 0.00
185, 39302.32, 45308.97, 16331.59, 30492.54, 26188.69, 38976.61, 29697.22, 0.00, 0.00, 0.00, 0.00
186, 39255.21, 45245.41, 16346.25, 30539.48, 26290.79, 39261.31, 29734.26, 0.00, 0.00, 0.00, 0.00
187, 39240.79, 45181.46, 16347.19, 30585.14, 26446.52, 39933.65, 29755.51, 0.00, 0.00, 0.00, 0.00
188, 39216.31, 45155.64, 16304.14, 30480.87, 26281.98, 39612.16, 29692.55, 0.00, 0.00, 0.00, 0.00
189, 39175.30, 45139.95, 16313.67, 30444.06, 26166.36, 38991.30, 29678.29, 0.00, 0.00, 0.00, 0.00
190, 39140.27, 45098.49, 16336.55, 30497.79, 26254.94, 39157.04, 29721.27, 0.00, 0.00, 0.00, 0.00
191, 39127.91, 45040.30, 16341.09, 30556.55, 26422.67, 39831.75, 29744.87, 0.00, 0.00, 0.00, 0.00
192, 39118.90, 45016.59, 16297.95, 30466.21, 26308.85, 39724.14, 29688.73, 0.00, 0.16, 0.93, 0.32
193, 39090.47, 45022.04, 16305.98, 30415.18, 26153.64, 39026.17, 29670.26, 0.00, 0.00, 0.00, 0.00
194, 39076.37, 45015.88, 16331.03, 30463.84, 26220.23, 39072.10, 29703.57, 0.00, 0.00, 0.00, 0.00
195, 39073.06, 44986.15, 16342.95, 30530.63, 26390.39, 39713.55, 29731.87, 0.00, 0.00, 0.00, 0.00
196, 39079.83, 44965.47, 16308.99, 30472.54, 26351.12, 39842.50, 29698.36, 0.00, 0.00, 0.00, 0.00
197, 39063.67, 44987.46, 16298.98, 30400.96, 26157.64, 39113.45, 29658.37, 0.00, 0.00, 0.00, 0.00
198, 39049.39, 44995.07, 16322.61, 30440.17, 26198.21, 39003.88, 29685.60, 0.00, 0.00, 0.00, 0.00
199, 39050.11, 44970.68, 16341.45, 30515.54, 26367.35, 39576.91, 29729.58, 0.00, 0.00, 0.00, 0.00
200, 39075.09, 44959.88, 16315.07, 30487.58, 26393.47, 39917.11, 29703.79, 0.00, 0.00, 0.00, 0.00
201, 39081.31, 44999.07, 16296.19, 30390.84, 26176.48, 39196.58, 29643.44, 0.00, 0.00, 0.00, 0.00
202, 39074.22, 45018.20, 16323.81, 30424.14, 26183.01, 38964.59, 29675.65, 0.00, 0.15, 0.94, 0.32
203, 39073.98, 45008.12, 16337.58, 30505.50, 26327.69, 39444.03, 29718.52, 0.00, 0.00, 0.00, 0.00
204, 39101.56, 45002.57, 16318.85, 30520.59, 26421.17, 39962.75, 29718.63, 0.00, 0.00, 0.00, 0.00
205, 39107.19, 45038.79, 16289.46, 30423.72, 26204.83, 39333.84, 29658.62, 0.00, 0.00, 0.00, 0.00
206, 39108.80, 45066.61, 16320.37, 30436.17, 26170.58, 38940.94, 29671.04, 0.00, 0.00, 0.00, 0.00
207, 39110.32, 45064.36, 16334.83, 30503.51, 26289.45, 39318.82, 29717.38, 0.00, 0.00, 0.00, 0.00
208, 39135.82, 45055.89, 16329.16, 30547.44, 26435.03, 39955.17, 29739.84, 0.00, 0.00, 0.00, 0.00
209, 39150.11, 45088.47, 16291.22, 30446.09, 26240.86, 39483.46, 29673.15, 0.00, 0.00, 0.00, 0.00
210, 39143.27, 45122.09, 16307.59, 30436.91, 26161.69, 38951.16, 29665.79, 0.00, 0.00, 0.00, 0.00
211, 39136.45, 45125.15, 16328.06, 30508.70, 26265.82, 39219.04, 29707.03, 0.00, 0.00, 0.00, 0.00
212, 39167.03, 45121.27, 16338.30, 30581.50, 26433.71, 39907.00, 29736.34, 0.00, 0.15, 0.94, 0.32
213, 39179.84, 45141.09, 16294.94, 30487.76, 26282.03, 39639.50, 29685.11, 0.00, 0.00, 0.00, 0.00
214, 39170.22, 45170.84, 16303.50, 30450.27, 26158.69, 38995.46, 29669.62, 0.00, 0.00, 0.00, 0.00
215, 39170.11, 45172.38, 16326.52, 30505.57, 26240.23, 39136.83, 29701.80, 0.00, 0.00, 0.00, 0.00
216, 39193.80, 45163.51, 16342.63, 30583.62, 26421.75, 39819.14, 29744.43, 0.00, 0.00, 0.00, 0.00
217, 39216.94, 45181.84, 16303.50, 30514.29, 26332.23, 39779.53, 29699.12, 0.00, 0.00, 0.00, 0.00
218, 39214.19, 45222.96, 16301.01, 30461.98, 26161.46, 39066.40, 29668.16, 0.00, 0.00, 0.00, 0.00
219, 39210.39, 45228.84, 16331.35, 30510.89, 26225.12, 39077.87, 29709.69, 0.00, 0.00, 0.00, 0.00
220, 39224.70, 45213.33, 16345.23, 30583.67, 26399.02, 39707.85, 29750.66, 0.00, 0.00, 0.00, 0.00
221, 39250.24, 45217.11, 16308.35, 30540.75, 26372.62, 39896.90, 29717.07, 0.00, 0.00, 0.00, 0.00
222, 39248.30, 45257.79, 16297.95, 30466.97, 26171.30, 39153.64, 29670.87, 0.00, 0.15, 0.94, 0.32
223, 39242.84, 45273.88, 16327.46, 30507.20, 26207.51, 39019.62, 29702.70, 0.00, 0.00, 0.00, 0.00
224, 39251.59, 45256.85, 16344.76, 30580.38, 26369.20, 39574.14, 29745.12, 0.00, 0.00, 0.00, 0.00
225, 39273.80, 45248.22, 16320.84, 30561.45, 26413.93, 39965.39, 29734.48, 0.00, 0.00, 0.00, 0.00
226, 39280.46, 45290.87, 16300.70, 30470.12, 26199.73, 39270.09, 29688.66, 0.00, 0.00, 0.00, 0.00
227, 39277.47, 45308.84, 16333.34, 30495.36, 26201.47, 38991.14, 29708.69, 0.00, 0.00, 0.00, 0.00
228, 39275.41, 45289.33, 16345.92, 30562.41, 26336.79, 39443.74, 29740.16, 0.00, 0.00, 0.00, 0.00
229, 39298.50, 45273.88, 16326.74, 30576.60, 26433.42, 39991.18, 29732.20, 0.00, 0.00, 0.00, 0.00
230, 39312.94, 45313.54, 16299.63, 30482.28, 26224.81, 39399.62, 29670.96, 0.00, 0.00, 0.00, 0.00
231, 39302.70, 45333.49, 16324.60, 30489.32, 26183.19, 38974.60, 29678.09, 0.00, 0.00, 0.00, 0.00
232, 39295.28, 45317.47, 16341.70, 30551.68, 26300.29, 39320.58, 29719.50, 0.00, 0.14, 0.93, 0.32
233, 39312.76, 45294.20, 16336.29, 30595.47, 26445.11, 39968.34, 29741.86, 0.00, 0.00, 0.00, 0.00
234, 39320.65, 45312.98, 16297.46, 30490.66, 26257.80, 39537.73, 29681.39, 0.00, 0.00, 0.00, 0.00
235, 39315.62, 45341.94, 16318.45, 30476.83, 26169.89, 38976.93, 29678.67, 0.00, 0.00, 0.00, 0.00
236, 39303.26, 45330.81, 16334.07, 30538.16, 26266.14, 39211.66, 29717.36, 0.00, 0.00, 0.00, 0.00
237, 39324.68, 45313.76, 16339.01, 30604.10, 26437.40, 39899.41, 29742.66, 0.00, 0.00, 0.00, 0.00
238, 39341.39, 45329.54, 16298.09, 30510.15, 26299.58, 39676.16, 29690.00, 0.00, 0.00, 0.00, 0.00
239, 39337.06, 45363.24, 16307.14, 30470.63, 26160.41, 39016.62, 29670.46, 0.00, 0.00, 0.00, 0.00
240, 39335.29, 45364.63, 16332.62, 30531.07, 26238.11, 39130.32, 29706.94, 0.00, 0.00, 0.00, 0.00
241, 39347.56, 45344.09, 16342.95, 30605.93, 26417.66, 39803.92, 29739.84, 0.00, 0.15, 0.93, 0.32
242, 39361.11, 45342.37, 16303.05, 30533.22, 26339.99, 39816.86, 29691.59, 0.00, 0.00, 0.00, 0.00
243, 39355.30, 45372.68, 16304.79, 30464.85, 26159.99, 39081.09, 29649.86, 0.00, 0.00, 0.00, 0.00
244, 39339.98, 45372.32, 16324.60, 30503.56, 26212.92, 39054.84, 29689.69, 0.00, 0.00, 0.00, 0.00
245, 39348.88, 45357.84, 16338.25, 30588.45, 26380.78, 39673.96, 29730.26, 0.00, 0.00, 0.00, 0.00
246, 39375.19, 45358.30, 16309.49, 30555.88, 26376.71, 39916.62, 29705.51, 0.00, 0.00, 0.00, 0.00
247, 39369.33, 45388.64, 16294.15, 30469.09, 26170.45, 39183.28, 29661.23, 0.00, 0.00, 0.00, 0.00
248, 39358.09, 45395.90, 16323.43, 30501.75, 26195.55, 39009.49, 29693.49, 0.00, 0.00, 0.00, 0.00
249, 39358.80, 45377.71, 16342.90, 30578.28, 26350.83, 39544.64, 29737.50, 0.00, 0.00, 0.00, 0.00
250, 39378.16, 45360.36, 16319.75, 30567.66, 26408.65, 39979.80, 29726.28, 0.00, 0.00, 0.00, 0.00
251, 39370.59, 45382.38, 16292.77, 30466.01, 26192.71, 39295.71, 29670.29, 0.00, 0.15, 0.93, 0.32
252, 39360.95, 45398.49, 16321.42, 30492.27, 26185.09, 38981.51, 29692.91, 0.00, 0.00, 0.00, 0.00
253, 39357.57, 45380.07, 16340.49, 30568.71, 26321.26, 39415.13, 29740.85, 0.00, 0.00, 0.00, 0.00
254, 39377.31, 45359.64, 16328.93, 30594.02, 26437.22, 40008.59, 29748.61, 0.00, 0.00, 0.00, 0.00
255, 39377.20, 45381.39, 16286.93, 30482.44, 26221.77, 39446.76, 29680.41, 0.00, 0.00, 0.00, 0.00
0, 39367.39, 45398.96, 16312.33, 30483.96, 26165.67, 38976.70, 29685.96, 0.00, 0.00, 0.00, 0.00
1, 39362.36, 45384.86, 16336.62, 30554.39, 26282.48, 39303.26, 29733.81, 0.00, 0.00, 0.00, 0.00
2, 39383.37, 45358.93, 16333.56, 30596.77, 26435.99, 39977.46, 29760.92, 0.00, 0.00, 0.00, 0.00
3, 39396.27, 45380.75, 16298.58, 30497.70, 26270.00, 39593.75, 29712.31, 0.00, 0.00, 0.00, 0.00
4, 39383.19, 45407.50, 16314.94, 30476.56, 26169.09, 39003.59, 29701.85, 0.00, 0.00, 0.00, 0.00
5, 39370.54, 45398.56, 16336.96, 30538.90, 26262.47, 39205.18, 29736.96, 0.00, 0.15, 0.93, 0.32
6, 39383.10, 45372.56, 16342.72, 30604.66, 26432.99, 39891.02, 29763.54, 0.00, 0.00, 0.00, 0.00
7, 39399.38, 45386.09, 16305.62, 30520.50, 26308.65, 39727.23, 29712.08, 0.00, 0.00, 0.00, 0.00
8, 39387.48, 45412.89, 16313.89, 30474.84, 26165.24, 39039.69, 29688.46, 0.00, 0.00, 0.00, 0.00
9, 39372.42, 45400.66, 16338.57, 30526.20, 26240.30, 39115.51, 29718.01, 0.00, 0.00, 0.00, 0.00
10, 39373.69, 45368.63, 16352.16, 30596.38, 26417.06, 39774.44, 29748.94, 0.00, 0.00, 0.00, 0.00
11, 39382.68, 45361.52, 16313.17, 30532.68, 26359.84, 39848.31, 29717.13, 0.00, 0.00, 0.00, 0.00
12, 39369.91, 45391.34, 16307.61, 30465.29, 26175.14, 39109.29, 29681.39, 0.00, 0.00, 0.00, 0.00
13, 39360.50, 45396.84, 16332.46, 30514.09, 26226.84, 39048.05, 29714.32, 0.00, 0.00, 0.00, 0.00
14, 39370.43, 45375.29, 16349.94, 30591.07, 26394.93, 39653.34, 29759.18, 0.00, 0.00, 0.00, 0.00
15, 39385.67, 45357.81, 16320.39, 30552.73, 26407.58, 39946.93, 29735.62, 0.00, 0.15, 0.92, 0.31
16, 39380.26, 45391.21, 16303.14, 30466.48, 26200.09, 39210.39, 29681.69, 0.00, 0.00, 0.00, 0.00
17, 39369.27, 45400.32, 16333.45, 30497.84, 26221.46, 39003.59, 29707.99, 0.00, 0.00, 0.00, 0.00
18, 39368.64, 45378.35, 16352.00, 30575.35, 26370.32, 39516.99, 29753.28, 0.00, 0.00, 0.00, 0.00
19, 39384.98, 45356.79, 16329.96, 30574.86, 26442.85, 40004.77, 29752.58, 0.00, 0.00, 0.00, 0.00
20, 39383.50, 45387.25, 16303.76, 30471.66, 26222.80, 39343.56, 29688.44, 0.00, 0.00, 0.00, 0.00
21, 39375.26, 45406.58, 16334.48, 30487.91, 26204.02, 38990.72, 29704.66, 0.00, 0.00, 0.00, 0.00
22, 39379.28, 45399.48, 16357.10, 30572.63, 26334.71, 39403.38, 29753.48, 0.00, 0.00, 0.00, 0.00
23, 39407.80, 45386.40, 16349.70, 30615.09, 26459.35, 40030.90, 29762.33, 0.00, 0.00, 0.00, 0.00
24, 39410.28, 45407.61, 16310.49, 30502.73, 26250.96, 39498.48, 29690.38, 0.00, 0.15, 0.93, 0.32
25, 39395.86, 45426.30, 16329.69, 30498.08, 26182.79, 38987.21, 29685.87, 0.00, 0.00, 0.00, 0.00
26, 39380.33, 45409.96, 16346.68, 30561.29, 26287.88, 39285.63, 29718.32, 0.00, 0.00, 0.00, 0.00
27, 39390.23, 45378.09, 16341.11, 30604.14, 26443.92, 39964.38, 29731.71, 0.00, 0.00, 0.00, 0.00
28, 39396.42, 45381.66, 16300.43, 30501.66, 26283.79, 39637.22, 29688.03, 0.00, 0.00, 0.00, 0.00
29, 39377.71, 45395.07, 16315.63, 30464.13, 26169.53, 39008.44, 29675.05, 0.00, 0.00, 0.00, 0.00
30, 39361.49, 45383.79, 16336.89, 30520.88, 26259.81, 39177.53, 29714.47, 0.00, 0.00, 0.00, 0.00
31, 39376.38, 45362.51, 16347.39, 30594.08, 26446.58, 39871.96, 29752.58, 0.00, 0.00, 0.00, 0.00
32, 39393.81, 45371.02, 16307.27, 30512.12, 26339.07, 39762.66, 29699.88, 0.00, 0.00, 0.00, 0.00
33, 39383.39, 45397.38, 16310.20, 30457.34, 26181.58, 39050.08, 29678.27, 0.00, 0.00, 0.00, 0.00
34, 39370.29, 45392.79, 16332.46, 30505.17, 26249.80, 39090.47, 29720.78, 0.00, 0.14, 0.93, 0.31
35, 39377.65, 45370.11, 16345.99, 30583.89, 26424.52, 39745.56, 29756.27, 0.00, 0.00, 0.00, 0.00
36, 39391.33, 45365.30, 16307.97, 30533.73, 26380.94, 39892.90, 29727.91, 0.00, 0.00, 0.00, 0.00
37, 39379.46, 45394.00, 16301.44, 30459.91, 26188.24, 39144.30, 29684.10, 0.00, 0.00, 0.00, 0.00
38, 39368.84, 45398.80, 16333.45, 30504.41, 26234.46, 39046.44, 29713.42, 0.00, 0.00, 0.00, 0.00
39, 39367.41, 45372.41, 16345.23, 30577.95, 26393.47, 39628.97, 29753.14, 0.00, 0.00, 0.00, 0.00
40, 39386.75, 45359.67, 16319.19, 30552.96, 26422.85, 39973.81, 29732.76, 0.00, 0.00, 0.00, 0.00
41, 39382.41, 45389.64, 16299.41, 30460.93, 26209.79, 39249.26, 29679.74, 0.00, 0.00, 0.00, 0.00
42, 39366.27, 45393.80, 16322.72, 30487.40, 26210.28, 39004.84, 29697.71, 0.00, 0.00, 0.00, 0.00
43, 39366.02, 45380.45, 16344.00, 30573.54, 26354.87, 39497.41, 29744.49, 0.00, 0.00, 0.00, 0.00
44, 39388.27, 45365.01, 16328.11, 30586.77, 26449.02, 40017.78, 29738.39, 0.00, 0.15, 0.93, 0.32
45, 39386.32, 45387.65, 16298.49, 30481.01, 26233.04, 39379.44, 29679.23, 0.00, 0.00, 0.00, 0.00
46, 39371.93, 45401.38, 16326.27, 30488.31, 26203.75, 38982.00, 29697.89, 0.00, 0.00, 0.00, 0.00
47, 39363.57, 45387.47, 16347.24, 30560.78, 26330.96, 39365.24, 29740.56, 0.00, 0.00, 0.00, 0.00
48, 39379.84, 45363.24, 16336.42, 30597.66, 26466.10, 40002.45, 29745.59, 0.00, 0.00, 0.00, 0.00
49, 39385.65, 45383.45, 16298.42, 30495.51, 26269.36, 39523.61, 29690.22, 0.00, 0.00, 0.00, 0.00
50, 39378.81, 45411.73, 16324.06, 30487.73, 26195.53, 38994.50, 29693.64, 0.00, 0.00, 0.00, 0.00
51, 39367.88, 45398.67, 16342.10, 30548.55, 26300.98, 39261.31, 29733.83, 0.00, 0.00, 0.00, 0.00
52, 39381.22, 45370.87, 16344.42, 30605.17, 26466.54, 39951.98, 29757.93, 0.00, 0.00, 0.00, 0.00
53, 39390.57, 45378.93, 16302.45, 30510.89, 26315.98, 39680.00, 29699.52, 0.00, 0.00, 0.00, 0.00
54, 39377.85, 45402.65, 16315.45, 30478.75, 26189.49, 39036.96, 29677.84, 0.00, 0.15, 0.93, 0.32
55, 39373.67, 45401.49, 16343.57, 30542.88, 26276.55, 39181.49, 29727.10, 0.00, 0.00, 0.00, 0.00
56, 39387.59, 45378.93, 16351.93, 30614.13, 26452.55, 39866.10, 29758.73, 0.00, 0.00, 0.00, 0.00
57, 39402.68, 45381.55, 16310.83, 30539.25, 26359.72, 39816.30, 29708.35, 0.00, 0.00, 0.00, 0.00
58, 39391.84, 45410.20, 16312.44, 30479.93, 26192.47, 39093.22, 29675.09, 0.00, 0.00, 0.00, 0.00
59, 39375.12, 45403.39, 16337.87, 30525.66, 26250.51, 39099.68, 29708.08, 0.00, 0.00, 0.00, 0.00
60, 39381.76, 45382.33, 16351.17, 30607.34, 26425.04, 39738.34, 29749.70, 0.00, 0.00, 0.00, 0.00
61, 39403.84, 45380.28, 16319.77, 30563.37, 26400.49, 39924.15, 29720.69, 0.00, 0.00, 0.00, 0.00
62, 39396.11, 45408.86, 16311.30, 30482.53, 26203.26, 39185.58, 29678.29, 0.00, 0.00, 0.00, 0.00
63, 39380.66, 45408.98, 16337.38, 30519.81, 26236.50, 39051.98, 29706.34, 0.00, 0.00, 0.00, 0.00
64, 39382.32, 45387.79, 16354.41, 30598.35, 26394.08, 39608.74, 29750.35, 0.00, 0.15, 0.93, 0.33
65, 39405.79, 45375.89, 16332.13, 30587.76, 26439.79, 40002.91, 29738.73, 0.00, 0.00, 0.00, 0.00
66, 39399.91, 45402.80, 16305.62, 30487.64, 26222.22, 39288.91, 29683.47, 0.00, 0.00, 0.00, 0.00
67, 39384.93, 45415.03, 16332.40, 30514.67, 26217.39, 39005.78, 29704.46, 0.00, 0.00, 0.00, 0.00
68, 39378.09, 45397.40, 16352.00, 30597.03, 26354.58, 39471.91, 29747.58, 0.00, 0.00, 0.00, 0.00
69, 39394.34, 45375.70, 16334.27, 30612.10, 26452.53, 40015.21, 29744.76, 0.00, 0.00, 0.00, 0.00
70, 39395.51, 45397.22, 16301.08, 30504.05, 26241.42, 39412.70, 29686.60, 0.00, 0.00, 0.00, 0.00
71, 39385.94, 45413.80, 16330.50, 30514.58, 26202.77, 38996.71, 29703.99, 0.00, 0.00, 0.00, 0.00
72, 39375.10, 45394.89, 16347.33, 30577.34, 26316.59, 39353.78, 29745.05, 0.00, 0.00, 0.00, 0.00
73, 39393.72, 45369.59, 16345.81, 30616.32, 26463.97, 40004.93, 29757.50, 0.00, 0.15, 0.93, 0.32
74, 39400.96, 45390.13, 16307.59, 30516.86, 26279.41, 39565.92, 29696.84, 0.00, 0.00, 0.00, 0.00
75, 39385.18, 45410.54, 16326.25, 30504.97, 26189.25, 39001.63, 29690.47, 0.00, 0.00, 0.00, 0.00
76, 39369.11, 45392.12, 16344.24, 30565.74, 26284.94, 39243.16, 29732.40, 0.00, 0.00, 0.00, 0.00
77, 39385.47, 45366.66, 16348.56, 30625.44, 26453.60, 39932.75, 29757.08, 0.00, 0.00, 0.00, 0.00
78, 39394.81, 45375.20, 16305.87, 30529.60, 26311.04, 39698.78, 29701.09, 0.00, 0.00, 0.00, 0.00
79, 39387.26, 45406.27, 16318.65, 30490.71, 26179.48, 39033.50, 29681.39, 0.00, 0.00, 0.00, 0.00
80, 39381.61, 45405.22, 16346.30, 30547.19, 26263.81, 39150.29, 29723.77, 0.00, 0.00, 0.00, 0.00
81, 39389.56, 45376.66, 16356.38, 30622.76, 26442.02, 39829.64, 29763.76, 0.00, 0.00, 0.00, 0.00
82, 39408.67, 45380.93, 16319.59, 30557.14, 26364.84, 39835.68, 29714.83, 0.00, 0.00, 0.00, 0.00
83, 39392.55, 45406.54, 16315.45, 30484.00, 26185.60, 39102.41, 29668.54, 0.00, 0.14, 0.93, 0.33
84, 39376.82, 45400.88, 16342.86, 30525.20, 26236.61, 39076.57, 29702.70, 0.00, 0.00, 0.00, 0.00
85, 39384.13, 45377.77, 16361.83, 30608.61, 26409.08, 39698.46, 29755.54, 0.00, 0.00, 0.00, 0.00
86, 39402.61, 45370.11, 16333.89, 30572.04, 26402.51, 39932.17, 29732.18, 0.00, 0.00, 0.00, 0.00
87, 39389.11, 45393.60, 16317.22, 30484.56, 26193.27, 39188.78, 29681.28, 0.00, 0.00, 0.00, 0.00
88, 39370.36, 45392.75, 16341.16, 30513.93, 26216.65, 39019.53, 29705.76, 0.00, 0.00, 0.00, 0.00
89, 39374.34, 45376.61, 16358.82, 30591.18, 26376.82, 39555.79, 29752.47, 0.00, 0.00, 0.00, 0.00
90, 39393.00, 45361.34, 16334.34, 30585.14, 26436.68, 39992.63, 29742.21, 0.00, 0.00, 0.00, 0.00
91, 39384.15, 45381.89, 16304.79, 30483.02, 26214.30, 39306.66, 29679.27, 0.00, 0.00, 0.00, 0.00
92, 39365.91, 45387.43, 16327.70, 30496.96, 26198.93, 38987.54, 29693.42, 0.00, 0.00, 0.00, 0.00
93, 39360.28, 45370.04, 16344.56, 30571.17, 26335.65, 39422.38, 29736.11, 0.00, 0.14, 0.93, 0.32
94, 39384.49, 45354.88, 16336.89, 30609.06, 26454.12, 40008.44, 29746.64, 0.00, 0.00, 0.00, 0.00
95, 39390.54, 45386.85, 16305.28, 30510.20, 26243.47, 39447.39, 29687.18, 0.00, 0.00, 0.00, 0.00
96, 39378.27, 45406.02, 16328.26, 30507.07, 26192.22, 38994.58, 29704.37, 0.00, 0.00, 0.00, 0.00
97, 39369.47, 45393.04, 16346.28, 30575.46, 26300.58, 39317.97, 29742.88, 0.00, 0.00, 0.00, 0.00
98, 39390.90, 45373.68, 16346.34, 30624.26, 26452.51, 39978.38, 29756.07, 0.00, 0.00, 0.00, 0.00
99, 39397.65, 45390.16, 16304.21, 30521.04, 26274.05, 39591.00, 29704.60, 0.00, 0.00, 0.00, 0.00
100, 39387.57, 45414.07, 16322.12, 30497.32, 26172.17, 39003.52, 29693.64, 0.00, 0.00, 0.00, 0.00
101, 39375.59, 45402.49, 16343.82, 30557.76, 26266.12, 39210.66, 29728.62, 0.00, 0.00, 0.00, 0.00
102, 39390.59, 45377.26, 16352.45, 30622.85, 26441.13, 39900.75, 29753.99, 0.00, 0.00, 0.00, 0.00
103, 39402.97, 45382.06, 16314.02, 30534.14, 26318.02, 39731.45, 29702.14, 0.00, 0.15, 0.93, 0.33
104, 39389.29, 45404.97, 16319.52, 30488.58, 26174.47, 39055.52, 29688.01, 0.00, 0.00, 0.00, 0.00
105, 39376.24, 45397.42, 16343.57, 30542.58, 26246.87, 39138.42, 29725.14, 0.00, 0.00, 0.00, 0.00
106, 39390.59, 45378.18, 16358.37, 30623.54, 26426.15, 39795.25, 29761.44, 0.00, 0.00, 0.00, 0.00
107, 39412.52, 45382.04, 16321.00, 30566.28, 26370.03, 39863.66, 29725.67, 0.00, 0.00, 0.00, 0.00
108, 39402.48, 45409.45, 16315.21, 30493.72, 26183.68, 39125.79, 29682.82, 0.00, 0.00, 0.00, 0.00
109, 39387.64, 45408.30, 16340.71, 30532.01, 26232.10, 39058.73, 29714.56, 0.00, 0.00, 0.00, 0.00
110, 39394.99, 45391.16, 16356.87, 30613.57, 26402.30, 39660.71, 29759.74, 0.00, 0.00, 0.00, 0.00
111, 39414.42, 45381.50, 16325.18, 30579.22, 26410.44, 39945.56, 29731.84, 0.00, 0.00, 0.00, 0.00
112, 39401.34, 45404.13, 16305.35, 30484.89, 26193.20, 39213.25, 29682.54, 0.00, 0.00, 0.00, 0.00
113, 39389.14, 45411.66, 16338.45, 30518.22, 26210.64, 39017.09, 29717.45, 0.00, 0.15, 0.93, 0.32
114, 39390.79, 45390.91, 16359.11, 30596.12, 26362.96, 39537.98, 29767.25, 0.00, 0.00, 0.00, 0.00
115, 39406.68, 45372.43, 16333.60, 30598.06, 26433.98, 40013.46, 29756.34, 0.00, 0.00, 0.00, 0.00
116, 39402.64, 45398.98, 16302.71, 30494.39, 26213.59, 39345.86, 29691.68, 0.00, 0.00, 0.00, 0.00
117, 39389.09, 45413.00, 16328.49, 30510.87, 26194.48, 38997.18, 29704.15, 0.00, 0.00, 0.00, 0.00
118, 39380.04, 45394.11, 16347.64, 30583.11, 26325.21, 39403.51, 29743.31, 0.00, 0.00, 0.00, 0.00
119, 39403.24, 45374.00, 16343.01, 30612.08, 26454.27, 40012.06, 29756.00, 0.00, 0.00, 0.00, 0.00
120, 39408.67, 45397.69, 16305.44, 30502.49, 26250.60, 39484.98, 29694.45, 0.00, 0.00, 0.00, 0.00
121, 39392.33, 45412.02, 16323.14, 30492.23, 26183.59, 38990.70, 29694.49, 0.00, 0.00, 0.00, 0.00
122, 39380.60, 45396.13, 16343.13, 30561.07, 26292.76, 39285.74, 29734.21, 0.00, 0.14, 0.93, 0.32
123, 39397.52, 45374.78, 16345.18, 30616.46, 26454.94, 39968.70, 29765.19, 0.00, 0.00, 0.00, 0.00
124, 39405.32, 45389.44, 16304.41, 30511.52, 26286.14, 39623.18, 29703.14, 0.00, 0.00, 0.00, 0.00
125, 39393.14, 45412.93, 16322.20, 30489.12, 26179.28, 39009.43, 29692.75, 0.00, 0.00, 0.00, 0.00
126, 39384.18, 45405.22, 16347.24, 30556.46, 26273.13, 39193.36, 29741.10, 0.00, 0.00, 0.00, 0.00
127, 39398.01, 45380.72, 16356.47, 30627.43, 26453.82, 39887.83, 29775.83, 0.00, 0.00, 0.00, 0.00
128, 39410.50, 45384.19, 16312.06, 30542.12, 26339.56, 39773.39, 29716.24, 0.00, 0.00, 0.00, 0.00
129, 39400.22, 45410.76, 16317.22, 30488.27, 26181.56, 39065.10, 29684.08, 0.00, 0.00, 0.00, 0.00
130, 39388.89, 45407.37, 16342.46, 30535.92, 26251.90, 39114.59, 29721.92, 0.00, 0.00, 0.00, 0.00
131, 39397.50, 45385.84, 16353.56, 30612.34, 26426.04, 39765.94, 29754.22, 0.00, 0.00, 0.00, 0.00
132, 39412.74, 45380.03, 16317.42, 30557.31, 26384.76, 39885.77, 29717.09, 0.00, 0.14, 0.93, 0.32
133, 39398.99, 45407.48, 16309.44, 30481.43, 26194.52, 39141.34, 29685.13, 0.00, 0.00, 0.00, 0.00
134, 39380.96, 45406.83, 16337.31, 30519.76, 26236.43, 39046.39, 29726.70, 0.00, 0.00, 0.00, 0.00
135, 39378.16, 45378.24, 16347.98, 30598.64, 26399.82, 39630.29, 29766.26, 0.00, 0.00, 0.00, 0.00
136, 39395.20, 45364.88, 16320.82, 30577.59, 26429.35, 39967.51, 29747.67, 0.00, 0.00, 0.00, 0.00
137, 39390.54, 45396.79, 16306.96, 30488.90, 26217.32, 39246.38, 29697.31, 0.00, 0.00, 0.00, 0.00
138, 39374.95, 45403.97, 16332.84, 30510.64, 26219.06, 39003.95, 29713.38, 0.00, 0.00, 0.00, 0.00
139, 39369.64, 45380.66, 16349.05, 30579.85, 26359.54, 39479.19, 29745.12, 0.00, 0.00, 0.00, 0.00
140, 39397.07, 45368.77, 16334.50, 30590.28, 26449.33, 39992.54, 29748.09, 0.00, 0.00, 0.00, 0.00
141, 39400.18, 45397.71, 16305.66, 30493.08, 26237.97, 39370.05, 29706.74, 0.00, 0.00, 0.00, 0.00
142, 39379.59, 45403.19, 16325.22, 30497.08, 26203.73, 38981.66, 29714.50, 0.00, 0.14, 0.93, 0.32
143, 39367.86, 45382.38, 16346.14, 30569.25, 26328.32, 39371.43, 29758.42, 0.00, 0.00, 0.00, 0.00
144, 39380.38, 45355.04, 16336.40, 30604.21, 26462.07, 40002.20, 29765.66, 0.00, 0.00, 0.00, 0.00
145, 39386.93, 45378.51, 16301.22, 30505.12, 26265.58, 39515.78, 29703.30, 0.00, 0.00, 0.00, 0.00
146, 39371.52, 45397.78, 16322.74, 30493.05, 26190.19, 38992.93, 29704.84, 0.00, 0.00, 0.00, 0.00
147, 39359.14, 45383.07, 16344.74, 30553.92, 26297.77, 39269.02, 29753.55, 0.00, 0.00, 0.00, 0.00
148, 39371.77, 45356.36, 16345.03, 30615.70, 26461.67, 39954.86, 29778.98, 0.00, 0.00, 0.00, 0.00
149, 39382.34, 45370.42, 16305.46, 30519.47, 26306.17, 39665.52, 29723.30, 0.00, 0.00, 0.00, 0.00
150, 39371.81, 45396.61, 16322.03, 30481.95, 26187.33, 39028.20, 29709.63, 0.00, 0.00, 0.00, 0.00
151, 39354.25, 45382.55, 16341.87, 30537.64, 26274.09, 39177.49, 29747.80, 0.00, 0.00, 0.00, 0.00
152, 39369.27, 45359.04, 16353.43, 30609.08, 26449.11, 39857.52, 29777.22, 0.00, 0.15, 0.93, 0.32
153, 39382.61, 45361.90, 16314.96, 30530.56, 26354.25, 39801.46, 29730.55, 0.00, 0.00, 0.00, 0.00
154, 39374.00, 45395.05, 16320.48, 30480.36, 26191.66, 39090.81, 29705.56, 0.00, 0.00, 0.00, 0.00
155, 39361.53, 45390.98, 16345.83, 30531.56, 26255.25, 39108.82, 29740.16, 0.00, 0.00, 0.00, 0.00
156, 39359.70, 45358.89, 16356.65, 30604.21, 26427.16, 39739.57, 29776.26, 0.00, 0.00, 0.00, 0.00
157, 39366.09, 45339.66, 16321.94, 30545.31, 26399.51, 39910.71, 29743.51, 0.00, 0.00, 0.00, 0.00
158, 39359.72, 45374.78, 16314.18, 30469.74, 26199.80, 39168.35, 29696.33, 0.00, 0.00, 0.00, 0.00
159, 39344.61, 45379.09, 16339.64, 30507.00, 26231.98, 39036.83, 29720.42, 0.00, 0.00, 0.00, 0.00
160, 39353.17, 45360.94, 16356.76, 30586.89, 26394.59, 39607.31, 29774.00, 0.00, 0.00, 0.00, 0.00
161, 39385.85, 45363.87, 16337.69, 30582.73, 26441.53, 40003.54, 29768.46, 0.00, 0.15, 0.93, 0.32
162, 39374.45, 45385.86, 16309.64, 30477.47, 26214.44, 39281.09, 29696.71, 0.00, 0.00, 0.00, 0.00
163, 39354.63, 45388.08, 16334.25, 30497.93, 26211.89, 39000.29, 29714.27, 0.00, 0.00, 0.00, 0.00
164, 39352.55, 45372.36, 16350.26, 30574.71, 26359.05, 39477.34, 29768.30, 0.00, 0.00, 0.00, 0.00
165, 39377.13, 45359.31, 16336.20, 30602.29, 26463.97, 40034.39, 29779.09, 0.00, 0.00, 0.00, 0.00
166, 39374.03, 45384.52, 16302.42, 30495.80, 26247.00, 39422.13, 29713.80, 0.00, 0.00, 0.00, 0.00
167, 39360.15, 45400.28, 16324.75, 30495.56, 26202.99, 38997.36, 29719.26, 0.00, 0.00, 0.00, 0.00
168, 39347.99, 45377.30, 16342.77, 30555.13, 26317.30, 39352.55, 29753.90, 0.00, 0.00, 0.00, 0.00
169, 39373.63, 45361.03, 16345.03, 30604.43, 26466.83, 40006.96, 29781.22, 0.00, 0.00, 0.00, 0.00
170, 39389.72, 45392.68, 16313.51, 30514.11, 26289.67, 39572.53, 29730.30, 0.00, 0.00, 0.00, 0.00
171, 39370.52, 45411.81, 16325.96, 30500.05, 26202.68, 39015.68, 29720.53, 0.00, 0.15, 0.93, 0.31
172, 39350.11, 45386.94, 16341.11, 30552.08, 26297.74, 39250.78, 29751.38, 0.00, 0.00, 0.00, 0.00
173, 39363.90, 45357.93, 16349.99, 30611.03, 26464.89, 39939.21, 29775.56, 0.00, 0.00, 0.00, 0.00
174, 39372.46, 45369.43, 16308.30, 30520.72, 26322.49, 39703.36, 29724.38, 0.00, 0.00, 0.00, 0.00
175, 39356.39, 45392.66, 16315.97, 30476.31, 26187.08, 39032.56, 29704.44, 0.00, 0.00, 0.00, 0.00
176, 39348.43, 45392.34, 16341.34, 30543.79, 26271.57, 39159.23, 29754.15, 0.00, 0.00, 0.00, 0.00
177, 39364.21, 45369.50, 16351.91, 30620.64, 26451.57, 39842.99, 29790.63, 0.00, 0.00, 0.00, 0.00
178, 39377.25, 45368.30, 16310.49, 30541.82, 26369.85, 39839.17, 29743.60, 0.00, 0.00, 0.00, 0.00
179, 39360.15, 45392.86, 16304.57, 30477.92, 26189.31, 39106.92, 29703.03, 0.00, 0.00, 0.00, 0.00
180, 39347.50, 45389.77, 16334.25, 30524.12, 26246.09, 39085.13, 29734.41, 0.00, 0.00, 0.00, 0.00
181, 39358.67, 45368.79, 16356.09, 30601.71, 26420.83, 39707.05, 29778.92, 0.00, 0.15, 0.92, 0.31
182, 39373.60, 45359.46, 16320.71, 30559.35, 26404.85, 39934.74, 29744.11, 0.00, 0.00, 0.00, 0.00
183, 39359.12, 45386.20, 16304.01, 30472.58, 26199.39, 39190.12, 29689.91, 0.00, 0.00, 0.00, 0.00
184, 39350.78, 45392.88, 16336.78, 30514.44, 26234.35, 39036.00, 29729.00, 0.00, 0.00, 0.00, 0.00
185, 39353.31, 45373.44, 16354.44, 30598.62, 26394.55, 39585.03, 29782.34, 0.00, 0.00, 0.00, 0.00
186, 39363.14, 45348.80, 16324.84, 30577.74, 26443.61, 40004.05, 29759.98, 0.00, 0.00, 0.00, 0.00
187, 39356.57, 45375.34, 16297.71, 30474.17, 26224.65, 39307.75, 29698.70, 0.00, 0.00, 0.00, 0.00
188, 39343.70, 45386.60, 16323.79, 30490.62, 26216.27, 38996.89, 29715.99, 0.00, 0.00, 0.00, 0.00
189, 39343.20, 45368.36, 16343.66, 30566.57, 26353.24, 39437.93, 29760.54, 0.00, 0.00, 0.00, 0.00
190, 39361.78, 45345.79, 16328.11, 30588.61, 26464.82, 40013.44, 29765.41, 0.00, 0.00, 0.00, 0.00
191, 39362.52, 45366.86, 16292.59, 30477.61, 26254.96, 39440.57, 29701.64, 0.00, 0.15, 0.93, 0.32
192, 39351.16, 45385.17, 16319.66, 30483.73, 26203.69, 38984.66, 29707.50, 0.00, 0.00, 0.00, 0.00
193, 39339.23, 45369.50, 16337.54, 30556.17, 26316.76, 39320.94, 29754.78, 0.00, 0.00, 0.00, 0.00
194, 39356.32, 45346.91, 16331.61, 30606.49, 26466.48, 39982.38, 29773.84, 0.00, 0.00, 0.00, 0.00
195, 39366.16, 45368.07, 16292.03, 30503.38, 26288.76, 39588.38, 29714.54, 0.00, 0.00, 0.00, 0.00
196, 39354.45, 45390.38, 16309.98, 30480.51, 26193.03, 39010.30, 29713.83, 0.00, 0.00, 0.00, 0.00
197, 39344.10, 45381.24, 16330.12, 30545.18, 26289.07, 39231.29, 29756.92, 0.00, 0.00, 0.00, 0.00
198, 39356.30, 45358.57, 16335.82, 30608.05, 26459.81, 39914.69, 29783.38, 0.00, 0.00, 0.00, 0.00
199, 39364.24, 45362.57, 16298.22, 30518.76, 26330.94, 39734.76, 29723.71, 0.00, 0.00, 0.00, 0.00
200, 39356.19, 45391.16, 16306.13, 30475.06, 26189.34, 39055.16, 29694.83, 0.00, 0.00, 0.00, 0.00
201, 39345.51, 45387.63, 16329.51, 30530.45, 26267.01, 39142.62, 29744.25, 0.00, 0.15, 0.93, 0.32
202, 39357.46, 45365.64, 16344.62, 30604.41, 26446.65, 39808.07, 29784.82, 0.00, 0.00, 0.00, 0.00
203, 39377.00, 45367.40, 16308.46, 30548.06, 26385.14, 39870.44, 29750.08, 0.00, 0.00, 0.00, 0.00
204, 39366.79, 45394.18, 16301.95, 30480.47, 26196.11, 39135.42, 29711.26, 0.00, 0.00, 0.00, 0.00
205, 39359.92, 45404.68, 16333.02, 30536.62, 26245.62, 39087.34, 29739.51, 0.00, 0.00, 0.00, 0.00
206, 39375.95, 45395.96, 16353.61, 30624.37, 26415.78, 39701.61, 29784.30, 0.00, 0.00, 0.00, 0.00
207, 39395.46, 45387.25, 16322.67, 30589.99, 26417.44, 39977.34, 29758.06, 0.00, 0.00, 0.00, 0.00
208, 39393.68, 45422.30, 16310.02, 30506.13, 26203.08, 39232.88, 29699.50, 0.00, 0.00, 0.00, 0.00
209, 39382.90, 45429.98, 16340.69, 30531.56, 26220.41, 39024.76, 29723.39, 0.00, 0.00, 0.00, 0.00
210, 39365.98, 45398.45, 16349.90, 30594.51, 26363.75, 39530.69, 29754.62, 0.00, 0.15, 0.94, 0.33
211, 39377.63, 45372.59, 16320.48, 30584.94, 26432.37, 39995.05, 29739.42, 0.00, 0.00, 0.00, 0.00
212, 39373.13, 45396.32, 16288.63, 30485.59, 26215.67, 39333.01, 29683.70, 0.00, 0.00, 0.00, 0.00
213, 39363.68, 45408.80, 16314.81, 30502.66, 26197.32, 38986.89, 29703.97, 0.00, 0.00, 0.00, 0.00
214, 39354.07, 45387.81, 16332.96, 30564.42, 26326.93, 39403.75, 29753.21, 0.00, 0.00, 0.00, 0.00
215, 39374.65, 45367.47, 16325.29, 30590.84, 26449.24, 40005.66, 29762.20, 0.00, 0.00, 0.00, 0.00
216, 39381.47, 45393.84, 16292.48, 30488.31, 26246.69, 39474.16, 29702.07, 0.00, 0.00, 0.00, 0.00
217, 39362.74, 45405.89, 16309.26, 30480.87, 26181.96, 38991.81, 29703.93, 0.00, 0.00, 0.00, 0.00
218, 39356.91, 45394.31, 16331.91, 30549.69, 26295.20, 39290.41, 29744.49, 0.00, 0.00, 0.00, 0.00
219, 39379.53, 45377.10, 16334.48, 30607.20, 26455.72, 39970.59, 29769.30, 0.00, 0.00, 0.00, 0.00
220, 39384.38, 45389.69, 16290.38, 30504.16, 26288.47, 39620.57, 29707.21, 0.00, 0.14, 0.93, 0.33
221, 39366.90, 45410.72, 16301.53, 30476.40, 26181.78, 39008.29, 29692.39, 0.00, 0.00, 0.00, 0.00
222, 39350.54, 45399.81, 16320.39, 30538.25, 26271.44, 39197.20, 29732.87, 0.00, 0.00, 0.00, 0.00
223, 39368.71, 45379.05, 16332.91, 30614.31, 26450.23, 39894.82, 29778.58, 0.00, 0.00, 0.00, 0.00
224, 39382.74, 45380.93, 16297.73, 30529.08, 26341.08, 39772.16, 29735.06, 0.00, 0.00, 0.00, 0.00
225, 39364.10, 45398.22, 16300.30, 30468.89, 26181.96, 39069.91, 29699.75, 0.00, 0.00, 0.00, 0.00
226, 39347.25, 45391.23, 16322.58, 30517.01, 26246.24, 39115.80, 29730.37, 0.00, 0.00, 0.00, 0.00
227, 39358.49, 45370.87, 16337.27, 30595.83, 26421.64, 39762.30, 29766.13, 0.00, 0.00, 0.00, 0.00
228, 39375.41, 45369.21, 16302.51, 30539.72, 26376.76, 39876.18, 29729.25, 0.00, 0.00, 0.00, 0.00
229, 39365.54, 45400.37, 16295.92, 30468.62, 26187.84, 39144.36, 29694.58, 0.00, 0.00, 0.00, 0.00
230, 39355.18, 45408.02, 16325.78, 30515.90, 26233.28, 39063.83, 29730.52, 0.00, 0.14, 0.92, 0.33
231, 39359.70, 45386.02, 16344.06, 30597.53, 26398.77, 39649.07, 29769.53, 0.00, 0.00, 0.00, 0.00
232, 39380.06, 45373.46, 16314.69, 30573.86, 26422.80, 39975.85, 29748.76, 0.00, 0.00, 0.00, 0.00
233, 39373.38, 45402.40, 16294.20, 30476.54, 26210.59, 39247.67, 29692.71, 0.00, 0.00, 0.00, 0.00
234, 39356.01, 45409.91, 16322.92, 30504.81, 26219.51, 39013.67, 29713.94, 0.00, 0.00, 0.00, 0.00
235, 39349.89, 45388.10, 16341.74, 30581.68, 26364.84, 39503.36, 29753.17, 0.00, 0.00, 0.00, 0.00
236, 39367.63, 45364.74, 16323.66, 30576.80, 26447.95, 40002.25, 29746.17, 0.00, 0.00, 0.00, 0.00
237, 39365.80, 45387.52, 16292.19, 30466.99, 26228.83, 39356.97, 29682.29, 0.00, 0.00, 0.00, 0.00
238, 39352.55, 45403.30, 16318.34, 30481.39, 26201.05, 38982.78, 29693.60, 0.00, 0.00, 0.00, 0.00
239, 39350.42, 45392.57, 16339.48, 30557.65, 26329.33, 39378.83, 29736.38, 0.00, 0.00, 0.00, 0.00
240, 39366.65, 45370.04, 16328.37, 30593.79, 26461.65, 40008.14, 29754.19, 0.00, 0.15, 0.93, 0.33
241, 39371.70, 45395.36, 16289.39, 30491.58, 26266.45, 39512.63, 29695.14, 0.00, 0.00, 0.00, 0.00
242, 39362.16, 45419.97, 16313.44, 30490.53, 26198.12, 39002.70, 29706.00, 0.00, 0.00, 0.00, 0.00
243, 39351.79, 45406.05, 16336.93, 30555.53, 26307.04, 39283.97, 29750.91, 0.00, 0.00, 0.00, 0.00
244, 39362.23, 45371.80, 16331.55, 30601.24, 26464.96, 39964.27, 29765.21, 0.00, 0.00, 0.00, 0.00
245, 39370.56, 45382.09, 16289.24, 30502.15, 26305.99, 39662.16, 29699.12, 0.00, 0.00, 0.00, 0.00
246, 39361.29, 45410.72, 16307.36, 30479.98, 26193.81, 39029.27, 29689.46, 0.00, 0.00, 0.00, 0.00
247, 39354.27, 45404.46, 16334.27, 30541.80, 26285.56, 39186.00, 29737.74, 0.00, 0.00, 0.00, 0.00
248, 39364.80, 45374.55, 16343.55, 30607.16, 26460.73, 39870.84, 29772.75, 0.00, 0.00, 0.00, 0.00
249, 39376.66, 45379.32, 16305.46, 30533.87, 26363.95, 39805.04, 29737.79, 0.00, 0.14, 0.93, 0.33
250, 39367.70, 45409.51, 16309.49, 30476.47, 26200.67, 39089.76, 29704.53, 0.00, 0.00, 0.00, 0.00
251, 39356.79, 45406.92, 16335.24, 30521.73, 26263.88, 39108.80, 29732.60, 0.00, 0.00, 0.00, 0.00
252, 39364.39, 45381.50, 16348.56, 30598.26, 26436.32, 39744.77, 29766.09, 0.00, 0.00, 0.00, 0.00
253, 39389.54, 45382.67, 16317.98, 30555.35, 26403.56, 39903.83, 29732.80, 0.00, 0.00, 0.00, 0.00
254, 39382.12, 45412.89, 16310.09, 30475.55, 26204.80, 39163.50, 29691.41, 0.00, 0.00, 0.00, 0.00
255, 39366.72, 45413.80, 16335.08, 30513.24, 26235.47, 39042.62, 29721.87, 0.00, 0.00, 0.00, 0.00
0, 39374.70, 45403.10, 16354.06, 30603.16, 26397.77, 39607.87, 29770.29, 0.00, 0.00, 0.00, 0.00
1, 39398.28, 45393.20, 16330.76, 30585.81, 26437.44, 39985.28, 29759.63, 0.00, 0.00, 0.00, 0.00
2, 39389.43, 45416.48, 16308.61, 30485.39, 26218.93, 39274.83, 29702.14, 0.00, 0.00, 0.00, 0.00
3, 39371.68, 45420.26, 16330.59, 30506.22, 26213.48, 39006.83, 29717.74, 0.00, 0.15, 0.94, 0.33
4, 39365.73, 45396.86, 16348.67, 30583.42, 26353.49, 39479.13, 29758.91, 0.00, 0.00, 0.00, 0.00
5, 39386.25, 45379.83, 16334.74, 30604.95, 26455.17, 40024.46, 29767.14, 0.00, 0.00, 0.00, 0.00
6, 39382.79, 45403.34, 16303.52, 30501.28, 26239.67, 39413.34, 29703.46, 0.00, 0.00, 0.00, 0.00
7, 39364.46, 45410.23, 16327.19, 30502.06, 26198.46, 38994.94, 29704.86, 0.00, 0.00, 0.00, 0.00
8, 39358.49, 45394.09, 16346.95, 30571.89, 26320.16, 39367.03, 29747.35, 0.00, 0.00, 0.00, 0.00
9, 39380.44, 45371.89, 16344.06, 30616.37, 26463.35, 40009.33, 29759.76, 0.00, 0.00, 0.00, 0.00
10, 39386.93, 45389.04, 16303.83, 30510.11, 26274.54, 39554.27, 29702.32, 0.00, 0.00, 0.00, 0.00
11, 39368.75, 45409.22, 16317.40, 30497.46, 26189.70, 39004.57, 29698.81, 0.00, 0.00, 0.00, 0.00
12, 39362.67, 45405.40, 16338.81, 30573.38, 26295.66, 39258.13, 29749.19, 0.00, 0.00, 0.00, 0.00
13, 39379.30, 45379.54, 16340.64, 30632.01, 26462.25, 39948.73, 29775.56, 0.00, 0.15, 0.93, 0.32
14, 39388.04, 45383.02, 16294.26, 30528.75, 26311.78, 39694.98, 29705.58, 0.00, 0.00, 0.00, 0.00
15, 39373.89, 45405.62, 16302.76, 30486.53, 26182.72, 39036.29, 29688.79, 0.00, 0.00, 0.00, 0.00
16, 39361.60, 45400.37, 16327.39, 30547.93, 26264.37, 39169.57, 29733.96, 0.00, 0.00, 0.00, 0.00
17, 39372.89, 45379.92, 16342.30, 30628.53, 26441.73, 39849.09, 29774.22, 0.00, 0.00, 0.00, 0.00
18, 39384.31, 45376.41, 16297.80, 30549.74, 26350.43, 39829.13, 29719.88, 0.00, 0.00, 0.00, 0.00
19, 39379.30, 45408.64, 16299.79, 30495.18, 26180.80, 39107.17, 29691.30, 0.00, 0.00, 0.00, 0.00
20, 39366.88, 45411.05, 16327.55, 30540.37, 26238.58, 39090.56, 29729.14, 0.00, 0.00, 0.00, 0.00
21, 39366.76, 45382.69, 16340.69, 30613.08, 26406.89, 39708.03, 29763.74, 0.00, 0.00, 0.00, 0.00
22, 39379.05, 45363.22, 16300.57, 30561.85, 26386.55, 39918.54, 29728.06, 0.00, 0.00, 0.00, 0.00
23, 39376.51, 45395.25, 16291.94, 30484.38, 26181.74, 39178.88, 29683.45, 0.00, 0.14, 0.93, 0.32
24, 39359.43, 45400.71, 16321.42, 30520.63, 26214.37, 39034.26, 29718.97, 0.00, 0.00, 0.00, 0.00
25, 39352.66, 45377.91, 16339.06, 30604.61, 26378.14, 39588.38, 29767.85, 0.00, 0.00, 0.00, 0.00
26, 39380.00, 45373.91, 16317.35, 30598.71, 26429.30, 40000.93, 29748.67, 0.00, 0.00, 0.00, 0.00
27, 39376.13, 45400.97, 16295.92, 30497.30, 26209.14, 39308.22, 29692.57, 0.00, 0.00, 0.00, 0.00
28, 39357.00, 45404.44, 16321.76, 30514.13, 26201.00, 39007.79, 29715.10, 0.00, 0.00, 0.00, 0.00
29, 39363.30, 45395.07, 16341.32, 30591.74, 26340.39, 39449.22, 29758.82, 0.00, 0.00, 0.00, 0.00
30, 39385.18, 45371.54, 16328.78, 30609.44, 26453.31, 40012.73, 29765.41, 0.00, 0.00, 0.00, 0.00
31, 39387.89, 45398.09, 16296.25, 30505.75, 26244.99, 39442.47, 29708.57, 0.00, 0.00, 0.00, 0.00
32, 39376.69, 45417.16, 16316.86, 30509.04, 26194.03, 39002.59, 29716.58, 0.00, 0.00, 0.00, 0.00
33, 39370.88, 45401.20, 16335.66, 30579.11, 26313.37, 39341.82, 29761.66, 0.00, 0.15, 0.93, 0.32
34, 39394.41, 45381.48, 16336.20, 30630.79, 26468.78, 40001.06, 29780.81, 0.00, 0.00, 0.00, 0.00
35, 39400.02, 45398.22, 16294.60, 30519.83, 26287.51, 39594.17, 29713.36, 0.00, 0.00, 0.00, 0.00
36, 39381.94, 45418.65, 16309.46, 30495.56, 26186.74, 39019.02, 29700.62, 0.00, 0.00, 0.00, 0.00
37, 39369.20, 45405.51, 16334.01, 30557.85, 26282.83, 39237.59, 29743.64, 0.00, 0.00, 0.00, 0.00
38, 39387.97, 45384.19, 16346.03, 30625.51, 26461.76, 39922.47, 29783.10, 0.00, 0.00, 0.00, 0.00
39, 39398.73, 45391.32, 16305.26, 30537.49, 26331.38, 39734.07, 29732.54, 0.00, 0.00, 0.00, 0.00
40, 39387.59, 45418.74, 16313.96, 30493.61, 26188.26, 39057.64, 29705.31, 0.00, 0.00, 0.00, 0.00
41, 39376.75, 45415.30, 16337.92, 30553.63, 26264.66, 39158.76, 29747.22, 0.00, 0.00, 0.00, 0.00
42, 39384.22, 45389.04, 16349.85, 30631.05, 26440.17, 39822.34, 29780.28, 0.00, 0.15, 0.92, 0.32
43, 39396.98, 45383.14, 16311.92, 30560.15, 26370.03, 39856.58, 29726.99, 0.00, 0.00, 0.00, 0.00
44, 39385.94, 45413.36, 16312.73, 30492.12, 26193.25, 39121.74, 29696.62, 0.00, 0.00, 0.00, 0.00
45, 39375.82, 45417.92, 16342.72, 30538.81, 26245.62, 39076.17, 29741.70, 0.00, 0.00, 0.00, 0.00
46, 39382.12, 45396.61, 16356.69, 30619.90, 26413.32, 39686.17, 29778.20, 0.00, 0.00, 0.00, 0.00
47, 39399.26, 45383.16, 16321.82, 30579.89, 26413.95, 39948.80, 29740.65, 0.00, 0.00, 0.00, 0.00
48, 39391.04, 45411.16, 16303.36, 30485.01, 26204.09, 39212.31, 29685.62, 0.00, 0.00, 0.00, 0.00
49, 39377.11, 45416.80, 16329.11, 30518.69, 26222.64, 39019.53, 29709.22, 0.00, 0.00, 0.00, 0.00
50, 39376.42, 45400.48, 16345.85, 30601.86, 26376.96, 39549.02, 29760.32, 0.00, 0.00, 0.00, 0.00
51, 39398.39, 45388.23, 16326.85, 30602.33, 26445.67, 40007.70, 29748.72, 0.00, 0.00, 0.00, 0.00
52, 39394.99, 45414.16, 16300.52, 30500.70, 26225.90, 39335.34, 29684.10, 0.00, 0.16, 0.93, 0.33
53, 39378.48, 45421.83, 16325.07, 30515.90, 26207.71, 38994.29, 29699.86, 0.00, 0.00, 0.00, 0.00
54, 39376.98, 45412.39, 16346.21, 30592.16, 26346.04, 39421.86, 29755.54, 0.00, 0.00, 0.00, 0.00
55, 39400.22, 45396.86, 16341.43, 30619.74, 26471.64, 40018.43, 29769.01, 0.00, 0.00, 0.00, 0.00
56, 39399.62, 45414.09, 16301.77, 30511.70, 26262.00, 39482.59, 29704.13, 0.00, 0.00, 0.00, 0.00
57, 39388.13, 45428.96, 16320.93, 30509.37, 26197.90, 38995.39, 29702.09, 0.00, 0.00, 0.00, 0.00
58, 39377.89, 45413.11, 16344.44, 30573.56, 26310.88, 39307.13, 29744.61, 0.00, 0.00, 0.00, 0.00
59, 39396.36, 45391.99, 16347.51, 30624.28, 26469.22, 39982.24, 29763.27, 0.00, 0.00, 0.00, 0.00
60, 39406.41, 45409.82, 16309.71, 30526.96, 26299.71, 39618.71, 29703.50, 0.00, 0.00, 0.00, 0.00
61, 39386.54, 45424.75, 16319.70, 30498.71, 26188.26, 39009.63, 29683.07, 0.00, 0.00, 0.00, 0.00
62, 39373.56, 45413.85, 16340.67, 30562.61, 26280.76, 39201.67, 29723.55, 0.00, 0.15, 0.93, 0.32
63, 39392.40, 45394.13, 16354.30, 30635.81, 26457.89, 39893.84, 29766.02, 0.00, 0.00, 0.00, 0.00
64, 39400.67, 45396.79, 16312.28, 30544.75, 26341.22, 39758.57, 29722.48, 0.00, 0.00, 0.00, 0.00
65, 39384.53, 45425.05, 16314.34, 30490.64, 26189.40, 39061.57, 29694.09, 0.00, 0.00, 0.00, 0.00
66, 39372.93, 45426.16, 16342.72, 30547.41, 26262.03, 39125.34, 29733.27, 0.00, 0.00, 0.00, 0.00
67, 39384.89, 45403.57, 16356.20, 30627.46, 26436.55, 39789.05, 29775.03, 0.00, 0.00, 0.00, 0.00
68, 39395.17, 45393.57, 16318.54, 30564.80, 26384.65, 39886.93, 29737.68, 0.00, 0.00, 0.00, 0.00
69, 39379.48, 45414.43, 16307.79, 30490.62, 26193.09, 39147.98, 29692.23, 0.00, 0.00, 0.00, 0.00
70, 39370.79, 45415.73, 16338.61, 30529.98, 26236.81, 39071.16, 29724.82, 0.00, 0.00, 0.00, 0.00
71, 39377.96, 45396.26, 16358.33, 30607.00, 26403.29, 39663.35, 29775.14, 0.00, 0.00, 0.00, 0.00
72, 39399.95, 45388.93, 16333.38, 30585.16, 26423.14, 39981.64, 29757.32, 0.00, 0.15, 0.94, 0.32
73, 39384.31, 45412.55, 16307.94, 30489.07, 26204.60, 39252.99, 29699.70, 0.00, 0.00, 0.00, 0.00
74, 39368.75, 45416.35, 16332.15, 30512.16, 26212.87, 39017.50, 29711.81, 0.00, 0.00, 0.00, 0.00
75, 39370.27, 45397.15, 16352.16, 30590.22, 26363.41, 39518.78, 29759.13, 0.00, 0.00, 0.00, 0.00
76, 39396.80, 45385.11, 16337.45, 30601.28, 26451.57, 40023.50, 29767.96, 0.00, 0.00, 0.00, 0.00
77, 39399.26, 45413.63, 16309.93, 30500.27, 26239.54, 39382.54, 29711.35, 0.00, 0.00, 0.00, 0.00
78, 39382.61, 45426.07, 16331.55, 30508.74, 26212.87, 39007.50, 29724.71, 0.00, 0.00, 0.00, 0.00
79, 39376.75, 45415.68, 16346.70, 30590.28, 26339.05, 39410.89, 29770.89, 0.00, 0.00, 0.00, 0.00
80, 39395.13, 45394.76, 16338.19, 30629.47, 26470.97, 40029.63, 29775.52, 0.00, 0.00, 0.00, 0.00
81, 39405.59, 45415.68, 16308.64, 30521.66, 26281.02, 39524.27, 29713.25, 0.00, 0.00, 0.00, 0.00
82, 39401.63, 45442.21, 16340.55, 30518.47, 26216.09, 39028.71, 29727.01, 0.00, 0.15, 0.93, 0.32
83, 39370.74, 45412.15, 16347.46, 30573.41, 26310.48, 39303.48, 29757.66, 0.00, 0.00, 0.00, 0.00
84, 39381.40, 45380.10, 16343.93, 30625.31, 26471.04, 39974.51, 29775.96, 0.00, 0.00, 0.00, 0.00
85, 39395.82, 45396.61, 16306.11, 30528.21, 26314.46, 39665.92, 29722.63, 0.00, 0.00, 0.00, 0.00
86, 39383.86, 45420.55, 16323.46, 30497.14, 26196.29, 39040.18, 29708.42, 0.00, 0.00, 0.00, 0.00
87, 39384.22, 45422.45, 16354.46, 30560.31, 26284.91, 39206.63, 29753.19, 0.00, 0.00, 0.00, 0.00
88, 39392.42, 45399.43, 16360.09, 30629.47, 26457.65, 39893.77, 29780.28, 0.00, 0.00, 0.00, 0.00
89, 39403.84, 45400.32, 16321.76, 30544.62, 26351.14, 39804.28, 29728.98, 0.00, 0.00, 0.00, 0.00
90, 39395.93, 45430.37, 16329.00, 30490.95, 26192.15, 39095.37, 29704.51, 0.00, 0.00, 0.00, 0.00
91, 39384.35, 45427.75, 16355.46, 30543.77, 26257.35, 39124.83, 29748.18, 0.00, 0.14, 0.94, 0.33
92, 39390.25, 45402.29, 16369.10, 30623.92, 26431.61, 39763.77, 29785.87, 0.00, 0.00, 0.00, 0.00
93, 39401.03, 45395.03, 16329.69, 30565.54, 26396.27, 39918.52, 29744.98, 0.00, 0.00, 0.00, 0.00
94, 39383.75, 45419.32, 16313.35, 30482.08, 26201.14, 39178.23, 29699.86, 0.00, 0.00, 0.00, 0.00
95, 39370.47, 45420.73, 16344.29, 30524.86, 26239.72, 39065.62, 29733.16, 0.00, 0.00, 0.00, 0.00
96, 39376.62, 45402.61, 16365.48, 30608.50, 26404.00, 39635.25, 29783.05, 0.00, 0.00, 0.00, 0.00
97, 39399.42, 45396.37, 16341.05, 30595.09, 26442.07, 40003.83, 29769.82, 0.00, 0.00, 0.00, 0.00
98, 39395.46, 45424.62, 16322.14, 30505.86, 26232.12, 39301.00, 29718.83, 0.00, 0.00, 0.00, 0.00
99, 39383.41, 45433.99, 16345.76, 30527.07, 26232.79, 39039.29, 29735.87, 0.00, 0.00, 0.00, 0.00
100, 39385.47, 45420.60, 16361.21, 30605.93, 26375.24, 39508.07, 29776.19, 0.00, 0.00, 0.00, 0.00
101, 39402.61, 45400.50, 16339.59, 30623.03, 26470.54, 40038.95, 29785.26, 0.00, 0.15, 0.93, 0.32
102, 39399.51, 45424.15, 16306.07, 30519.09, 26254.89, 39429.79, 29728.85, 0.00, 0.00, 0.00, 0.00
103, 39386.21, 45438.17, 16330.68, 30522.04, 26218.73, 39026.88, 29739.60, 0.00, 0.00, 0.00, 0.00
104, 39384.15, 45424.80, 16352.51, 30590.46, 26342.54, 39392.91, 29782.85, 0.00, 0.00, 0.00, 0.00
105, 39409.16, 45410.50, 16353.30, 30637.74, 26484.80, 40032.42, 29795.28, 0.00, 0.00, 0.00, 0.00
106, 39411.91, 45430.63, 16318.34, 30531.59, 26295.33, 39576.24, 29730.43, 0.00, 0.00, 0.00, 0.00
107, 39393.56, 45446.48, 16333.42, 30514.00, 26206.71, 39030.79, 29718.01, 0.00, 0.00, 0.00, 0.00
108, 39392.89, 45438.84, 16360.85, 30580.05, 26313.28, 39283.48, 29760.41, 0.00, 0.00, 0.00, 0.00
109, 39400.98, 45407.90, 16360.36, 30638.38, 26478.19, 39966.21, 29783.27, 0.00, 0.00, 0.00, 0.00
110, 39407.87, 45413.31, 16317.09, 30541.56, 26326.40, 39699.11, 29718.28, 0.00, 0.00, 0.00, 0.00
111, 39403.66, 45444.98, 16335.17, 30512.79, 26203.57, 39056.90, 29709.36, 0.00, 0.15, 0.93, 0.32
112, 39390.39, 45436.38, 16353.65, 30565.58, 26283.95, 39196.98, 29761.12, 0.00, 0.00, 0.00, 0.00
113, 39397.94, 45407.25, 16362.24, 30627.95, 26454.32, 39870.46, 29787.19, 0.00, 0.00, 0.00, 0.00
114, 39411.80, 45408.64, 16326.03, 30553.22, 26370.88, 39845.31, 29740.76, 0.00, 0.00, 0.00, 0.00
115, 39403.35, 45440.29, 16329.71, 30495.60, 26207.46, 39126.75, 29709.74, 0.00, 0.00, 0.00, 0.00
116, 39386.07, 45434.48, 16353.27, 30542.41, 26262.92, 39116.40, 29744.14, 0.00, 0.00, 0.00, 0.00
117, 39385.70, 45406.94, 16362.42, 30622.04, 26430.13, 39738.67, 29778.47, 0.00, 0.00, 0.00, 0.00
118, 39405.50, 45403.63, 16329.36, 30579.06, 26411.69, 39946.66, 29746.95, 0.00, 0.00, 0.00, 0.00
119, 39393.36, 45426.07, 16322.12, 30494.10, 26211.06, 39209.63, 29699.92, 0.00, 0.00, 0.00, 0.00
120, 39362.14, 45410.59, 16348.87, 30520.59, 26240.16, 39056.23, 29726.21, 0.00, 0.00, 0.00, 0.00
121, 39365.60, 45385.02, 16368.05, 30596.61, 26393.41, 39596.00, 29762.55, 0.00, 0.15, 0.93, 0.32
122, 39394.46, 45377.26, 16349.27, 30584.76, 26450.81, 40013.24, 29754.91, 0.00, 0.00, 0.00, 0.00
123, 39395.04, 45408.37, 16325.02, 30483.82, 26235.85, 39323.85, 29696.06, 0.00, 0.00, 0.00, 0.00
124, 39371.46, 45408.42, 16343.51, 30496.92, 26223.00, 39020.40, 29711.41, 0.00, 0.00, 0.00, 0.00
125, 39369.18, 45393.57, 16358.75, 30571.24, 26357.40, 39463.93, 29758.20, 0.00, 0.00, 0.00, 0.00
126, 39399.26, 45383.29, 16350.05, 30603.38, 26470.46, 40029.76, 29766.67, 0.00, 0.00, 0.00, 0.00
127, 39397.99, 45404.86, 16313.51, 30492.32, 26262.56, 39451.48, 29711.32, 0.00, 0.00, 0.00, 0.00
128, 39379.93, 45415.84, 16332.33, 30487.35, 26210.41, 39009.83, 29715.64, 0.00, 0.00, 0.00, 0.00
129, 39373.85, 45401.84, 16351.19, 30559.84, 26327.89, 39348.90, 29756.43, 0.00, 0.00, 0.00, 0.00
130, 39387.82, 45375.29, 16347.84, 30606.60, 26476.89, 40005.00, 29776.75, 0.00, 0.15, 0.93, 0.32
131, 39394.23, 45393.89, 16310.92, 30499.13, 26298.19, 39592.49, 29717.67, 0.00, 0.00, 0.00, 0.00
132, 39381.76, 45413.45, 16329.92, 30485.95, 26208.34, 39030.77, 29721.49, 0.00, 0.00, 0.00, 0.00
133, 39373.36, 45405.54, 16352.65, 30550.63, 26308.14, 39257.51, 29766.06, 0.00, 0.00, 0.00, 0.00
134, 39393.03, 45386.42, 16363.24, 30614.63, 26482.19, 39943.95, 29793.71, 0.00, 0.00, 0.00, 0.00
135, 39402.66, 45390.69, 16321.09, 30523.23, 26349.49, 39742.20, 29738.97, 0.00, 0.00, 0.00, 0.00
136, 39395.37, 45419.23, 16329.63, 30483.73, 26211.35, 39077.57, 29712.57, 0.00, 0.00, 0.00, 0.00
137, 39380.26, 45414.50, 16353.03, 30544.87, 26283.21, 39186.21, 29753.48, 0.00, 0.00, 0.00, 0.00
138, 39399.62, 45401.55, 16371.31, 30632.39, 26462.88, 39864.27, 29798.70, 0.00, 0.00, 0.00, 0.00
139, 39421.82, 45407.77, 16338.88, 30562.93, 26390.99, 39889.05, 29749.30, 0.00, 0.00, 0.00, 0.00
140, 39406.10, 45432.00, 16329.25, 30483.26, 26201.63, 39141.95, 29693.98, 0.00, 0.15, 0.93, 0.32
141, 39387.77, 45423.48, 16352.38, 30516.23, 26245.08, 39092.60, 29713.94, 0.00, 0.00, 0.00, 0.00
142, 39396.36, 45403.75, 16372.07, 30603.47, 26417.03, 39708.01, 29755.65, 0.00, 0.00, 0.00, 0.00
143, 39413.75, 45394.74, 16336.53, 30566.32, 26415.49, 39967.22, 29731.35, 0.00, 0.00, 0.00, 0.00
144, 39404.74, 45422.25, 16320.84, 30479.26, 26209.30, 39233.23, 29682.18, 0.00, 0.00, 0.00, 0.00
145, 39387.66, 45423.86, 16345.79, 30511.65, 26230.11, 39046.15, 29712.35, 0.00, 0.00, 0.00, 0.00
146, 39393.07, 45408.13, 16365.01, 30594.22, 26380.62, 39572.60, 29760.77, 0.00, 0.00, 0.00, 0.00
147, 39406.95, 45386.60, 16341.32, 30585.75, 26443.34, 40019.99, 29748.20, 0.00, 0.00, 0.00, 0.00
148, 39408.45, 45414.41, 16312.48, 30485.23, 26229.03, 39348.64, 29693.20, 0.00, 0.00, 0.00, 0.00
149, 39399.22, 45432.96, 16336.64, 30507.65, 26214.46, 39022.25, 29715.28, 0.00, 0.00, 0.00, 0.00
150, 39393.92, 45417.27, 16354.61, 30584.12, 26350.13, 39454.92, 29763.22, 0.00, 0.15, 0.93, 0.33
151, 39415.60, 45401.00, 16346.39, 30618.07, 26468.22, 40046.48, 29772.84, 0.00, 0.00, 0.00, 0.00
152, 39420.32, 45426.30, 16310.83, 30517.06, 26265.18, 39495.93, 29709.18, 0.00, 0.00, 0.00, 0.00
153, 39399.48, 45436.51, 16331.10, 30504.61, 26204.94, 39015.13, 29701.42, 0.00, 0.00, 0.00, 0.00
154, 39389.98, 45422.18, 16358.33, 30570.21, 26321.32, 39330.69, 29746.06, 0.00, 0.00, 0.00, 0.00
155, 39407.93, 45400.35, 16355.62, 30625.82, 26476.78, 40002.47, 29772.79, 0.00, 0.00, 0.00, 0.00
156, 39417.14, 45412.06, 16314.20, 30524.68, 26303.96, 39640.39, 29719.37, 0.00, 0.00, 0.00, 0.00
157, 39404.94, 45437.05, 16333.11, 30500.88, 26202.75, 39040.85, 29711.55, 0.00, 0.00, 0.00, 0.00
158, 39390.81, 45425.05, 16359.08, 30560.09, 26295.51, 39232.41, 29750.26, 0.00, 0.00, 0.00, 0.00
159, 39398.26, 45398.09, 16363.67, 30621.40, 26464.76, 39913.60, 29775.38, 0.00, 0.00, 0.00, 0.00
160, 39410.33, 45404.97, 16324.13, 30535.57, 26351.10, 39766.39, 29728.58, 0.00, 0.15, 0.93, 0.33
161, 39397.61, 45430.14, 16327.35, 30487.18, 26202.30, 39082.45, 29710.29, 0.00, 0.00, 0.00, 0.00
162, 39386.61, 45429.45, 16351.55, 30539.75, 26275.28, 39152.63, 29751.69, 0.00, 0.00, 0.00, 0.00
163, 39395.04, 45404.93, 16364.11, 30615.38, 26455.37, 39805.91, 29785.44, 0.00, 0.00, 0.00, 0.00
164, 39415.82, 45403.88, 16328.71, 30554.19, 26402.10, 39890.51, 29747.00, 0.00, 0.00, 0.00, 0.00
165, 39402.95, 45434.59, 16323.50, 30492.16, 26216.76, 39161.80, 29708.06, 0.00, 0.00, 0.00, 0.00
166, 39382.30, 45431.28, 16343.71, 30535.34, 26254.56, 39086.72, 29734.70, 0.00, 0.00, 0.00, 0.00
167, 39387.53, 45411.57, 16360.45, 30613.02, 26421.17, 39680.80, 29782.00, 0.00, 0.00, 0.00, 0.00
168, 39407.49, 45402.27, 16332.89, 30588.58, 26440.10, 39990.38, 29761.03, 0.00, 0.00, 0.00, 0.00
169, 39398.48, 45425.92, 16312.03, 30494.17, 26228.30, 39256.39, 29704.15, 0.00, 0.00, 0.00, 0.00
170, 39381.56, 45427.04, 16335.06, 30516.86, 26240.68, 39033.18, 29725.94, 0.00, 0.15, 0.93, 0.33
171, 39381.16, 45405.98, 16355.62, 30593.86, 26390.10, 39539.54, 29771.03, 0.00, 0.00, 0.00, 0.00
172, 39394.84, 45384.72, 16333.38, 30594.60, 26460.49, 40028.82, 29757.84, 0.00, 0.00, 0.00, 0.00
173, 39390.32, 45410.92, 16304.17, 30493.12, 26240.37, 39376.35, 29692.73, 0.00, 0.00, 0.00, 0.00
174, 39376.08, 45424.06, 16334.56, 30509.91, 26220.03, 39011.28, 29714.50, 0.00, 0.00, 0.00, 0.00
175, 39371.99, 45410.27, 16355.87, 30580.94, 26355.52, 39412.36, 29765.33, 0.00, 0.00, 0.00, 0.00
176, 39396.38, 45390.36, 16349.50, 30613.93, 26487.40, 40027.61, 29777.13, 0.00, 0.00, 0.00, 0.00
177, 39395.42, 45402.85, 16304.17, 30505.57, 26281.29, 39518.98, 29712.66, 0.00, 0.00, 0.00, 0.00
178, 39388.33, 45432.04, 16326.65, 30507.18, 26213.41, 39014.39, 29708.55, 0.00, 0.00, 0.00, 0.00
179, 39382.79, 45426.99, 16352.04, 30578.77, 26326.06, 39305.99, 29759.29, 0.00, 0.15, 0.93, 0.32
180, 39395.06, 45404.30, 16350.99, 30630.00, 26485.41, 39980.32, 29781.98, 0.00, 0.00, 0.00, 0.00
181, 39401.50, 45415.21, 16310.98, 30529.02, 26321.44, 39662.36, 29717.56, 0.00, 0.00, 0.00, 0.00
182, 39390.12, 45438.61, 16327.68, 30501.50, 26206.66, 39043.45, 29703.37, 0.00, 0.00, 0.00, 0.00
183, 39378.32, 45427.66, 16351.91, 30564.76, 26292.58, 39210.52, 29745.46, 0.00, 0.00, 0.00, 0.00
184, 39393.09, 45408.71, 16364.45, 30640.33, 26471.68, 39898.40, 29783.32, 0.00, 0.00, 0.00, 0.00
185, 39408.02, 45410.96, 16328.57, 30562.52, 26368.42, 39804.50, 29730.48, 0.00, 0.00, 0.00, 0.00
186, 39394.25, 45429.88, 16330.61, 30499.47, 26205.65, 39104.96, 29701.80, 0.00, 0.00, 0.00, 0.00
187, 39381.83, 45428.27, 16358.37, 30547.79, 26271.14, 39142.06, 29748.29, 0.00, 0.00, 0.00, 0.00
188, 39387.48, 45402.98, 16371.22, 30624.93, 26443.63, 39782.10, 29783.18, 0.00, 0.00, 0.00, 0.00
189, 39407.00, 45398.78, 16338.14, 30571.84, 26408.32, 39922.63, 29747.04, 0.00, 0.15, 0.92, 0.32
190, 39397.81, 45429.25, 16329.49, 30497.88, 26216.34, 39190.86, 29699.72, 0.00, 0.00, 0.00, 0.00
191, 39386.45, 45432.07, 16352.98, 30538.79, 26250.83, 39084.62, 29728.36, 0.00, 0.00, 0.00, 0.00
192, 39381.45, 45400.39, 16366.64, 30612.57, 26410.93, 39652.64, 29764.68, 0.00, 0.00, 0.00, 0.00
193, 39401.41, 45390.51, 16340.38, 30595.69, 26442.98, 40005.71, 29752.61, 0.00, 0.00, 0.00, 0.00
194, 39405.14, 45426.50, 16327.35, 30515.74, 26233.10, 39296.80, 29706.61, 0.00, 0.00, 0.00, 0.00
195, 39387.10, 45431.64, 16352.56, 30536.86, 26234.93, 39046.51, 29730.28, 0.00, 0.00, 0.00, 0.00
196, 39386.81, 45415.68, 16372.14, 30614.60, 26377.25, 39533.15, 29779.61, 0.00, 0.00, 0.00, 0.00
197, 39408.83, 45399.10, 16356.72, 30629.02, 26469.67, 40056.14, 29777.17, 0.00, 0.00, 0.00, 0.00
198, 39403.13, 45420.46, 16322.41, 30517.69, 26254.20, 39433.91, 29711.75, 0.00, 0.00, 0.00, 0.00
199, 39387.62, 45432.78, 16345.25, 30521.51, 26216.76, 39033.03, 29717.07, 0.00, 0.15, 0.93, 0.32
200, 39380.62, 45413.78, 16365.37, 30593.68, 26343.59, 39402.91, 29764.88, 0.00, 0.00, 0.00, 0.00
201, 39399.93, 45387.00, 16362.57, 30629.15, 26481.85, 40034.92, 29784.95, 0.00, 0.00, 0.00, 0.00
202, 39406.71, 45403.01, 16322.79, 30518.04, 26287.84, 39556.51, 29717.02, 0.00, 0.00, 0.00, 0.00
203, 39386.70, 45423.46, 16339.30, 30511.09, 26211.53, 39025.72, 29711.08, 0.00, 0.00, 0.00, 0.00
204, 39376.75, 45416.11, 16357.99, 30575.49, 26314.10, 39286.41, 29754.48, 0.00, 0.00, 0.00, 0.00
205, 39400.40, 45399.50, 16365.19, 30637.29, 26483.82, 39963.24, 29782.56, 0.00, 0.00, 0.00, 0.00
206, 39412.90, 45412.46, 16324.10, 30544.75, 26335.27, 39693.32, 29727.62, 0.00, 0.00, 0.00, 0.00
207, 39395.35, 45428.98, 16331.01, 30498.06, 26202.12, 39046.57, 29704.04, 0.00, 0.00, 0.00, 0.00
208, 39373.69, 45413.36, 16350.43, 30543.81, 26280.00, 39173.53, 29735.26, 0.00, 0.00, 0.00, 0.00
209, 39393.83, 45397.89, 16369.59, 30624.88, 26462.95, 39857.00, 29784.55, 0.00, 0.15, 0.93, 0.32
210, 39407.46, 45401.27, 16327.08, 30549.31, 26370.92, 39824.79, 29745.21, 0.00, 0.00, 0.00, 0.00
211, 39393.92, 45429.90, 16324.95, 30491.71, 26200.11, 39111.50, 29709.56, 0.00, 0.00, 0.00, 0.00
212, 39380.46, 45429.34, 16353.63, 30540.80, 26260.57, 39109.58, 29744.40, 0.00, 0.00, 0.00, 0.00
213, 39382.10, 45399.48, 16366.77, 30611.07, 26431.96, 39730.14, 29782.76, 0.00, 0.00, 0.00, 0.00
214, 39398.84, 45389.24, 16333.51, 30560.04, 26407.45, 39909.78, 29742.30, 0.00, 0.00, 0.00, 0.00
215, 39392.45, 45419.75, 16321.82, 30482.01, 26206.12, 39174.29, 29693.93, 0.00, 0.00, 0.00, 0.00
216, 39379.97, 45426.95, 16350.93, 30526.00, 26241.26, 39037.03, 29726.12, 0.00, 0.00, 0.00, 0.00
217, 39381.16, 45407.03, 16368.74, 30603.09, 26397.59, 39589.41, 29770.91, 0.00, 0.00, 0.00, 0.00
218, 39401.07, 45394.74, 16341.63, 30587.71, 26441.06, 39988.19, 29755.11, 0.00, 0.15, 0.93, 0.32
219, 39400.63, 45423.39, 16317.02, 30490.44, 26224.83, 39288.35, 29694.18, 0.00, 0.00, 0.00, 0.00
220, 39385.47, 45428.22, 16341.70, 30509.53, 26221.12, 38998.63, 29711.23, 0.00, 0.00, 0.00, 0.00
221, 39377.43, 45407.97, 16358.86, 30585.25, 26361.13, 39459.21, 29759.36, 0.00, 0.00, 0.00, 0.00
222, 39400.56, 45393.66, 16346.37, 30607.65, 26466.37, 40017.71, 29761.10, 0.00, 0.00, 0.00, 0.00
223, 39399.60, 45415.86, 16315.21, 30503.25, 26259.72, 39427.20, 29700.06, 0.00, 0.00, 0.00, 0.00
224, 39386.10, 45430.54, 16341.32, 30508.07, 26218.10, 38998.00, 29708.73, 0.00, 0.00, 0.00, 0.00
225, 39373.25, 45408.30, 16358.15, 30575.08, 26331.23, 39347.99, 29755.42, 0.00, 0.00, 0.00, 0.00
226, 39390.61, 45389.37, 16354.95, 30624.46, 26475.10, 40000.08, 29771.49, 0.00, 0.00, 0.00, 0.00
227, 39390.23, 45404.28, 16312.55, 30523.52, 26289.56, 39580.51, 29712.78, 0.00, 0.00, 0.00, 0.00
228, 39378.70, 45429.05, 16332.62, 30504.16, 26201.21, 39019.42, 29708.33, 0.00, 0.16, 0.93, 0.32
229, 39367.72, 45416.26, 16352.60, 30562.86, 26295.48, 39244.23, 29747.47, 0.00, 0.00, 0.00, 0.00
230, 39382.81, 45388.25, 16356.96, 30624.15, 26461.83, 39925.11, 29772.14, 0.00, 0.00, 0.00, 0.00
231, 39393.41, 45394.52, 16317.02, 30534.70, 26325.66, 39707.02, 29714.23, 0.00, 0.00, 0.00, 0.00
232, 39381.16, 45418.77, 16325.80, 30493.61, 26192.53, 39040.29, 29695.68, 0.00, 0.00, 0.00, 0.00
233, 39365.94, 45408.77, 16347.84, 30543.57, 26269.65, 39141.43, 29736.11, 0.00, 0.00, 0.00, 0.00
234, 39374.07, 45382.11, 16359.44, 30617.51, 26446.05, 39809.95, 29776.23, 0.00, 0.00, 0.00, 0.00
235, 39391.68, 45383.65, 16323.59, 30548.15, 26373.98, 39836.64, 29737.30, 0.00, 0.00, 0.00, 0.00
236, 39378.16, 45408.19, 16321.11, 30476.33, 26195.48, 39105.07, 29696.95, 0.00, 0.00, 0.00, 0.00
237, 39361.82, 45401.40, 16344.24, 30520.84, 26244.93, 39075.21, 29728.40, 0.00, 0.00, 0.00, 0.00
238, 39372.17, 45383.27, 16364.72, 30608.77, 26418.17, 39695.94, 29772.77, 0.00, 0.15, 0.93, 0.33
239, 39393.03, 45377.19, 16335.17, 30572.45, 26416.68, 39945.79, 29740.58, 0.00, 0.00, 0.00, 0.00
240, 39384.40, 45408.98, 16321.44, 30481.77, 26208.18, 39209.43, 29686.83, 0.00, 0.00, 0.00, 0.00
241, 39369.96, 45413.73, 16348.54, 30512.79, 26231.80, 39034.95, 29721.31, 0.00, 0.00, 0.00, 0.00
242, 39371.16, 45393.02, 16361.19, 30590.24, 26384.40, 39565.16, 29767.78, 0.00, 0.00, 0.00, 0.00
243, 39390.23, 45376.75, 16334.01, 30581.81, 26441.60, 39999.21, 29753.30, 0.00, 0.00, 0.00, 0.00
244, 39385.98, 45404.26, 16308.35, 30480.87, 26223.65, 39323.89, 29692.30, 0.00, 0.00, 0.00, 0.00
245, 39373.67, 45415.34, 16336.08, 30503.85, 26211.80, 39011.97, 29714.95, 0.00, 0.00, 0.00, 0.00
246, 39371.32, 45396.48, 16352.31, 30582.71, 26343.68, 39446.22, 29763.20, 0.00, 0.00, 0.00, 0.00
247, 39393.41, 45374.93, 16340.58, 30611.23, 26461.18, 40029.07, 29767.56, 0.00, 0.00, 0.00, 0.00
248, 39399.55, 45402.16, 16306.56, 30510.13, 26256.68, 39469.00, 29711.79, 0.00, 0.15, 0.93, 0.32
249, 39382.57, 45418.41, 16326.54, 30503.96, 26197.23, 39001.63, 29717.22, 0.00, 0.00, 0.00, 0.00
250, 39377.69, 45406.58, 16349.83, 30568.94, 26314.62, 39330.42, 29766.94, 0.00, 0.00, 0.00, 0.00
251, 39391.80, 45381.17, 16349.07, 30613.69, 26469.79, 39989.46, 29782.42, 0.00, 0.00, 0.00, 0.00
252, 39393.43, 45397.26, 16303.83, 30508.97, 26290.86, 39605.01, 29715.99, 0.00, 0.00, 0.00, 0.00
253, 39377.71, 45418.36, 16318.87, 30488.70, 26189.58, 39017.16, 29702.58, 0.00, 0.00, 0.00, 0.00
254, 39372.20, 45409.91, 16345.18, 30552.89, 26285.74, 39221.48, 29743.82, 0.00, 0.00, 0.00, 0.00
255, 39390.68, 45386.80, 16359.53, 30622.78, 26463.62, 39900.12, 29780.10, 0.00, 0.00, 0.00, 0.00
0, 39404.31, 45396.70, 16322.99, 30534.81, 26342.85, 39727.95, 29723.30, 0.00, 0.00, 0.00, 0.00
1, 39391.33, 45420.17, 16326.45, 30481.21, 26193.00, 39050.24, 29695.63, 0.00, 0.00, 0.00, 0.00
2, 39381.52, 45416.08, 16353.56, 30532.88, 26268.15, 39123.91, 29738.86, 0.00, 0.15, 0.94, 0.32
3, 39387.95, 45387.88, 16364.83, 30608.66, 26444.75, 39778.04, 29769.35, 0.00, 0.00, 0.00, 0.00
4, 39402.08, 45382.94, 16328.57, 30550.77, 26390.17, 39848.40, 29728.13, 0.00, 0.00, 0.00, 0.00
5, 39392.98, 45414.12, 16326.38, 30481.47, 26209.21, 39125.54, 29701.47, 0.00, 0.00, 0.00, 0.00
6, 39376.89, 45416.04, 16350.19, 30520.84, 26252.30, 39070.42, 29736.58, 0.00, 0.00, 0.00, 0.00
7, 39371.32, 45384.59, 16360.34, 30595.71, 26411.42, 39662.75, 29765.35, 0.00, 0.00, 0.00, 0.00
8, 39389.50, 45374.22, 16330.85, 30569.14, 26422.98, 39953.05, 29742.75, 0.00, 0.00, 0.00, 0.00
9, 39384.98, 45407.70, 16315.77, 30480.36, 26215.64, 39222.23, 29690.04, 0.00, 0.00, 0.00, 0.00
10, 39373.36, 45418.18, 16340.64, 30507.89, 26227.78, 39007.44, 29715.59, 0.00, 0.00, 0.00, 0.00
11, 39376.60, 45403.75, 16354.53, 30590.13, 26372.89, 39520.52, 29761.53, 0.00, 0.15, 0.93, 0.32
12, 39390.16, 45378.82, 16336.73, 30602.98, 26458.25, 40006.40, 29768.92, 0.00, 0.00, 0.00, 0.00
13, 39371.37, 45391.43, 16307.34, 30497.48, 26243.67, 39351.21, 29711.03, 0.00, 0.00, 0.00, 0.00
14, 39340.61, 45389.64, 16326.45, 30503.96, 26216.03, 38998.07, 29723.53, 0.00, 0.00, 0.00, 0.00
15, 39332.50, 45368.70, 16342.77, 30577.52, 26344.46, 39404.05, 29763.94, 0.00, 0.00, 0.00, 0.00
16, 39350.45, 45343.55, 16339.08, 30614.00, 26478.46, 40007.12, 29776.26, 0.00, 0.00, 0.00, 0.00
17, 39348.48, 45359.18, 16305.17, 30509.10, 26279.59, 39487.20, 29718.01, 0.00, 0.00, 0.00, 0.00
18, 39325.12, 45366.62, 16323.30, 30496.12, 26210.68, 38992.33, 29720.02, 0.00, 0.00, 0.00, 0.00
19, 39316.34, 45351.09, 16344.67, 30561.63, 26319.80, 39286.88, 29768.41, 0.00, 0.00, 0.00, 0.00
20, 39338.91, 45333.02, 16344.89, 30615.70, 26480.71, 39963.78, 29789.58, 0.00, 0.00, 0.00, 0.00
21, 39339.80, 45342.52, 16295.54, 30510.89, 26307.71, 39627.70, 29717.29, 0.00, 0.15, 0.93, 0.32
22, 39335.43, 45370.29, 16311.30, 30483.71, 26197.34, 39011.97, 29705.22, 0.00, 0.00, 0.00, 0.00
23, 39330.26, 45369.10, 16338.52, 30542.63, 26289.85, 39185.04, 29743.00, 0.00, 0.00, 0.00, 0.00
24, 39345.13, 45347.73, 16348.96, 30612.30, 26465.07, 39875.62, 29776.17, 0.00, 0.00, 0.00, 0.00
25, 39354.49, 45351.22, 16307.81, 30527.70, 26357.82, 39763.15, 29723.26, 0.00, 0.00, 0.00, 0.00
26, 39343.23, 45376.48, 16309.58, 30477.12, 26200.45, 39061.10, 29691.07, 0.00, 0.00, 0.00, 0.00
27, 39333.95, 45373.21, 16335.15, 30528.37, 26264.82, 39099.59, 29723.21, 0.00, 0.00, 0.00, 0.00
28, 39334.84, 45340.16, 16343.33, 30601.59, 26433.40, 39750.52, 29759.49, 0.00, 0.00, 0.00, 0.00
29, 39354.38, 45341.56, 16308.61, 30551.55, 26391.66, 39884.23, 29735.13, 0.00, 0.00, 0.00, 0.00
30, 39348.14, 45375.78, 16302.69, 30482.15, 26199.80, 39154.29, 29697.40, 0.00, 0.00, 0.00, 0.00
31, 39333.84, 45379.49, 16328.93, 30516.93, 26237.95, 39053.66, 29718.99, 0.00, 0.15, 0.93, 0.33
32, 39341.62, 45363.73, 16349.47, 30599.80, 26405.72, 39632.52, 29760.61, 0.00, 0.00, 0.00, 0.00
33, 39359.39, 45350.19, 16320.17, 30575.49, 26431.76, 39975.31, 29742.91, 0.00, 0.00, 0.00, 0.00
34, 39351.83, 45375.80, 16298.06, 30475.91, 26214.46, 39255.65, 29685.78, 0.00, 0.00, 0.00, 0.00
35, 39338.20, 45383.98, 16328.35, 30503.63, 26220.36, 39010.03, 29708.11, 0.00, 0.00, 0.00, 0.00
36, 39335.11, 45365.12, 16347.04, 30582.10, 26367.64, 39501.05, 29754.26, 0.00, 0.00, 0.00, 0.00
37, 39363.93, 45352.05, 16333.47, 30599.22, 26458.54, 40019.70, 29755.00, 0.00, 0.00, 0.00, 0.00
38, 39359.27, 45376.01, 16301.15, 30494.48, 26236.99, 39382.72, 29687.34, 0.00, 0.00, 0.00, 0.00
39, 39342.62, 45390.98, 16324.86, 30504.32, 26205.65, 38994.79, 29700.79, 0.00, 0.00, 0.00, 0.00
40, 39341.89, 45378.46, 16347.44, 30574.26, 26335.36, 39382.83, 29749.93, 0.00, 0.00, 0.00, 0.00
41, 39363.28, 45360.23, 16344.33, 30615.05, 26475.66, 40009.62, 29768.23, 0.00, 0.15, 0.93, 0.34
42, 39360.71, 45371.49, 16303.12, 30506.08, 26279.97, 39525.44, 29705.89, 0.00, 0.00, 0.00, 0.00
43, 39346.69, 45388.90, 16323.68, 30497.43, 26204.29, 39002.86, 29707.28, 0.00, 0.00, 0.00, 0.00
44, 39337.79, 45381.17, 16343.33, 30563.33, 26307.24, 39262.49, 29750.01, 0.00, 0.00, 0.00, 0.00
45, 39349.39, 45353.41, 16343.46, 30617.29, 26470.46, 39942.81, 29774.60, 0.00, 0.00, 0.00, 0.00
46, 39369.85, 45378.87, 16310.92, 30528.55, 26325.28, 39663.88, 29728.49, 0.00, 0.00, 0.00, 0.00
47, 39361.02, 45407.77, 16323.01, 30491.53, 26202.75, 39018.99, 29710.41, 0.00, 0.00, 0.00, 0.00
48, 39342.73, 45394.49, 16340.44, 30542.03, 26286.30, 39155.70, 29747.15, 0.00, 0.00, 0.00, 0.00
49, 39357.80, 45373.73, 16351.19, 30623.21, 26468.40, 39845.43, 29787.54, 0.00, 0.00, 0.00, 0.00
50, 39376.48, 45379.09, 16315.19, 30552.96, 26378.14, 39799.98, 29743.60, 0.00, 0.00, 0.00, 0.00
51, 39349.66, 45386.73, 16306.58, 30475.22, 26206.21, 39080.68, 29702.07, 0.00, 0.15, 0.93, 0.34
52, 39337.06, 45382.36, 16332.87, 30520.95, 26265.96, 39079.90, 29732.20, 0.00, 0.00, 0.00, 0.00
53, 39343.85, 45362.68, 16350.43, 30602.02, 26435.99, 39719.56, 29774.82, 0.00, 0.00, 0.00, 0.00
54, 39359.21, 45355.55, 16315.97, 30552.80, 26405.79, 39902.54, 29739.64, 0.00, 0.00, 0.00, 0.00
55, 39341.39, 45376.92, 16299.94, 30467.62, 26205.25, 39162.00, 29696.10, 0.00, 0.00, 0.00, 0.00
56, 39330.26, 45386.40, 16338.25, 30512.88, 26244.17, 39036.61, 29732.27, 0.00, 0.00, 0.00, 0.00
57, 39331.76, 45361.46, 16359.00, 30590.13, 26406.86, 39596.74, 29775.56, 0.00, 0.00, 0.00, 0.00
58, 39347.07, 45344.58, 16326.05, 30571.13, 26442.98, 39976.27, 29752.16, 0.00, 0.00, 0.00, 0.00
59, 39338.49, 45370.98, 16303.63, 30476.51, 26230.75, 39266.96, 29698.27, 0.00, 0.00, 0.00, 0.00
60, 39323.94, 45374.91, 16328.66, 30492.94, 26226.11, 38992.04, 29718.65, 0.00, 0.15, 0.93, 0.33
61, 39321.21, 45354.21, 16346.39, 30565.74, 26359.66, 39451.77, 29755.18, 0.00, 0.00, 0.00, 0.00
62, 39351.50, 45345.03, 16337.74, 30609.86, 26465.98, 40000.30, 29761.93, 0.00, 0.00, 0.00, 0.00
63, 39346.24, 45367.38, 16300.46, 30525.37, 26248.17, 39394.81, 29692.35, 0.00, 0.00, 0.00, 0.00
64, 39335.38, 45388.25, 16325.69, 30504.68, 26209.74, 38977.62, 29706.79, 0.00, 0.00, 0.00, 0.00
65, 39328.21, 45372.32, 16340.89, 30565.43, 26332.03, 39338.64, 29753.61, 0.00, 0.00, 0.00, 0.00
66, 39347.43, 45349.95, 16337.14, 30619.74, 26476.89, 39988.75, 29770.47, 0.00, 0.00, 0.00, 0.00
67, 39358.58, 45377.53, 16304.19, 30514.51, 26296.65, 39559.82, 29720.29, 0.00, 0.00, 0.00, 0.00
68, 39351.61, 45406.36, 16325.89, 30499.60, 26214.86, 39011.37, 29717.13, 0.00, 0.00, 0.00, 0.00
69, 39344.84, 45401.35, 16350.84, 30574.75, 26320.90, 39251.67, 29762.26, 0.00, 0.00, 0.00, 0.00
70, 39361.51, 45378.46, 16354.23, 30646.54, 26490.19, 39944.36, 29789.91, 0.00, 0.15, 0.93, 0.33
71, 39380.73, 45393.62, 16314.96, 30573.70, 26347.61, 39728.86, 29743.73, 0.00, 0.00, 0.00, 0.00
72, 39373.51, 45422.95, 16327.12, 30537.33, 26213.23, 39064.66, 29720.42, 0.00, 0.00, 0.00, 0.00
73, 39352.28, 45410.50, 16349.61, 30591.89, 26290.26, 39168.70, 29753.30, 0.00, 0.00, 0.00, 0.00
74, 39360.19, 45386.40, 16359.26, 30673.77, 26468.49, 39842.59, 29789.40, 0.00, 0.00, 0.00, 0.00
75, 39364.01, 45377.08, 16313.11, 30613.13, 26388.27, 39841.29, 29742.95, 0.00, 0.00, 0.00, 0.00
76, 39345.42, 45396.17, 16311.99, 30542.61, 26212.27, 39098.70, 29705.22, 0.00, 0.00, 0.00, 0.00
77, 39325.95, 45386.09, 16336.13, 30581.59, 26265.76, 39077.11, 29738.79, 0.00, 0.00, 0.00, 0.00
78, 39330.98, 45362.59, 16350.77, 30679.31, 26437.51, 39703.04, 29781.60, 0.00, 0.00, 0.00, 0.00
79, 39350.67, 45353.97, 16322.41, 30626.61, 26435.27, 39929.45, 29761.03, 0.00, 0.00, 0.00, 0.00
80, 39347.16, 45390.18, 16314.07, 30546.63, 26233.86, 39195.10, 29720.89, 0.00, 0.15, 0.93, 0.32
81, 39336.01, 45398.45, 16342.34, 30595.83, 26259.81, 39036.56, 29747.09, 0.00, 0.00, 0.00, 0.00
82, 39331.18, 45371.76, 16353.30, 30676.52, 26419.00, 39579.91, 29793.55, 0.00, 0.00, 0.00, 0.00
83, 39350.25, 45358.17, 16330.92, 30670.97, 26477.76, 40003.59, 29784.91, 0.00, 0.00, 0.00, 0.00
84, 39345.89, 45385.35, 16305.53, 30579.49, 26258.40, 39316.27, 29726.70, 0.00, 0.00, 0.00, 0.00
85, 39335.40, 45398.09, 16334.95, 30617.06, 26247.74, 39008.64, 29746.48, 0.00, 0.00, 0.00, 0.00
86, 39328.56, 45378.22, 16351.55, 30695.16, 26385.32, 39451.34, 29786.58, 0.00, 0.00, 0.00, 0.00
87, 39337.35, 45350.19, 16336.26, 30709.98, 26493.54, 40025.45, 29783.38, 0.00, 0.00, 0.00, 0.00
88, 39341.26, 45375.22, 16303.16, 30609.62, 26287.64, 39458.36, 29733.36, 0.00, 0.00, 0.00, 0.00
89, 39325.01, 45387.96, 16324.48, 30609.51, 26237.19, 38997.58, 29739.42, 0.00, 0.00, 0.00, 0.00
90, 39322.66, 45379.23, 16349.83, 30677.97, 26357.18, 39329.21, 29785.11, 0.00, 0.15, 0.92, 0.32
91, 39342.96, 45356.83, 16348.38, 30730.63, 26510.55, 39989.93, 29802.76, 0.00, 0.00, 0.00, 0.00
92, 39343.52, 45364.72, 16305.42, 30623.54, 26330.91, 39586.19, 29730.03, 0.00, 0.00, 0.00, 0.00
93, 39329.97, 45387.09, 16323.43, 30599.16, 26232.81, 38999.81, 29716.22, 0.00, 0.00, 0.00, 0.00
94, 39318.89, 45379.45, 16348.65, 30667.13, 26330.31, 39206.63, 29756.68, 0.00, 0.00, 0.00, 0.00
95, 39338.29, 45360.76, 16361.66, 30745.03, 26508.92, 39908.39, 29799.05, 0.00, 0.00, 0.00, 0.00
96, 39346.20, 45367.42, 16319.32, 30636.82, 26384.09, 39736.95, 29745.72, 0.00, 0.00, 0.00, 0.00
97, 39334.84, 45394.22, 16323.72, 30591.36, 26239.61, 39054.51, 29719.08, 0.00, 0.00, 0.00, 0.00
98, 39323.45, 45385.42, 16346.63, 30652.00, 26315.56, 39142.44, 29758.89, 0.00, 0.00, 0.00, 0.00
99, 39333.79, 45362.17, 16361.16, 30734.90, 26494.28, 39814.29, 29797.06, 0.00, 0.15, 0.93, 0.32
100, 39351.54, 45360.54, 16324.84, 30668.02, 26431.85, 39874.82, 29755.85, 0.00, 0.00, 0.00, 0.00
101, 39338.96, 45385.84, 16316.55, 30597.59, 26246.45, 39134.13, 29716.71, 0.00, 0.00, 0.00, 0.00
102, 39324.41, 45387.99, 16342.46, 30641.56, 26296.78, 39074.71, 29746.48, 0.00, 0.00, 0.00, 0.00
103, 39331.83, 45370.53, 16355.96, 30721.22, 26464.26, 39678.10, 29784.01, 0.00, 0.00, 0.00, 0.00
104, 39346.18, 45351.15, 16322.36, 30696.83, 26467.62, 39960.76, 29752.81, 0.00, 0.00, 0.00, 0.00
105, 39338.11, 45379.36, 16308.55, 30597.08, 26265.33, 39220.00, 29707.79, 0.00, 0.00, 0.00, 0.00
106, 39318.24, 45381.62, 16332.96, 30615.03, 26280.98, 39012.18, 29731.60, 0.00, 0.00, 0.00, 0.00
107, 39316.00, 45362.73, 16349.56, 30702.91, 26427.83, 39540.68, 29777.06, 0.00, 0.00, 0.00, 0.00
108, 39345.44, 45356.94, 16332.22, 30715.47, 26507.60, 40030.61, 29781.17, 0.00, 0.00, 0.00, 0.00
109, 39347.14, 45390.45, 16304.08, 30612.75, 26291.62, 39367.59, 29720.00, 0.00, 0.15, 0.94, 0.32
110, 39333.46, 45405.49, 16330.03, 30625.82, 26269.33, 39015.39, 29731.89, 0.00, 0.00, 0.00, 0.00
111, 39326.75, 45384.10, 16348.60, 30696.63, 26396.94, 39419.67, 29764.45, 0.00, 0.00, 0.00, 0.00
112, 39350.74, 45367.54, 16344.74, 30731.50, 26523.25, 40023.88, 29772.28, 0.00, 0.00, 0.00, 0.00
113, 39354.89, 45389.15, 16310.09, 30627.34, 26322.04, 39493.68, 29716.55, 0.00, 0.00, 0.00, 0.00
114, 39344.34, 45406.29, 16333.74, 30620.44, 26256.55, 38997.07, 29712.08, 0.00, 0.00, 0.00, 0.00
115, 39332.61, 45391.70, 16356.51, 30685.79, 26369.54, 39298.01, 29762.26, 0.00, 0.00, 0.00, 0.00
116, 39347.05, 45366.35, 16354.01, 30739.08, 26528.95, 39980.72, 29789.00, 0.00, 0.00, 0.00, 0.00
117, 39355.21, 45383.05, 16314.00, 30645.07, 26367.28, 39642.81, 29727.06, 0.00, 0.00, 0.00, 0.00
118, 39337.91, 45405.80, 16326.09, 30616.72, 26255.05, 39031.49, 29711.12, 0.00, 0.00, 0.00, 0.00
119, 39330.20, 45399.72, 16350.61, 30685.84, 26347.81, 39222.39, 29759.78, 0.00, 0.15, 0.94, 0.32
120, 39344.84, 45376.45, 16361.30, 30757.14, 26522.00, 39913.15, 29798.00, 0.00, 0.00, 0.00, 0.00
121, 39349.89, 45372.00, 16316.04, 30661.99, 26404.90, 39784.11, 29741.97, 0.00, 0.00, 0.00, 0.00
122, 39341.80, 45402.43, 16322.14, 30614.71, 26254.36, 39087.25, 29715.30, 0.00, 0.00, 0.00, 0.00
123, 39331.58, 45403.32, 16348.92, 30670.48, 26326.69, 39140.70, 29754.53, 0.00, 0.00, 0.00, 0.00
124, 39337.37, 45376.57, 16365.08, 30741.61, 26501.88, 39789.48, 29789.71, 0.00, 0.00, 0.00, 0.00
125, 39355.74, 45374.57, 16334.05, 30686.44, 26458.00, 39904.75, 29754.26, 0.00, 0.00, 0.00, 0.00
126, 39349.37, 45405.20, 16328.42, 30608.54, 26268.78, 39162.73, 29714.25, 0.00, 0.00, 0.00, 0.00
127, 39334.13, 45404.24, 16351.78, 30646.70, 26310.17, 39071.74, 29742.79, 0.00, 0.00, 0.00, 0.00
128, 39337.23, 45378.69, 16363.51, 30721.60, 26471.91, 39657.13, 29782.22, 0.00, 0.00, 0.00, 0.00
129, 39354.85, 45365.23, 16334.36, 30694.26, 26488.34, 39974.89, 29754.06, 0.00, 0.14, 0.93, 0.32
130, 39344.77, 45391.12, 16312.82, 30603.43, 26272.11, 39243.80, 29702.09, 0.00, 0.00, 0.00, 0.00
131, 39334.02, 45401.27, 16339.62, 30628.17, 26281.83, 39018.50, 29728.89, 0.00, 0.00, 0.00, 0.00
132, 39334.06, 45382.73, 16358.68, 30706.07, 26428.52, 39524.39, 29776.95, 0.00, 0.00, 0.00, 0.00
133, 39352.08, 45364.07, 16340.20, 30713.06, 26512.32, 40032.89, 29777.24, 0.00, 0.00, 0.00, 0.00
134, 39350.63, 45390.20, 16309.49, 30606.31, 26295.91, 39390.16, 29720.67, 0.00, 0.00, 0.00, 0.00
135, 39336.23, 45402.58, 16332.87, 30609.77, 26263.81, 39002.25, 29732.16, 0.00, 0.00, 0.00, 0.00
136, 39327.58, 45384.28, 16351.22, 30673.66, 26388.98, 39392.67, 29769.30, 0.00, 0.00, 0.00, 0.00
137, 39347.81, 45361.32, 16343.68, 30703.25, 26519.36, 40018.56, 29777.66, 0.00, 0.00, 0.00, 0.00
138, 39355.18, 45384.01, 16306.18, 30600.81, 26323.20, 39526.91, 29720.44, 0.00, 0.00, 0.00, 0.00
139, 39346.71, 45406.14, 16331.06, 30594.31, 26253.20, 39003.73, 29728.31, 0.00, 0.14, 0.92, 0.32
140, 39336.45, 45390.65, 16353.85, 30653.03, 26359.43, 39281.16, 29768.81, 0.00, 0.00, 0.00, 0.00
141, 39348.30, 45363.00, 16352.49, 30702.67, 26519.20, 39968.70, 29785.44, 0.00, 0.00, 0.00, 0.00
142, 39365.54, 45385.53, 16314.07, 30611.61, 26363.52, 39668.04, 29722.99, 0.00, 0.00, 0.00, 0.00
143, 39360.01, 45416.26, 16330.76, 30577.54, 26246.36, 39030.44, 29714.16, 0.00, 0.00, 0.00, 0.00
144, 39348.99, 45405.02, 16353.72, 30634.99, 26334.02, 39184.46, 29756.85, 0.00, 0.00, 0.00, 0.00
145, 39358.16, 45380.36, 16357.86, 30708.99, 26511.65, 39873.72, 29791.21, 0.00, 0.00, 0.00, 0.00
146, 39368.48, 45378.60, 16313.00, 30627.77, 26410.26, 39808.48, 29742.13, 0.00, 0.00, 0.00, 0.00
147, 39356.35, 45404.26, 16316.39, 30567.37, 26249.26, 39083.23, 29710.61, 0.00, 0.00, 0.00, 0.00
148, 39341.50, 45398.71, 16338.43, 30609.95, 26310.04, 39098.14, 29745.68, 0.00, 0.15, 0.93, 0.32
149, 39347.76, 45377.23, 16350.66, 30689.10, 26481.03, 39737.76, 29781.57, 0.00, 0.00, 0.00, 0.00
150, 39360.88, 45373.46, 16317.53, 30648.35, 26457.16, 39913.13, 29754.04, 0.00, 0.00, 0.00, 0.00
151, 39352.41, 45402.54, 16311.25, 30573.61, 26265.73, 39168.39, 29714.23, 0.00, 0.00, 0.00, 0.00
152, 39340.61, 45404.66, 16337.65, 30607.43, 26298.19, 39048.56, 29745.10, 0.00, 0.00, 0.00, 0.00
153, 39337.91, 45377.04, 16350.43, 30683.54, 26453.04, 39616.16, 29784.77, 0.00, 0.00, 0.00, 0.00
154, 39359.34, 45365.97, 16325.60, 30667.53, 26490.93, 39996.41, 29770.80, 0.00, 0.00, 0.00, 0.00
155, 39359.66, 45400.75, 16306.92, 30575.35, 26276.13, 39283.70, 29715.37, 0.00, 0.00, 0.00, 0.00
156, 39348.25, 45413.56, 16336.89, 30602.69, 26279.73, 39016.22, 29737.27, 0.00, 0.00, 0.00, 0.00
157, 39336.03, 45386.87, 16350.14, 30668.60, 26414.91, 39484.04, 29773.04, 0.00, 0.00, 0.00, 0.00
158, 39353.89, 45366.29, 16332.84, 30685.81, 26512.32, 40027.91, 29782.47, 0.00, 0.15, 0.93, 0.32
159, 39356.21, 45393.98, 16300.59, 30583.49, 26300.54, 39423.18, 29722.70, 0.00, 0.00, 0.00, 0.00
160, 39343.76, 45412.26, 16331.50, 30593.44, 26262.16, 39011.86, 29727.33, 0.00, 0.00, 0.00, 0.00
161, 39332.18, 45392.57, 16351.49, 30664.04, 26383.24, 39371.19, 29775.12, 0.00, 0.00, 0.00, 0.00
162, 39353.35, 45369.52, 16346.86, 30703.32, 26529.22, 40020.53, 29798.32, 0.00, 0.00, 0.00, 0.00
163, 39356.84, 45388.59, 16307.81, 30593.14, 26345.40, 39573.94, 29737.32, 0.00, 0.00, 0.00, 0.00
164, 39340.93, 45406.92, 16326.92, 30576.92, 26261.96, 39021.99, 29725.34, 0.00, 0.00, 0.00, 0.00
165, 39329.48, 45396.93, 16349.18, 30638.12, 26363.12, 39261.20, 29760.16, 0.00, 0.00, 0.00, 0.00
166, 39350.82, 45378.31, 16358.28, 30702.20, 26535.63, 39958.84, 29802.99, 0.00, 0.00, 0.00, 0.00
167, 39361.51, 45391.90, 16316.30, 30610.45, 26391.44, 39722.31, 29751.45, 0.00, 0.00, 0.00, 0.00
168, 39352.43, 45421.61, 16329.18, 30571.13, 26260.82, 39062.60, 29728.51, 0.00, 0.15, 0.92, 0.32
169, 39344.90, 45417.18, 16355.15, 30629.24, 26343.50, 39183.86, 29770.69, 0.00, 0.00, 0.00, 0.00
170, 39355.81, 45387.85, 16365.46, 30698.98, 26515.54, 39857.72, 29799.19, 0.00, 0.00, 0.00, 0.00
171, 39370.16, 45387.25, 16324.51, 30622.18, 26431.36, 39847.93, 29748.67, 0.00, 0.00, 0.00, 0.00
172, 39354.80, 45412.24, 16322.27, 30557.54, 26254.25, 39113.05, 29706.67, 0.00, 0.00, 0.00, 0.00
173, 39340.50, 45409.82, 16348.38, 30602.51, 26310.64, 39100.48, 29743.13, 0.00, 0.00, 0.00, 0.00
174, 39352.61, 45395.86, 16369.30, 30684.12, 26490.04, 39735.43, 29791.54, 0.00, 0.00, 0.00, 0.00
175, 39367.88, 45387.05, 16335.93, 30643.97, 26480.58, 39962.97, 29763.89, 0.00, 0.00, 0.00, 0.00
176, 39360.97, 45417.96, 16324.55, 30561.40, 26273.09, 39215.38, 29707.84, 0.00, 0.00, 0.00, 0.00
177, 39346.94, 45421.13, 16353.30, 30589.88, 26297.54, 39049.70, 29730.63, 0.00, 0.00, 0.00, 0.00
178, 39347.18, 45400.48, 16371.18, 30666.01, 26452.69, 39592.94, 29772.21, 0.00, 0.15, 0.93, 0.32
179, 39361.89, 45383.27, 16343.35, 30652.27, 26505.66, 40016.93, 29758.73, 0.00, 0.00, 0.00, 0.00
180, 39351.05, 45402.00, 16311.39, 30548.75, 26283.39, 39319.78, 29701.85, 0.00, 0.00, 0.00, 0.00
181, 39339.47, 45412.26, 16339.21, 30569.16, 26273.54, 39007.39, 29720.31, 0.00, 0.00, 0.00, 0.00
182, 39332.99, 45393.35, 16354.84, 30640.96, 26410.87, 39453.24, 29760.59, 0.00, 0.00, 0.00, 0.00
183, 39347.92, 45370.87, 16337.54, 30659.64, 26523.23, 40032.06, 29769.64, 0.00, 0.00, 0.00, 0.00
184, 39351.05, 45396.82, 16305.11, 30560.38, 26318.64, 39460.28, 29718.99, 0.00, 0.00, 0.00, 0.00
185, 39338.38, 45414.23, 16333.63, 30567.33, 26271.66, 39008.35, 29722.77, 0.00, 0.00, 0.00, 0.00
186, 39330.60, 45400.62, 16352.45, 30633.31, 26391.35, 39348.50, 29770.11, 0.00, 0.00, 0.00, 0.00
187, 39354.25, 45380.25, 16350.66, 30681.32, 26544.89, 40015.52, 29799.10, 0.00, 0.15, 0.94, 0.32
188, 39354.96, 45390.98, 16304.55, 30577.39, 26362.63, 39619.61, 29743.02, 0.00, 0.00, 0.00, 0.00
189, 39335.07, 45409.40, 16314.18, 30554.03, 26261.51, 39040.76, 29731.57, 0.00, 0.00, 0.00, 0.00
190, 39330.71, 45406.36, 16341.85, 30620.68, 26356.04, 39262.29, 29774.45, 0.00, 0.00, 0.00, 0.00
191, 39352.17, 45390.74, 16351.78, 30685.75, 26530.92, 39954.61, 29806.43, 0.00, 0.00, 0.00, 0.00
192, 39366.41, 45399.70, 16313.35, 30595.04, 26407.76, 39764.96, 29755.07, 0.00, 0.00, 0.00, 0.00
193, 39352.91, 45424.98, 16322.27, 30546.74, 26265.96, 39084.57, 29729.29, 0.00, 0.00, 0.00, 0.00
194, 39339.07, 45417.67, 16346.21, 30597.19, 26338.51, 39169.48, 29757.57, 0.00, 0.00, 0.00, 0.00
195, 39345.71, 45388.19, 16357.36, 30670.79, 26513.55, 39833.69, 29788.33, 0.00, 0.00, 0.00, 0.00
196, 39360.88, 45389.62, 16322.12, 30609.77, 26447.07, 39876.72, 29742.41, 0.00, 0.00, 0.00, 0.00
197, 39348.28, 45418.48, 16320.86, 30537.89, 26269.45, 39135.18, 29704.04, 0.00, 0.15, 0.93, 0.32
198, 39331.71, 45413.40, 16346.68, 30577.50, 26319.36, 39083.97, 29734.21, 0.00, 0.00, 0.00, 0.00
199, 39332.97, 45387.18, 16360.54, 30652.38, 26485.50, 39685.92, 29772.12, 0.00, 0.00, 0.00, 0.00
200, 39350.65, 45381.04, 16330.99, 30619.47, 26492.05, 39966.50, 29752.32, 0.00, 0.00, 0.00, 0.00
201, 39345.04, 45410.56, 16314.90, 30531.52, 26281.31, 39224.70, 29692.84, 0.00, 0.00, 0.00, 0.00
202, 39332.63, 45414.86, 16344.47, 30562.75, 26302.97, 39032.65, 29723.04, 0.00, 0.00, 0.00, 0.00
203, 39332.23, 45395.56, 16361.68, 30641.83, 26457.04, 39559.14, 29771.52, 0.00, 0.00, 0.00, 0.00
204, 39349.20, 45378.69, 16337.25, 30638.52, 26528.86, 40023.99, 29764.23, 0.00, 0.00, 0.00, 0.00
205, 39346.51, 45405.09, 16308.12, 30535.07, 26312.27, 39359.27, 29699.92, 0.00, 0.00, 0.00, 0.00
206, 39331.67, 45413.96, 16335.57, 30549.34, 26293.59, 39012.91, 29713.34, 0.00, 0.00, 0.00, 0.00
207, 39324.16, 45395.81, 16353.94, 30622.76, 26430.40, 39421.50, 29761.68, 0.00, 0.15, 0.93, 0.32
208, 39354.11, 45383.09, 16351.04, 30662.14, 26562.99, 40030.39, 29784.46, 0.00, 0.00, 0.00, 0.00
209, 39350.49, 45397.78, 16311.03, 30549.42, 26361.45, 39507.13, 29716.82, 0.00, 0.00, 0.00, 0.00
210, 39336.57, 45417.09, 16331.15, 30544.51, 26300.43, 39018.12, 29712.42, 0.00, 0.00, 0.00, 0.00
211, 39330.53, 45408.98, 16352.56, 30616.39, 26412.68, 39323.49, 29765.19, 0.00, 0.00, 0.00, 0.00
212, 39345.57, 45386.63, 16348.02, 30670.32, 26570.93, 40001.64, 29788.79, 0.00, 0.00, 0.00, 0.00
213, 39356.50, 45406.98, 16310.27, 30572.36, 26415.58, 39660.26, 29730.19, 0.00, 0.00, 0.00, 0.00
214, 39340.39, 45427.24, 16326.00, 30542.72, 26311.51, 39056.57, 29716.51, 0.00, 0.00, 0.00, 0.00
215, 39326.42, 45414.25, 16345.92, 30600.97, 26397.50, 39227.06, 29759.47, 0.00, 0.00, 0.00, 0.00
216, 39342.36, 45393.29, 16357.88, 30670.68, 26572.40, 39904.19, 29791.61, 0.00, 0.00, 0.00, 0.00
217, 39354.58, 45396.05, 16312.59, 30588.21, 26465.78, 39788.36, 29734.90, 0.00, 0.15, 0.93, 0.32
218, 39347.00, 45424.82, 16317.98, 30539.01, 26326.55, 39107.44, 29714.88, 0.00, 0.00, 0.00, 0.00
219, 39330.57, 45422.79, 16338.97, 30586.37, 26387.78, 39148.43, 29751.65, 0.00, 0.00, 0.00, 0.00
220, 39338.71, 45401.60, 16351.49, 30660.96, 26554.50, 39783.94, 29792.24, 0.00, 0.00, 0.00, 0.00
221, 39356.64, 45396.13, 16318.20, 30604.34, 26520.84, 39899.92, 29758.55, 0.00, 0.00, 0.00, 0.00
222, 39345.71, 45423.10, 16311.30, 30531.48, 26348.15, 39180.06, 29714.30, 0.00, 0.00, 0.00, 0.00
223, 39325.73, 45422.03, 16334.07, 30568.56, 26384.80, 39087.70, 29740.07, 0.00, 0.00, 0.00, 0.00
224, 39328.99, 45403.68, 16351.78, 30654.54, 26545.94, 39661.65, 29784.99, 0.00, 0.00, 0.00, 0.00
225, 39349.55, 45394.13, 16324.69, 30632.64, 26576.92, 39986.15, 29764.99, 0.00, 0.00, 0.00, 0.00
226, 39342.73, 45418.09, 16306.27, 30538.90, 26380.18, 39293.38, 29709.51, 0.00, 0.00, 0.00, 0.00
227, 39329.75, 45425.20, 16332.51, 30559.48, 26382.37, 39049.75, 29725.72, 0.00, 0.15, 0.93, 0.33
228, 39330.38, 45413.36, 16352.54, 30637.85, 26519.58, 39528.23, 29773.39, 0.00, 0.00, 0.00, 0.00
229, 39343.38, 45396.75, 16339.08, 30654.25, 26609.95, 40028.13, 29774.11, 0.00, 0.00, 0.00, 0.00
230, 39337.53, 45421.27, 16310.98, 30556.20, 26412.07, 39417.19, 29716.67, 0.00, 0.00, 0.00, 0.00
231, 39323.54, 45432.55, 16332.22, 30560.73, 26381.63, 39049.86, 29729.34, 0.00, 0.00, 0.00, 0.00
232, 39320.32, 45418.56, 16352.18, 30626.87, 26500.85, 39412.70, 29771.76, 0.00, 0.00, 0.00, 0.00
233, 39345.26, 45400.75, 16348.89, 30660.29, 26628.08, 40003.72, 29776.70, 0.00, 0.00, 0.00, 0.00
234, 39355.00, 45420.98, 16316.35, 30558.25, 26454.25, 39531.20, 29719.53, 0.00, 0.00, 0.00, 0.00
235, 39339.49, 45436.71, 16332.80, 30543.75, 26383.04, 39032.31, 29721.58, 0.00, 0.00, 0.00, 0.00
236, 39328.50, 45427.46, 16352.69, 30603.09, 26477.43, 39287.73, 29757.61, 0.00, 0.15, 0.93, 0.33
237, 39345.53, 45410.16, 16360.87, 30662.97, 26637.76, 39949.34, 29784.17, 0.00, 0.00, 0.00, 0.00
238, 39358.52, 45425.54, 16325.33, 30569.90, 26501.93, 39672.58, 29735.15, 0.00, 0.00, 0.00, 0.00
239, 39341.53, 45443.13, 16331.01, 30533.91, 26390.05, 39064.84, 29715.77, 0.00, 0.00, 0.00, 0.00
240, 39332.50, 45439.69, 16353.12, 30595.16, 26468.24, 39201.45, 29754.06, 0.00, 0.00, 0.00, 0.00
241, 39343.85, 45416.46, 16361.43, 30668.83, 26635.77, 39860.04, 29784.19, 0.00, 0.00, 0.00, 0.00
242, 39359.10, 45422.25, 16324.33, 30591.87, 26548.04, 39798.64, 29735.20, 0.00, 0.00, 0.00, 0.00
243, 39345.51, 45448.18, 16322.83, 30533.62, 26403.60, 39125.30, 29710.74, 0.00, 0.00, 0.00, 0.00
244, 39324.23, 45440.13, 16338.10, 30574.99, 26458.61, 39135.33, 29753.14, 0.00, 0.00, 0.00, 0.00
245, 39333.77, 45416.84, 16352.00, 30653.25, 26623.68, 39749.98, 29790.54, 0.00, 0.00, 0.00, 0.00
246, 39355.03, 45415.57, 16323.25, 30611.45, 26604.01, 39913.02, 29757.28, 0.00, 0.15, 0.93, 0.33
247, 39352.59, 45446.75, 16319.10, 30541.31, 26427.09, 39208.38, 29715.99, 0.00, 0.00, 0.00, 0.00
248, 39339.34, 45454.30, 16344.24, 30578.10, 26456.46, 39088.98, 29744.63, 0.00, 0.00, 0.00, 0.00
249, 39334.00, 45430.68, 16357.01, 30654.50, 26600.05, 39630.07, 29779.18, 0.00, 0.00, 0.00, 0.00
250, 39357.64, 45421.67, 16335.57, 30641.96, 26639.19, 39996.68, 29757.97, 0.00, 0.00, 0.00, 0.00
251, 39362.96, 45456.94, 16321.04, 30556.15, 26443.68, 39317.07, 29705.67, 0.00, 0.00, 0.00, 0.00
252, 39353.82, 45471.96, 16350.14, 30585.30, 26442.22, 39057.41, 29730.81, 0.00, 0.00, 0.00, 0.00
253, 39347.85, 45453.90, 16365.46, 30658.30, 26572.60, 39502.57, 29768.30, 0.00, 0.00, 0.00, 0.00
254, 39356.77, 45426.70, 16347.80, 30662.37, 26666.44, 40020.77, 29757.19, 0.00, 0.00, 0.00, 0.00
255, 39354.25, 45444.52, 16315.45, 30554.52, 26470.01, 39435.43, 29692.73, 0.00, 0.00, 0.00, 0.00
0, 39333.82, 45453.48, 16332.80, 30557.87, 26430.85, 39039.15, 29710.29, 0.00, 0.16, 0.92, 0.33
1, 39322.73, 45438.23, 16348.18, 30623.01, 26542.25, 39372.51, 29752.05, 0.00, 0.00, 0.00, 0.00
2, 39335.74, 45412.13, 16342.37, 30660.18, 26679.40, 39984.52, 29772.61, 0.00, 0.00, 0.00, 0.00
3, 39334.44, 45426.34, 16303.50, 30562.10, 26508.52, 39560.35, 29718.63, 0.00, 0.00, 0.00, 0.00
4, 39322.51, 45445.18, 16319.97, 30541.31, 26430.80, 39036.58, 29717.04, 0.00, 0.00, 0.00, 0.00
5, 39310.30, 45437.61, 16338.54, 30604.28, 26520.10, 39266.27, 29760.36, 0.00, 0.00, 0.00, 0.00
6, 39328.68, 45419.55, 16344.67, 30670.97, 26679.80, 39931.84, 29788.06, 0.00, 0.00, 0.00, 0.00
7, 39345.39, 45436.56, 16307.00, 30587.22, 26553.85, 39706.15, 29737.34, 0.00, 0.00, 0.00, 0.00
8, 39325.95, 45454.15, 16309.60, 30539.32, 26432.23, 39072.86, 29712.40, 0.00, 0.00, 0.00, 0.00
9, 39310.39, 45446.66, 16332.89, 30592.47, 26504.54, 39176.57, 29751.80, 0.00, 0.00, 0.00, 0.00
10, 39326.20, 45429.70, 16349.36, 30673.83, 26674.06, 39833.78, 29795.03, 0.00, 0.16, 0.92, 0.33
11, 39344.05, 45434.41, 16311.48, 30611.09, 26599.98, 39834.96, 29752.76, 0.00, 0.00, 0.00, 0.00
12, 39340.43, 45465.84, 16312.95, 30556.89, 26443.10, 39148.39, 29724.78, 0.00, 0.00, 0.00, 0.00
13, 39330.04, 45469.68, 16339.59, 30605.93, 26496.20, 39134.37, 29761.30, 0.00, 0.00, 0.00, 0.00
14, 39327.98, 45441.83, 16352.96, 30675.00, 26652.51, 39733.00, 29791.59, 0.00, 0.00, 0.00, 0.00
15, 39342.71, 45432.11, 16322.34, 30630.29, 26643.14, 39943.71, 29768.32, 0.00, 0.00, 0.00, 0.00
16, 39335.76, 45458.82, 16310.80, 30549.69, 26457.07, 39239.94, 29722.16, 0.00, 0.00, 0.00, 0.00
17, 39321.61, 45464.70, 16337.43, 30587.33, 26478.95, 39082.61, 29746.97, 0.00, 0.00, 0.00, 0.00
18, 39322.86, 45448.83, 16354.95, 30659.51, 26624.71, 39599.18, 29789.64, 0.00, 0.00, 0.00, 0.00
19, 39343.25, 45437.27, 16334.79, 30648.98, 26679.87, 40005.87, 29776.86, 0.00, 0.00, 0.00, 0.00
20, 39334.35, 45456.50, 16306.49, 30549.04, 26477.79, 39344.95, 29713.20, 0.00, 0.17, 0.92, 0.32
21, 39319.00, 45462.64, 16328.22, 30565.07, 26467.01, 39044.83, 29730.37, 0.00, 0.00, 0.00, 0.00
22, 39316.96, 45452.11, 16348.65, 30639.12, 26594.02, 39464.75, 29775.99, 0.00, 0.00, 0.00, 0.00
23, 39338.93, 45437.38, 16338.72, 30659.51, 26701.35, 40013.27, 29782.25, 0.00, 0.00, 0.00, 0.00
24, 39341.53, 45459.58, 16309.49, 30558.83, 26510.60, 39464.64, 29725.94, 0.00, 0.00, 0.00, 0.00
25, 39328.43, 45475.14, 16328.98, 30550.81, 26463.03, 39032.74, 29726.72, 0.00, 0.00, 0.00, 0.00
26, 39325.43, 45469.95, 16349.94, 30621.02, 26571.73, 39350.49, 29767.78, 0.00, 0.00, 0.00, 0.00
27, 39343.54, 45449.54, 16348.98, 30674.59, 26716.46, 39993.39, 29784.32, 0.00, 0.00, 0.00, 0.00
28, 39344.59, 45461.79, 16309.49, 30563.77, 26546.29, 39603.58, 29714.59, 0.00, 0.00, 0.00, 0.00
29, 39332.27, 45481.15, 16322.16, 30538.47, 26458.45, 39041.81, 29708.57, 0.00, 0.16, 0.93, 0.32
30, 39321.88, 45473.80, 16341.94, 30603.47, 26548.08, 39242.09, 29754.95, 0.00, 0.00, 0.00, 0.00
31, 39340.39, 45457.01, 16349.70, 30680.54, 26712.32, 39925.15, 29795.90, 0.00, 0.00, 0.00, 0.00
32, 39354.27, 45464.52, 16312.57, 30597.82, 26596.99, 39753.61, 29744.65, 0.00, 0.00, 0.00, 0.00
33, 39336.61, 45481.86, 16313.93, 30550.56, 26466.23, 39093.87, 29712.93, 0.00, 0.00, 0.00, 0.00
34, 39321.52, 45473.06, 16336.44, 30611.27, 26527.56, 39163.63, 29743.33, 0.00, 0.00, 0.00, 0.00
35, 39328.47, 45450.26, 16348.22, 30682.55, 26694.31, 39815.52, 29789.17, 0.00, 0.00, 0.00, 0.00
36, 39345.19, 45452.41, 16311.74, 30613.66, 26634.76, 39859.93, 29749.23, 0.00, 0.00, 0.00, 0.00
37, 39332.63, 45477.15, 16307.50, 30546.74, 26466.79, 39153.53, 29709.71, 0.00, 0.00, 0.00, 0.00
38, 39318.21, 45478.00, 16333.69, 30593.26, 26510.89, 39107.82, 29749.21, 0.00, 0.00, 0.00, 0.00
39, 39325.21, 45457.68, 16352.85, 30678.39, 26667.78, 39701.99, 29795.52, 0.00, 0.15, 0.93, 0.32
40, 39340.79, 45443.87, 16320.46, 30643.97, 26671.84, 39960.02, 29764.21, 0.00, 0.00, 0.00, 0.00
41, 39332.43, 45466.31, 16306.40, 30553.07, 26482.46, 39249.59, 29708.64, 0.00, 0.00, 0.00, 0.00
42, 39318.75, 45472.28, 16335.12, 30584.94, 26498.01, 39064.86, 29740.56, 0.00, 0.00, 0.00, 0.00
43, 39318.37, 45456.79, 16353.90, 30669.34, 26642.52, 39569.52, 29791.39, 0.00, 0.00, 0.00, 0.00
44, 39336.41, 45437.99, 16333.60, 30668.63, 26708.39, 40007.90, 29778.85, 0.00, 0.00, 0.00, 0.00
45, 39332.54, 45457.77, 16309.91, 30569.45, 26506.55, 39367.81, 29719.86, 0.00, 0.00, 0.00, 0.00
46, 39319.06, 45470.18, 16334.68, 30590.55, 26485.54, 39044.11, 29736.16, 0.00, 0.00, 0.00, 0.00
47, 39315.09, 45457.14, 16351.93, 30670.01, 26604.99, 39440.34, 29778.80, 0.00, 0.00, 0.00, 0.00
48, 39336.14, 45443.02, 16345.25, 30695.87, 26715.45, 40020.20, 29787.90, 0.00, 0.00, 0.00, 0.00
49, 39329.59, 45453.90, 16309.08, 30589.46, 26522.60, 39500.40, 29730.79, 0.00, 0.15, 0.93, 0.32
50, 39316.56, 45465.86, 16329.76, 30585.57, 26462.97, 39025.07, 29728.47, 0.00, 0.00, 0.00, 0.00
51, 39309.09, 45456.38, 16348.56, 30653.70, 26561.83, 39316.11, 29769.59, 0.00, 0.00, 0.00, 0.00
52, 39331.20, 45439.89, 16351.46, 30706.96, 26709.28, 39982.20, 29800.04, 0.00, 0.00, 0.00, 0.00
53, 39339.79, 45454.35, 16308.70, 30604.81, 26546.07, 39637.64, 29732.22, 0.00, 0.00, 0.00, 0.00
54, 39326.91, 45476.05, 16318.45, 30578.26, 26437.15, 39057.97, 29716.02, 0.00, 0.00, 0.00, 0.00
55, 39305.77, 45450.82, 16339.75, 30645.76, 26518.29, 39239.25, 29757.19, 0.00, 0.00, 0.00, 0.00
56, 39306.88, 45412.80, 16352.18, 30701.48, 26685.14, 39897.75, 29785.89, 0.00, 0.00, 0.00, 0.00
57, 39321.77, 45421.29, 16315.90, 30617.35, 26578.41, 39767.64, 29735.64, 0.00, 0.00, 0.00, 0.00
58, 39316.94, 45451.11, 16321.71, 30572.36, 26431.67, 39098.36, 29710.74, 0.00, 0.00, 0.00, 0.00
59, 39302.75, 45443.64, 16342.12, 30620.35, 26490.97, 39151.63, 29753.48, 0.00, 0.13, 0.94, 0.31
60, 39311.60, 45423.57, 16353.12, 30696.68, 26650.83, 39777.16, 29783.50, 0.00, 0.00, 0.00, 0.00
61, 39334.24, 45429.74, 16319.05, 30637.69, 26603.49, 39872.92, 29741.30, 0.00, 0.00, 0.00, 0.00
62, 39331.43, 45463.47, 16317.42, 30573.90, 26433.91, 39163.43, 29702.72, 0.00, 0.00, 0.00, 0.00
63, 39313.16, 45457.75, 16336.96, 30605.62, 26463.91, 39077.46, 29731.75, 0.00, 0.00, 0.00, 0.00
64, 39319.24, 45442.41, 16351.60, 30684.85, 26613.26, 39638.38, 29776.68, 0.00, 0.00, 0.00, 0.00
65, 39340.79, 45436.49, 16326.54, 30666.66, 26639.61, 39962.79, 29767.38, 0.00, 0.00, 0.00, 0.00
66, 39339.47, 45467.16, 16313.06, 30584.49, 26445.15, 39268.62, 29716.20, 0.00, 0.00, 0.00, 0.00
67, 39323.78, 45471.52, 16334.83, 30619.47, 26447.97, 39042.84, 29736.34, 0.00, 0.00, 0.00, 0.00
68, 39316.38, 45447.00, 16344.18, 30694.44, 26576.42, 39518.04, 29774.04, 0.00, 0.13, 0.94, 0.31
69, 39335.89, 45428.04, 16328.42, 30703.00, 26655.75, 39997.91, 29766.06, 0.00, 0.00, 0.00, 0.00
70, 39335.29, 45451.85, 16305.11, 30610.45, 26458.38, 39376.20, 29716.78, 0.00, 0.00, 0.00, 0.00
71, 39322.04, 45469.35, 16324.39, 30626.43, 26431.88, 39014.01, 29727.44, 0.00, 0.00, 0.00, 0.00
72, 39309.30, 45451.89, 16336.89, 30701.08, 26544.97, 39393.47, 29768.70, 0.00, 0.00, 0.00, 0.00
73, 39328.45, 45433.63, 16332.73, 30742.23, 26672.02, 39998.85, 29784.23, 0.00, 0.00, 0.00, 0.00
74, 39338.49, 45453.66, 16300.52, 30642.03, 26493.19, 39516.39, 29723.95, 0.00, 0.00, 0.00, 0.00
75, 39325.93, 45469.17, 16318.05, 30628.77, 26430.11, 39017.98, 29722.37, 0.00, 0.00, 0.00, 0.00
76, 39305.52, 45452.02, 16334.52, 30691.74, 26523.50, 39282.30, 29759.89, 0.00, 0.00, 0.00, 0.00
77, 39317.79, 45428.93, 16336.64, 30748.78, 26675.60, 39933.98, 29776.95, 0.00, 0.00, 0.00, 0.00
78, 39327.76, 45438.86, 16299.32, 30642.61, 26530.40, 39631.83, 29714.86, 0.00, 0.13, 0.93, 0.32
79, 39314.41, 45464.65, 16313.62, 30615.90, 26426.87, 39035.49, 29710.97, 0.00, 0.00, 0.00, 0.00
80, 39300.80, 45456.32, 16333.07, 30672.45, 26503.07, 39185.47, 29753.72, 0.00, 0.00, 0.00, 0.00
81, 39310.53, 45430.61, 16344.56, 30745.34, 26666.84, 39846.01, 29777.71, 0.00, 0.00, 0.00, 0.00
82, 39323.73, 45434.23, 16308.75, 30675.11, 26579.64, 39772.56, 29728.58, 0.00, 0.00, 0.00, 0.00
83, 39313.68, 45460.61, 16310.74, 30624.44, 26432.57, 39092.20, 29701.89, 0.00, 0.00, 0.00, 0.00
84, 39303.04, 45459.98, 16337.16, 30678.86, 26491.09, 39124.25, 29751.15, 0.00, 0.00, 0.00, 0.00
85, 39311.89, 45438.05, 16350.14, 30754.68, 26657.94, 39746.68, 29801.94, 0.00, 0.00, 0.00, 0.00
86, 39328.32, 45432.22, 16314.56, 30703.85, 26630.61, 39886.33, 29754.66, 0.00, 0.00, 0.00, 0.00
87, 39323.51, 45459.56, 16306.65, 30631.75, 26453.27, 39174.38, 29709.47, 0.00, 0.00, 0.00, 0.00
88, 39308.54, 45462.33, 16329.02, 30671.73, 26480.36, 39061.82, 29746.10, 0.00, 0.14, 0.93, 0.33
89, 39311.11, 45445.77, 16344.38, 30748.27, 26625.55, 39617.75, 29793.11, 0.00, 0.00, 0.00, 0.00
90, 39333.91, 45441.00, 16324.35, 30736.20, 26665.25, 39977.52, 29781.80, 0.00, 0.00, 0.00, 0.00
91, 39328.07, 45466.98, 16304.95, 30643.55, 26468.44, 39293.52, 29726.52, 0.00, 0.00, 0.00, 0.00
92, 39311.20, 45471.34, 16327.21, 30667.49, 26463.59, 39032.09, 29742.75, 0.00, 0.00, 0.00, 0.00
93, 39305.79, 45456.16, 16343.24, 30744.91, 26590.26, 39487.73, 29784.71, 0.00, 0.00, 0.00, 0.00
94, 39323.00, 45438.21, 16326.61, 30753.45, 26673.65, 40001.53, 29774.89, 0.00, 0.00, 0.00, 0.00
95, 39328.99, 45460.96, 16299.50, 30654.79, 26482.37, 39410.08, 29716.78, 0.00, 0.00, 0.00, 0.00
96, 39318.86, 45475.61, 16323.39, 30667.71, 26449.33, 39022.14, 29739.78, 0.00, 0.00, 0.00, 0.00
97, 39304.16, 45457.61, 16338.34, 30733.60, 26555.77, 39370.83, 29782.83, 0.00, 0.00, 0.00, 0.00
98, 39318.98, 45433.36, 16331.95, 30769.95, 26688.16, 39988.61, 29788.59, 0.00, 0.15, 0.92, 0.32
99, 39328.00, 45452.38, 16294.44, 30666.93, 26511.07, 39546.29, 29719.24, 0.00, 0.00, 0.00, 0.00
100, 39320.38, 45471.79, 16312.57, 30650.34, 26431.25, 39024.82, 29713.09, 0.00, 0.00, 0.00, 0.00
101, 39301.34, 45447.62, 16334.92, 30709.96, 26527.03, 39272.64, 29762.98, 0.00, 0.00, 0.00, 0.00
102, 39319.20, 45427.97, 16344.85, 30770.21, 26687.02, 39938.70, 29794.49, 0.00, 0.00, 0.00, 0.00
103, 39341.66, 45445.70, 16311.03, 30677.43, 26551.73, 39692.76, 29730.70, 0.00, 0.00, 0.00, 0.00
104, 39347.99, 45481.53, 16326.45, 30649.43, 26428.99, 39066.38, 29708.22, 0.00, 0.00, 0.00, 0.00
105, 39345.17, 45477.66, 16351.73, 30701.57, 26497.68, 39187.99, 29745.90, 0.00, 0.00, 0.00, 0.00
106, 39356.82, 45454.37, 16367.13, 30770.44, 26665.09, 39843.93, 29777.91, 0.00, 0.00, 0.00, 0.00
107, 39379.01, 45456.34, 16334.88, 30696.46, 26589.48, 39815.74, 29736.27, 0.00, 0.00, 0.00, 0.00
108, 39380.44, 45489.20, 16336.29, 30638.85, 26437.06, 39115.73, 29705.87, 0.00, 0.14, 0.92, 0.33
109, 39367.03, 45484.10, 16358.01, 30677.25, 26481.81, 39106.52, 29737.03, 0.00, 0.00, 0.00, 0.00
110, 39382.16, 45468.01, 16374.06, 30753.05, 26639.12, 39718.33, 29782.56, 0.00, 0.00, 0.00, 0.00
111, 39416.16, 45481.62, 16343.80, 30721.82, 26630.43, 39926.11, 29761.62, 0.00, 0.00, 0.00, 0.00
112, 39420.56, 45524.85, 16337.29, 30652.09, 26449.76, 39219.71, 29719.79, 0.00, 0.00, 0.00, 0.00
113, 39410.24, 45533.14, 16359.40, 30683.00, 26468.51, 39074.60, 29745.83, 0.00, 0.00, 0.00, 0.00
114, 39412.94, 45522.32, 16376.54, 30766.13, 26615.85, 39615.54, 29795.93, 0.00, 0.00, 0.00, 0.00
115, 39438.63, 45513.49, 16355.73, 30754.05, 26667.51, 40010.05, 29780.10, 0.00, 0.00, 0.00, 0.00
116, 39431.89, 45532.38, 16331.93, 30658.01, 26468.40, 39339.65, 29722.30, 0.00, 0.00, 0.00, 0.00
117, 39413.50, 45537.43, 16352.98, 30685.32, 26453.51, 39054.71, 29741.41, 0.00, 0.13, 0.92, 0.32
118, 39414.26, 45529.23, 16374.40, 30745.07, 26577.79, 39482.59, 29783.34, 0.00, 0.00, 0.00, 0.00
119, 39433.46, 45510.70, 16364.32, 30754.75, 26680.67, 40025.11, 29789.64, 0.00, 0.00, 0.00, 0.00
120, 39442.91, 45536.92, 16335.95, 30658.66, 26492.29, 39458.43, 29731.62, 0.00, 0.00, 0.00, 0.00
121, 39432.79, 45555.43, 16353.63, 30657.56, 26443.30, 39024.87, 29729.29, 0.00, 0.00, 0.00, 0.00
122, 39425.50, 45546.17, 16370.48, 30734.99, 26543.79, 39354.07, 29774.04, 0.00, 0.00, 0.00, 0.00
123, 39444.59, 45524.22, 16368.05, 30780.18, 26687.11, 40003.43, 29803.12, 0.00, 0.00, 0.00, 0.00
124, 39452.71, 45539.53, 16334.16, 30668.20, 26528.64, 39596.76, 29747.87, 0.00, 0.00, 0.00, 0.00
125, 39437.59, 45559.76, 16349.50, 30649.47, 26435.38, 39043.42, 29734.19, 0.00, 0.00, 0.00, 0.00
126, 39426.55, 45552.41, 16370.51, 30714.71, 26517.79, 39255.27, 29771.27, 0.00, 0.00, 0.00, 0.00
127, 39444.08, 45530.79, 16377.12, 30781.82, 26679.35, 39929.40, 29803.75, 0.00, 0.13, 0.92, 0.33
128, 39456.77, 45537.01, 16340.49, 30693.10, 26556.69, 39734.92, 29749.86, 0.00, 0.00, 0.00, 0.00
129, 39446.94, 45564.59, 16347.93, 30654.54, 26429.78, 39086.36, 29721.81, 0.00, 0.00, 0.00, 0.00
130, 39435.43, 45564.12, 16367.29, 30709.71, 26493.59, 39180.35, 29753.97, 0.00, 0.00, 0.00, 0.00
131, 39443.86, 45543.60, 16377.91, 30789.04, 26654.52, 39836.46, 29800.51, 0.00, 0.00, 0.00, 0.00
132, 39457.40, 45538.17, 16342.10, 30720.39, 26595.02, 39870.39, 29764.50, 0.00, 0.00, 0.00, 0.00
133, 39451.32, 45564.21, 16341.16, 30652.20, 26432.61, 39161.62, 29720.46, 0.00, 0.00, 0.00, 0.00
134, 39436.66, 45565.75, 16359.82, 30697.42, 26467.91, 39113.61, 29744.90, 0.00, 0.00, 0.00, 0.00
135, 39441.77, 45549.05, 16373.01, 30770.17, 26618.13, 39697.03, 29788.93, 0.00, 0.00, 0.00, 0.00
136, 39471.68, 45549.28, 16352.45, 30736.69, 26625.40, 39955.35, 29774.51, 0.00, 0.00, 0.00, 0.00
137, 39471.64, 45578.25, 16344.33, 30653.85, 26443.03, 39253.21, 29731.75, 0.00, 0.14, 0.92, 0.33
138, 39454.70, 45578.60, 16364.14, 30680.43, 26453.49, 39063.88, 29751.74, 0.00, 0.00, 0.00, 0.00
139, 39453.98, 45565.13, 16384.25, 30759.98, 26591.33, 39572.80, 29789.35, 0.00, 0.00, 0.00, 0.00
140, 39472.80, 45551.76, 16368.61, 30759.96, 26655.10, 40013.18, 29784.06, 0.00, 0.00, 0.00, 0.00
141, 39467.48, 45569.62, 16342.54, 30656.62, 26455.81, 39356.61, 29719.75, 0.00, 0.00, 0.00, 0.00
142, 39454.83, 45580.41, 16364.11, 30668.38, 26436.21, 39026.21, 29729.96, 0.00, 0.00, 0.00, 0.00
143, 39450.36, 45567.14, 16382.64, 30741.83, 26555.12, 39440.21, 29775.88, 0.00, 0.00, 0.00, 0.00
144, 39471.44, 45550.13, 16373.23, 30767.78, 26668.00, 40018.72, 29783.05, 0.00, 0.00, 0.00, 0.00
145, 39473.76, 45567.79, 16341.65, 30672.05, 26484.07, 39491.30, 29723.53, 0.00, 0.00, 0.00, 0.00
146, 39462.03, 45587.05, 16363.00, 30667.69, 26426.80, 39034.97, 29725.05, 0.00, 0.00, 0.00, 0.00
147, 39455.70, 45577.24, 16383.56, 30714.18, 26524.95, 39335.34, 29768.21, 0.00, 0.15, 0.92, 0.32
148, 39471.35, 45558.46, 16383.85, 30772.05, 26669.97, 39985.70, 29788.59, 0.00, 0.00, 0.00, 0.00
149, 39481.63, 45572.77, 16348.92, 30677.72, 26518.27, 39628.05, 29734.10, 0.00, 0.00, 0.00, 0.00
150, 39471.55, 45591.23, 16364.02, 30655.89, 26421.24, 39055.85, 29725.88, 0.00, 0.00, 0.00, 0.00
151, 39462.09, 45584.48, 16386.00, 30720.53, 26499.62, 39250.46, 29771.49, 0.00, 0.00, 0.00, 0.00
152, 39475.26, 45561.68, 16396.88, 30789.30, 26665.70, 39923.32, 29810.70, 0.00, 0.00, 0.00, 0.00
153, 39489.70, 45568.75, 16360.11, 30705.82, 26558.92, 39779.49, 29761.21, 0.00, 0.00, 0.00, 0.00
154, 39484.94, 45599.86, 16367.98, 30657.03, 26425.97, 39109.09, 29733.74, 0.00, 0.00, 0.00, 0.00
155, 39473.09, 45598.47, 16389.06, 30707.14, 26485.32, 39166.80, 29770.71, 0.00, 0.00, 0.00, 0.00
156, 39475.75, 45576.61, 16396.17, 30781.50, 26640.02, 39804.32, 29806.21, 0.00, 0.00, 0.00, 0.00
157, 39497.09, 45575.32, 16363.60, 30722.72, 26600.86, 39893.48, 29772.54, 0.00, 0.15, 0.93, 0.33
158, 39489.14, 45599.66, 16360.78, 30651.68, 26435.72, 39179.68, 29732.83, 0.00, 0.00, 0.00, 0.00
159, 39473.02, 45600.62, 16385.71, 30695.47, 26470.14, 39101.78, 29763.72, 0.00, 0.00, 0.00, 0.00
160, 39472.60, 45579.81, 16400.44, 30777.46, 26619.68, 39677.03, 29804.57, 0.00, 0.00, 0.00, 0.00
161, 39486.39, 45564.27, 16371.58, 30740.26, 26632.51, 39978.20, 29776.01, 0.00, 0.00, 0.00, 0.00
162, 39477.38, 45583.25, 16357.63, 30645.89, 26441.69, 39271.79, 29727.75, 0.00, 0.00, 0.00, 0.00
163, 39460.06, 45587.72, 16386.13, 30674.33, 26454.83, 39053.70, 29756.85, 0.00, 0.00, 0.00, 0.00
164, 39456.32, 45568.52, 16400.88, 30749.43, 26589.88, 39545.35, 29794.85, 0.00, 0.00, 0.00, 0.00
165, 39479.97, 45557.35, 16380.12, 30754.48, 26664.58, 40021.82, 29787.59, 0.00, 0.00, 0.00, 0.00
166, 39480.82, 45582.45, 16356.94, 30655.06, 26469.92, 39388.20, 29736.63, 0.00, 0.15, 0.93, 0.33
167, 39470.65, 45599.90, 16378.71, 30670.10, 26441.96, 39033.14, 29746.73, 0.00, 0.00, 0.00, 0.00
168, 39465.40, 45585.89, 16396.77, 30739.50, 26558.81, 39417.21, 29790.43, 0.00, 0.00, 0.00, 0.00
169, 39479.95, 45562.44, 16390.58, 30771.06, 26683.02, 40022.96, 29806.16, 0.00, 0.00, 0.00, 0.00
170, 39487.77, 45585.42, 16362.66, 30672.29, 26511.87, 39524.90, 29747.58, 0.00, 0.00, 0.00, 0.00
171, 39473.29, 45596.86, 16381.32, 30657.83, 26445.22, 39032.07, 29746.64, 0.00, 0.00, 0.00, 0.00
172, 39459.12, 45581.04, 16394.98, 30716.46, 26537.00, 39308.38, 29789.13, 0.00, 0.00, 0.00, 0.00
173, 39470.03, 45554.84, 16394.60, 30768.47, 26684.67, 39977.50, 29806.01, 0.00, 0.00, 0.00, 0.00
174, 39484.94, 45572.37, 16363.62, 30678.73, 26544.44, 39673.83, 29758.75, 0.00, 0.00, 0.00, 0.00
175, 39469.94, 45588.75, 16371.83, 30641.36, 26434.69, 39069.33, 29742.28, 0.00, 0.00, 0.00, 0.00
176, 39458.74, 45581.48, 16390.04, 30697.46, 26503.98, 39229.19, 29777.91, 0.00, 0.15, 0.93, 0.33
177, 39474.68, 45567.29, 16401.53, 30775.24, 26669.90, 39906.56, 29814.52, 0.00, 0.00, 0.00, 0.00
178, 39491.64, 45572.25, 16367.85, 30698.64, 26578.59, 39812.28, 29767.67, 0.00, 0.00, 0.00, 0.00
179, 39488.56, 45597.85, 16373.75, 30639.61, 26425.91, 39110.12, 29724.15, 0.00, 0.00, 0.00, 0.00
180, 39490.59, 45609.29, 16398.71, 30693.04, 26476.27, 39138.53, 29762.98, 0.00, 0.00, 0.00, 0.00
181, 39482.57, 45586.40, 16409.26, 30780.77, 26640.06, 39778.44, 29807.37, 0.00, 0.00, 0.00, 0.00
182, 39471.86, 45557.82, 16372.47, 30727.63, 26610.35, 39915.83, 29767.96, 0.00, 0.00, 0.00, 0.00
183, 39443.43, 45561.23, 16354.17, 30641.20, 26424.12, 39188.26, 29716.64, 0.00, 0.00, 0.00, 0.00
184, 39408.49, 45546.19, 16369.84, 30676.27, 26445.96, 39081.33, 29739.11, 0.00, 0.00, 0.00, 0.00
185, 39383.41, 45510.18, 16383.92, 30766.30, 26594.17, 39647.34, 29789.40, 0.00, 0.00, 0.00, 0.00
186, 39384.91, 45482.13, 16354.75, 30748.60, 26627.83, 39995.92, 29779.72, 0.00, 0.14, 0.93, 0.32
187, 39365.46, 45496.50, 16333.87, 30653.03, 26438.49, 39295.50, 29727.10, 0.00, 0.00, 0.00, 0.00
188, 39327.42, 45484.19, 16355.87, 30651.91, 26437.06, 39037.84, 29744.16, 0.00, 0.00, 0.00, 0.00
189, 39302.73, 45445.41, 16365.03, 30727.14, 26559.53, 39503.76, 29787.28, 0.00, 0.00, 0.00, 0.00
190, 39304.71, 45416.44, 16348.69, 30746.30, 26646.34, 40014.38, 29783.88, 0.00, 0.00, 0.00, 0.00
191, 39295.21, 45424.82, 16322.03, 30642.03, 26455.77, 39411.20, 29724.98, 0.00, 0.00, 0.00, 0.00
192, 39264.93, 45422.05, 16338.10, 30646.14, 26419.04, 39029.34, 29735.15, 0.00, 0.00, 0.00, 0.00
193, 39244.83, 45403.14, 16354.68, 30718.69, 26525.28, 39393.68, 29772.25, 0.00, 0.00, 0.00, 0.00
194, 39257.29, 45381.04, 16350.57, 30764.36, 26658.10, 40017.73, 29790.27, 0.00, 0.00, 0.00, 0.00
195, 39256.70, 45388.55, 16317.80, 30658.41, 26484.92, 39557.33, 29736.67, 0.00, 0.00, 0.00, 0.00
196, 39230.17, 45392.03, 16331.57, 30631.34, 26409.03, 39025.68, 29729.96, 0.00, 0.14, 0.93, 0.32
197, 39210.55, 45376.66, 16343.84, 30694.33, 26494.17, 39275.57, 29770.58, 0.00, 0.00, 0.00, 0.00
198, 39225.03, 45352.20, 16349.03, 30758.95, 26651.06, 39954.28, 29801.51, 0.00, 0.00, 0.00, 0.00
199, 39222.19, 45348.56, 16311.77, 30665.81, 26525.33, 39695.40, 29745.12, 0.00, 0.00, 0.00, 0.00
200, 39194.30, 45355.02, 16319.39, 30625.78, 26407.67, 39062.38, 29722.75, 0.00, 0.00, 0.00, 0.00
201, 39167.05, 45331.73, 16339.93, 30680.58, 26479.39, 39186.47, 29763.54, 0.00, 0.00, 0.00, 0.00
202, 39161.08, 45295.94, 16345.25, 30756.85, 26641.87, 39853.02, 29799.63, 0.00, 0.00, 0.00, 0.00
203, 39165.66, 45289.73, 16306.29, 30683.54, 26559.39, 39819.18, 29748.00, 0.00, 0.00, 0.00, 0.00
