%OpenBCI Raw EEG Data
%
%Sample Rate = 250.0 Hz
%First Column = SampleIndex
%Other Columns = EEG data in microvolts followed by Accel Data (in G) interleaved with Aux Data
0, 22357.35, 17870.17, -21677.59, -11968.24, -30189.92, -5610.11, -43769.12, 0.00, 0.04, 0.38, 0.30
1, 22233.68, 17725.29, -21649.59, -11957.67, -30177.76, -5651.08, -43761.63, 0.00, 0.00, 0.00, 0.00
2, 22280.98, 17771.67, -21664.23, -11942.78, -30187.86, -5566.88, -43773.52, 0.00, 0.00, 0.00, 0.00
3, 22421.62, 17927.80, -21693.73, -11952.64, -30201.70, -5532.77, -43812.08, 0.00, 0.00, 0.00, 0.00
4, 22381.27, 17897.58, -21681.62, -11967.33, -30200.69, -5616.28, -43796.16, 0.00, 0.00, 0.00, 0.00
5, 22249.24, 17757.37, -21649.03, -11955.28, -30188.96, -5662.12, -43768.89, 0.00, 0.00, 0.00, 0.00
6, 22261.73, 17773.19, -21649.92, -11947.07, -30196.18, -5589.08, -43787.22, 0.00, 0.08, 0.77, 0.60
7, 22405.79, 17916.46, -21693.69, -11955.37, -30216.07, -5535.45, -43819.95, 0.00, 0.00, 0.00, 0.00
8, 22410.93, 17916.85, -21683.96, -11953.40, -30199.22, -5568.69, -43772.29, 0.00, 0.00, 0.00, 0.00
9, 22271.75, 17766.42, -21653.34, -11954.96, -30181.78, -5638.32, -43748.31, 0.00, 0.00, 0.00, 0.00
10, 22242.53, 17723.08, -21656.02, -11944.30, -30185.09, -5608.43, -43749.47, 0.00, 0.00, 0.00, 0.00
11, 22389.18, 17877.73, -21695.88, -11943.97, -30212.49, -5532.91, -43840.24, 0.00, 0.00, 0.00, 0.00
12, 22421.77, 17920.22, -21698.58, -11957.87, -30220.90, -5578.64, -43832.64, 0.00, 0.00, 0.00, 0.00
13, 22291.84, 17795.10, -21647.02, -11968.00, -30193.52, -5635.12, -43768.60, 0.00, 0.00, 0.00, 0.00
14, 22229.50, 17725.00, -21653.34, -11950.70, -30186.70, -5618.02, -43769.39, 0.00, 0.00, 0.00, 0.00
15, 22365.40, 17856.12, -21705.80, -11957.02, -30217.23, -5539.90, -43791.38, 0.00, 0.00, 0.00, 0.00
16, 22448.73, 17946.06, -21694.63, -11959.30, -30197.34, -5536.39, -43786.42, 0.00, 0.09, 0.76, 0.59
17, 22319.69, 17822.52, -21673.19, -11964.40, -30190.99, -5632.95, -43795.80, 0.00, 0.00, 0.00, 0.00
18, 22217.90, 17717.98, -21668.38, -11931.74, -30193.14, -5645.92, -43763.84, 0.00, 0.00, 0.00, 0.00
19, 22337.73, 17825.98, -21682.00, -11942.89, -30188.11, -5538.47, -43769.74, 0.00, 0.00, 0.00, 0.00
20, 22442.07, 17938.17, -21691.18, -11960.57, -30198.39, -5521.31, -43803.54, 0.00, 0.00, 0.00, 0.00
21, 22353.42, 17855.76, -21664.58, -11963.70, -30187.21, -5607.74, -43779.85, 0.00, 0.00, 0.00, 0.00
22, 22241.28, 17720.91, -21661.99, -11962.30, -30186.57, -5650.95, -43769.86, 0.00, 0.00, 0.00, 0.00
23, 22296.89, 17775.98, -21695.14, -11974.52, -30221.48, -5595.45, -43833.04, 0.00, 0.00, 0.00, 0.00
24, 22429.17, 17918.46, -21715.37, -11982.84, -30241.44, -5548.57, -43855.29, 0.00, 0.00, 0.00, 0.00
25, 22381.00, 17882.98, -21685.82, -11979.13, -30209.90, -5617.69, -43800.63, 0.00, 0.00, 0.00, 0.00
26, 22248.88, 17757.34, -21653.27, -11950.74, -30174.72, -5639.64, -43759.91, 0.00, 0.09, 0.78, 0.60
27, 22284.76, 17798.98, -21675.83, -11935.41, -30187.86, -5568.15, -43786.02, 0.00, 0.00, 0.00, 0.00
28, 22433.98, 17949.30, -21711.10, -11944.01, -30214.35, -5517.53, -43847.95, 0.00, 0.00, 0.00, 0.00
29, 22413.63, 17941.77, -21688.43, -11940.48, -30196.96, -5577.05, -43806.38, 0.00, 0.00, 0.00, 0.00
30, 22283.21, 17808.15, -21645.85, -11920.99, -30175.30, -5620.50, -43769.79, 0.00, 0.00, 0.00, 0.00
31, 22293.81, 17814.27, -21656.80, -11894.23, -30169.13, -5560.47, -43755.66, 0.00, 0.00, 0.00, 0.00
32, 22457.45, 17986.58, -21691.67, -11888.27, -30168.19, -5476.45, -43756.31, 0.00, 0.00, 0.00, 0.00
33, 22469.36, 18012.29, -21684.25, -11900.22, -30166.47, -5524.99, -43757.54, 0.00, 0.00, 0.00, 0.00
34, 22335.90, 17875.16, -21649.50, -11898.55, -30148.23, -5592.65, -43742.77, 0.00, 0.00, 0.00, 0.00
35, 22294.84, 17819.91, -21645.14, -11876.73, -30157.35, -5562.03, -43775.64, 0.00, 0.00, 0.00, 0.00
36, 22439.88, 17962.38, -21680.83, -11888.67, -30176.35, -5475.98, -43794.87, 0.00, 0.09, 0.79, 0.60
37, 22486.17, 18024.09, -21686.31, -11915.45, -30164.62, -5522.42, -43772.00, 0.00, 0.00, 0.00, 0.00
38, 22365.85, 17895.39, -21650.37, -11908.20, -30149.19, -5606.53, -43734.14, 0.00, 0.00, 0.00, 0.00
39, 22306.06, 17824.06, -21639.82, -11881.00, -30144.25, -5560.53, -43730.16, 0.00, 0.00, 0.00, 0.00
40, 22421.06, 17952.38, -21687.40, -11876.42, -30168.64, -5463.17, -43756.45, 0.00, 0.00, 0.00, 0.00
41, 22502.44, 18043.56, -21687.67, -11887.64, -30163.79, -5471.73, -43734.74, 0.00, 0.00, 0.00, 0.00
42, 22389.61, 17925.23, -21662.84, -11897.54, -30152.66, -5563.44, -43730.49, 0.00, 0.00, 0.00, 0.00
43, 22280.40, 17815.55, -21653.97, -11893.32, -30157.53, -5584.94, -43722.56, 0.00, 0.00, 0.00, 0.00
44, 22388.13, 17910.83, -21682.40, -11881.00, -30177.89, -5493.30, -43797.88, 0.00, 0.00, 0.00, 0.00
45, 22499.13, 18031.44, -21705.20, -11892.00, -30190.37, -5487.78, -43804.97, 0.00, 0.00, 0.00, 0.00
46, 22420.90, 17965.46, -21676.38, -11894.08, -30181.74, -5559.30, -43746.48, 0.00, 0.08, 0.78, 0.60
47, 22306.35, 17825.38, -21653.56, -11862.92, -30155.16, -5584.61, -43683.02, 0.00, 0.00, 0.00, 0.00
48, 22360.71, 17876.23, -21676.86, -11895.73, -30172.62, -5514.15, -43723.90, 0.00, 0.00, 0.00, 0.00
49, 22485.16, 18006.23, -21698.60, -11916.38, -30185.92, -5482.52, -43782.64, 0.00, 0.00, 0.00, 0.00
50, 22434.47, 17957.93, -21687.65, -11916.63, -30172.93, -5564.69, -43774.23, 0.00, 0.00, 0.00, 0.00
51, 22300.47, 17816.98, -21675.54, -11915.96, -30172.31, -5626.65, -43767.60, 0.00, 0.00, 0.00, 0.00
52, 22330.00, 17843.13, -21698.29, -11907.09, -30194.23, -5551.50, -43784.61, 0.00, 0.00, 0.00, 0.00
53, 22496.45, 18007.10, -21713.58, -11898.37, -30195.28, -5470.39, -43801.89, 0.00, 0.00, 0.00, 0.00
54, 22481.45, 18004.20, -21693.24, -11904.23, -30191.71, -5524.59, -43779.45, 0.00, 0.00, 0.00, 0.00
55, 22337.42, 17865.77, -21667.24, -11906.62, -30174.99, -5596.07, -43738.05, 0.00, 0.09, 0.76, 0.60
56, 22318.35, 17830.81, -21671.11, -11882.66, -30167.19, -5551.73, -43734.83, 0.00, 0.00, 0.00, 0.00
57, 22464.71, 17975.96, -21706.36, -11910.53, -30188.35, -5483.35, -43800.66, 0.00, 0.00, 0.00, 0.00
58, 22487.51, 18006.65, -21702.89, -11924.34, -30185.05, -5531.45, -43787.56, 0.00, 0.00, 0.00, 0.00
59, 22362.12, 17874.49, -21672.54, -11914.62, -30169.33, -5588.87, -43736.86, 0.00, 0.00, 0.00, 0.00
60, 22309.72, 17816.40, -21674.02, -11902.46, -30174.09, -5563.95, -43749.49, 0.00, 0.00, 0.00, 0.00
61, 22449.13, 17958.73, -21710.70, -11907.96, -30190.48, -5486.62, -43806.40, 0.00, 0.00, 0.00, 0.00
62, 22515.18, 18024.83, -21700.62, -11922.67, -30188.80, -5528.37, -43818.11, 0.00, 0.00, 0.00, 0.00
63, 22395.24, 17901.02, -21666.17, -11917.26, -30169.29, -5602.80, -43753.92, 0.00, 0.00, 0.00, 0.00
64, 22313.84, 17809.76, -21671.96, -11909.95, -30173.51, -5595.40, -43773.83, 0.00, 0.00, 0.00, 0.00
65, 22430.04, 17932.42, -21701.67, -11908.38, -30198.35, -5499.67, -43790.24, 0.00, 0.09, 0.78, 0.60
66, 22522.33, 18035.04, -21699.23, -11903.35, -30190.52, -5487.33, -43793.75, 0.00, 0.00, 0.00, 0.00
67, 22410.26, 17929.41, -21689.82, -11903.15, -30177.22, -5564.47, -43770.05, 0.00, 0.00, 0.00, 0.00
68, 22313.07, 17803.57, -21669.21, -11888.40, -30170.56, -5585.05, -43762.08, 0.00, 0.00, 0.00, 0.00
69, 22396.47, 17882.13, -21694.18, -11876.11, -30175.77, -5506.78, -43806.54, 0.00, 0.00, 0.00, 0.00
70, 22513.55, 18014.63, -21714.43, -11922.71, -30182.56, -5484.69, -43776.20, 0.00, 0.00, 0.00, 0.00
71, 22437.96, 17947.38, -21691.72, -11927.25, -30175.19, -5559.55, -43726.85, 0.00, 0.00, 0.00, 0.00
72, 22312.61, 17803.21, -21676.38, -11917.82, -30174.88, -5601.17, -43717.69, 0.00, 0.00, 0.00, 0.00
73, 22372.04, 17853.57, -21690.24, -11901.79, -30181.63, -5516.79, -43758.25, 0.00, 0.00, 0.00, 0.00
74, 22515.34, 18003.79, -21707.95, -11909.55, -30190.43, -5478.57, -43805.53, 0.00, 0.00, 0.00, 0.00
75, 22469.45, 17962.42, -21688.88, -11910.69, -30172.22, -5549.49, -43781.32, 0.00, 0.09, 0.78, 0.60
76, 22328.86, 17815.48, -21664.09, -11898.95, -30162.18, -5588.90, -43735.50, 0.00, 0.00, 0.00, 0.00
77, 22340.54, 17820.55, -21676.92, -11912.96, -30174.05, -5537.62, -43753.45, 0.00, 0.00, 0.00, 0.00
78, 22497.21, 17984.84, -21710.43, -11906.97, -30185.38, -5468.60, -43795.16, 0.00, 0.00, 0.00, 0.00
79, 22493.14, 17997.09, -21697.35, -11913.08, -30178.32, -5523.72, -43786.30, 0.00, 0.00, 0.00, 0.00
80, 22351.10, 17852.70, -21670.96, -11913.99, -30170.76, -5598.31, -43779.60, 0.00, 0.00, 0.00, 0.00
81, 22333.50, 17829.16, -21666.21, -11896.80, -30168.24, -5560.40, -43774.41, 0.00, 0.00, 0.00, 0.00
82, 22485.83, 17987.21, -21700.95, -11899.33, -30186.21, -5465.67, -43800.36, 0.00, 0.00, 0.00, 0.00
83, 22523.32, 18022.72, -21694.67, -11911.18, -30179.19, -5507.04, -43760.45, 0.00, 0.00, 0.00, 0.00
84, 22395.46, 17883.16, -21660.90, -11910.44, -30162.38, -5584.05, -43737.87, 0.00, 0.00, 0.00, 0.00
85, 22331.45, 17815.17, -21663.82, -11905.43, -30166.94, -5568.09, -43758.99, 0.00, 0.09, 0.78, 0.60
86, 22474.52, 17955.38, -21686.94, -11894.32, -30167.46, -5471.04, -43792.90, 0.00, 0.00, 0.00, 0.00
87, 22532.75, 18019.15, -21695.03, -11915.38, -30168.84, -5496.88, -43785.66, 0.00, 0.00, 0.00, 0.00
88, 22409.17, 17891.41, -21680.72, -11922.22, -30161.17, -5575.82, -43732.48, 0.00, 0.00, 0.00, 0.00
89, 22320.88, 17796.12, -21667.76, -11907.29, -30160.79, -5571.66, -43690.04, 0.00, 0.00, 0.00, 0.00
90, 22430.18, 17914.45, -21687.36, -11897.95, -30172.06, -5469.29, -43733.67, 0.00, 0.00, 0.00, 0.00
91, 22540.19, 18034.62, -21700.37, -11898.55, -30169.85, -5462.48, -43754.50, 0.00, 0.00, 0.00, 0.00
92, 22443.14, 17932.00, -21688.03, -11906.13, -30166.99, -5548.69, -43734.81, 0.00, 0.00, 0.00, 0.00
93, 22320.07, 17806.63, -21672.83, -11899.20, -30166.49, -5574.21, -43728.37, 0.00, 0.00, 0.00, 0.00
94, 22401.16, 17877.08, -21690.45, -11898.08, -30180.93, -5504.43, -43798.22, 0.00, 0.10, 0.78, 0.60
95, 22539.01, 18015.37, -21702.58, -11886.81, -30178.65, -5473.70, -43800.72, 0.00, 0.00, 0.00, 0.00
96, 22472.87, 17956.88, -21688.28, -11922.46, -30164.68, -5546.97, -43763.62, 0.00, 0.00, 0.00, 0.00
97, 22348.50, 17819.17, -21661.32, -11922.62, -30152.44, -5592.52, -43733.49, 0.00, 0.00, 0.00, 0.00
98, 22392.11, 17850.21, -21684.81, -11912.27, -30167.68, -5521.57, -43772.58, 0.00, 0.00, 0.00, 0.00
99, 22539.68, 18007.10, -21714.58, -11927.47, -30190.93, -5479.87, -43833.00, 0.00, 0.00, 0.00, 0.00
100, 22487.22, 17969.64, -21697.82, -11943.12, -30172.08, -5565.61, -43806.27, 0.00, 0.00, 0.00, 0.00
101, 22350.63, 17821.22, -21660.65, -11923.14, -30153.31, -5593.01, -43745.65, 0.00, 0.00, 0.00, 0.00
102, 22360.55, 17822.72, -21659.62, -11894.06, -30152.97, -5513.86, -43736.46, 0.00, 0.00, 0.00, 0.00
103, 22502.93, 17983.12, -21709.44, -11913.70, -30176.37, -5481.30, -43798.40, 0.00, 0.00, 0.00, 0.00
104, 22512.14, 17995.48, -21697.51, -11933.28, -30174.65, -5518.11, -43773.81, 0.00, 0.09, 0.78, 0.61
105, 22375.01, 17840.51, -21674.13, -11913.79, -30171.90, -5542.27, -43774.93, 0.00, 0.00, 0.00, 0.00
106, 22335.49, 17793.78, -21684.75, -11912.23, -30168.30, -5541.29, -43742.27, 0.00, 0.00, 0.00, 0.00
107, 22500.14, 17952.21, -21707.66, -11908.61, -30164.48, -5462.45, -43747.53, 0.00, 0.00, 0.00, 0.00
108, 22543.43, 18022.21, -21698.09, -11913.70, -30159.97, -5484.27, -43749.71, 0.00, 0.00, 0.00, 0.00
109, 22422.91, 17897.24, -21654.64, -11909.70, -30141.93, -5546.97, -43688.34, 0.00, 0.00, 0.00, 0.00
110, 22372.91, 17803.07, -21647.42, -11899.87, -30138.51, -5534.69, -43683.33, 0.00, 0.00, 0.00, 0.00
111, 22499.04, 17927.19, -21700.30, -11901.16, -30162.43, -5454.99, -43753.80, 0.00, 0.00, 0.00, 0.00
112, 22559.91, 18011.86, -21703.01, -11909.03, -30164.77, -5469.90, -43769.21, 0.00, 0.00, 0.00, 0.00
113, 22427.05, 17894.00, -21679.63, -11916.79, -30157.67, -5558.52, -43723.79, 0.00, 0.00, 0.00, 0.00
114, 22349.89, 17806.31, -21652.83, -11899.13, -30143.94, -5552.93, -43704.57, 0.00, 0.10, 0.76, 0.61
115, 22448.75, 17897.87, -21687.05, -11903.82, -30159.72, -5468.11, -43755.68, 0.00, 0.00, 0.00, 0.00
116, 22544.71, 18008.93, -21699.50, -11911.76, -30170.07, -5466.52, -43792.07, 0.00, 0.00, 0.00, 0.00
117, 22472.58, 17932.56, -21679.94, -11904.18, -30165.62, -5567.15, -43800.52, 0.00, 0.00, 0.00, 0.00
118, 22368.28, 17812.53, -21666.75, -11881.90, -30160.24, -5588.38, -43771.93, 0.00, 0.00, 0.00, 0.00
119, 22414.06, 17851.47, -21687.45, -11922.58, -30168.19, -5493.68, -43758.81, 0.00, 0.00, 0.00, 0.00
120, 22533.13, 17988.06, -21703.03, -11924.05, -30163.39, -5445.58, -43743.32, 0.00, 0.00, 0.00, 0.00
121, 22479.24, 17941.86, -21674.20, -11914.40, -30145.37, -5535.12, -43748.33, 0.00, 0.00, 0.00, 0.00
122, 22349.08, 17778.33, -21646.59, -11932.93, -30132.99, -5583.00, -43698.69, 0.00, 0.00, 0.00, 0.00
123, 22362.81, 17775.27, -21669.81, -11937.22, -30151.18, -5522.96, -43797.48, 0.00, 0.00, 0.00, 0.00
124, 22496.81, 17914.39, -21707.37, -11955.14, -30178.45, -5484.49, -43810.89, 0.00, 0.08, 0.76, 0.62
125, 22471.62, 17896.33, -21689.77, -11962.85, -30157.02, -5530.54, -43709.08, 0.00, 0.00, 0.00, 0.00
126, 22316.54, 17739.19, -21659.00, -11956.55, -30142.36, -5596.70, -43719.36, 0.00, 0.00, 0.00, 0.00
127, 22295.71, 17698.29, -21668.99, -11957.98, -30153.84, -5578.17, -43748.62, 0.00, 0.00, 0.00, 0.00
128, 22443.16, 17841.52, -21701.42, -11965.42, -30174.54, -5487.22, -43790.80, 0.00, 0.00, 0.00, 0.00
129, 22462.63, 17866.06, -21688.03, -11977.25, -30169.94, -5533.93, -43792.25, 0.00, 0.00, 0.00, 0.00
130, 22328.79, 17733.90, -21665.32, -11974.41, -30155.18, -5608.57, -43736.68, 0.00, 0.00, 0.00, 0.00
131, 22297.79, 17683.67, -21670.82, -11964.55, -30157.51, -5579.04, -43730.29, 0.00, 0.00, 0.00, 0.00
132, 22445.60, 17826.83, -21703.21, -11967.46, -30179.35, -5500.25, -43793.50, 0.00, 0.00, 0.00, 0.00
133, 22490.57, 17890.60, -21705.15, -11980.78, -30184.42, -5543.14, -43816.53, 0.00, 0.00, 0.00, 0.00
134, 22365.65, 17767.09, -21674.38, -11981.85, -30179.14, -5626.36, -43799.74, 0.00, 0.08, 0.75, 0.62
135, 22304.94, 17696.75, -21659.46, -11959.50, -30170.14, -5595.38, -43744.06, 0.00, 0.00, 0.00, 0.00
136, 22428.72, 17823.37, -21696.03, -11959.21, -30174.63, -5487.17, -43753.02, 0.00, 0.00, 0.00, 0.00
137, 22515.09, 17916.35, -21705.42, -11969.11, -30160.28, -5493.83, -43755.46, 0.00, 0.00, 0.00, 0.00
138, 22409.10, 17811.10, -21679.07, -11971.46, -30150.76, -5580.40, -43734.34, 0.00, 0.00, 0.00, 0.00
139, 22309.14, 17695.58, -21674.49, -11972.13, -30154.16, -5609.37, -43747.86, 0.00, 0.00, 0.00, 0.00
140, 22400.83, 17785.26, -21708.71, -11945.04, -30173.60, -5525.53, -43775.75, 0.00, 0.00, 0.00, 0.00
141, 22516.39, 17915.28, -21709.29, -11953.94, -30167.08, -5483.71, -43756.11, 0.00, 0.00, 0.00, 0.00
142, 22430.82, 17842.14, -21686.04, -11977.85, -30158.22, -5572.76, -43755.41, 0.00, 0.00, 0.00, 0.00
143, 22300.56, 17695.29, -21676.99, -11990.26, -30161.35, -5625.49, -43780.85, 0.00, 0.08, 0.75, 0.62
144, 22363.66, 17743.98, -21694.83, -11969.31, -30170.54, -5535.32, -43810.31, 0.00, 0.00, 0.00, 0.00
145, 22496.07, 17891.14, -21718.05, -11969.05, -30185.61, -5475.62, -43802.76, 0.00, 0.00, 0.00, 0.00
146, 22462.34, 17862.46, -21690.80, -11972.13, -30161.06, -5540.30, -43726.80, 0.00, 0.00, 0.00, 0.00
147, 22334.40, 17723.10, -21667.76, -11971.21, -30144.99, -5604.14, -43696.07, 0.00, 0.00, 0.00, 0.00
148, 22348.93, 17736.09, -21685.30, -11963.39, -30161.46, -5548.82, -43762.50, 0.00, 0.00, 0.00, 0.00
149, 22497.68, 17888.79, -21715.93, -11965.18, -30172.46, -5472.73, -43780.34, 0.00, 0.00, 0.00, 0.00
150, 22481.74, 17890.13, -21703.95, -11977.99, -30171.28, -5524.37, -43775.82, 0.00, 0.00, 0.00, 0.00
151, 22346.92, 17740.78, -21675.36, -11974.46, -30171.75, -5596.14, -43765.63, 0.00, 0.00, 0.00, 0.00
152, 22332.50, 17701.66, -21677.79, -11970.57, -30177.98, -5571.44, -43779.29, 0.00, 0.00, 0.00, 0.00
153, 22487.06, 17863.33, -21702.36, -11965.09, -30174.79, -5477.50, -43774.84, 0.00, 0.08, 0.75, 0.63
154, 22516.54, 17897.69, -21703.59, -11971.62, -30170.65, -5520.01, -43768.16, 0.00, 0.00, 0.00, 0.00
155, 22368.60, 17756.38, -21675.89, -11973.07, -30161.31, -5599.98, -43735.68, 0.00, 0.00, 0.00, 0.00
156, 22318.95, 17693.86, -21658.08, -11967.55, -30157.22, -5593.93, -43748.15, 0.00, 0.00, 0.00, 0.00
157, 22457.49, 17838.57, -21701.89, -11963.79, -30177.13, -5494.98, -43799.09, 0.00, 0.00, 0.00, 0.00
158, 22514.42, 17902.65, -21704.21, -11973.81, -30175.23, -5504.88, -43775.75, 0.00, 0.00, 0.00, 0.00
159, 22398.50, 17777.41, -21675.20, -11970.34, -30161.78, -5587.71, -43735.10, 0.00, 0.00, 0.00, 0.00
160, 22329.91, 17694.96, -21659.20, -11958.88, -30153.91, -5589.59, -43745.09, 0.00, 0.00, 0.00, 0.00
161, 22439.05, 17806.38, -21703.74, -11968.89, -30182.59, -5521.66, -43829.69, 0.00, 0.00, 0.00, 0.00
162, 22528.17, 17910.47, -21715.21, -11966.99, -30201.12, -5499.36, -43852.98, 0.00, 0.00, 0.00, 0.00
163, 22433.69, 17818.90, -21675.40, -11934.49, -30174.36, -5554.59, -43773.86, 0.00, 0.08, 0.76, 0.63
164, 22343.45, 17713.20, -21648.00, -11929.62, -30153.33, -5573.68, -43720.73, 0.00, 0.00, 0.00, 0.00
165, 22434.74, 17802.92, -21673.95, -11941.33, -30154.98, -5483.20, -43730.61, 0.00, 0.00, 0.00, 0.00
166, 22545.62, 17932.56, -21701.62, -11974.66, -30181.85, -5472.29, -43787.18, 0.00, 0.00, 0.00, 0.00
167, 22478.84, 17852.85, -21668.14, -11975.48, -30164.64, -5544.06, -43719.81, 0.00, 0.00, 0.00, 0.00
168, 22350.29, 17696.08, -21661.28, -11978.32, -30152.99, -5601.44, -43706.98, 0.00, 0.00, 0.00, 0.00
169, 22391.04, 17739.86, -21691.72, -11969.34, -30169.80, -5532.32, -43756.04, 0.00, 0.00, 0.00, 0.00
170, 22516.32, 17895.70, -21724.82, -11980.29, -30186.90, -5484.54, -43795.70, 0.00, 0.00, 0.00, 0.00
171, 22467.88, 17849.30, -21716.31, -11997.46, -30186.95, -5555.50, -43771.24, 0.00, 0.00, 0.00, 0.00
172, 22342.45, 17715.50, -21682.09, -11983.91, -30167.32, -5605.46, -43758.81, 0.00, 0.00, 0.00, 0.00
173, 22354.52, 17718.21, -21690.42, -11970.74, -30167.32, -5549.47, -43788.81, 0.00, 0.09, 0.75, 0.63
174, 22499.42, 17860.23, -21726.30, -11976.22, -30186.01, -5492.65, -43805.62, 0.00, 0.00, 0.00, 0.00
175, 22493.19, 17867.27, -21716.82, -11992.11, -30181.13, -5548.98, -43761.23, 0.00, 0.00, 0.00, 0.00
176, 22360.77, 17733.67, -21678.31, -11990.28, -30160.01, -5599.98, -43719.59, 0.00, 0.00, 0.00, 0.00
177, 22341.48, 17691.56, -21681.59, -11981.90, -30158.36, -5583.49, -43745.54, 0.00, 0.00, 0.00, 0.00
178, 22486.97, 17833.58, -21726.70, -11985.21, -30183.44, -5493.63, -43793.66, 0.00, 0.00, 0.00, 0.00
179, 22520.43, 17888.06, -21714.88, -11989.61, -30176.75, -5509.10, -43779.33, 0.00, 0.00, 0.00, 0.00
180, 22382.90, 17760.45, -21677.41, -11998.91, -30168.71, -5586.24, -43760.73, 0.00, 0.00, 0.00, 0.00
181, 22322.93, 17681.59, -21681.06, -12004.52, -30168.75, -5577.14, -43745.29, 0.00, 0.00, 0.00, 0.00
182, 22452.93, 17795.47, -21728.76, -12001.79, -30189.63, -5515.74, -43811.94, 0.00, 0.09, 0.75, 0.63
183, 22521.30, 17875.54, -21718.68, -12013.06, -30191.71, -5535.34, -43837.94, 0.00, 0.00, 0.00, 0.00
184, 22419.13, 17768.50, -21688.25, -11996.87, -30176.42, -5587.20, -43757.94, 0.00, 0.00, 0.00, 0.00
185, 22341.06, 17674.66, -21679.02, -11978.68, -30158.63, -5585.32, -43737.49, 0.00, 0.00, 0.00, 0.00
186, 22435.05, 17766.75, -21720.93, -12002.35, -30179.19, -5528.68, -43823.32, 0.00, 0.00, 0.00, 0.00
187, 22532.93, 17876.86, -21727.88, -12018.24, -30182.97, -5506.11, -43788.68, 0.00, 0.00, 0.00, 0.00
188, 22439.38, 17789.57, -21695.61, -12020.48, -30165.15, -5585.12, -43776.98, 0.00, 0.00, 0.00, 0.00
189, 22328.27, 17673.99, -21672.54, -12004.81, -30160.91, -5613.06, -43769.05, 0.00, 0.00, 0.00, 0.00
190, 22403.02, 17747.46, -21702.02, -11995.96, -30179.99, -5521.84, -43772.96, 0.00, 0.00, 0.00, 0.00
191, 22529.08, 17885.89, -21715.17, -12002.46, -30176.17, -5482.99, -43784.25, 0.00, 0.00, 0.00, 0.00
192, 22468.38, 17830.37, -21688.10, -12012.43, -30154.13, -5566.30, -43724.95, 0.00, 0.09, 0.75, 0.63
193, 22342.83, 17689.86, -21674.58, -11999.65, -30156.17, -5615.05, -43718.31, 0.00, 0.00, 0.00, 0.00
194, 22391.84, 17726.36, -21688.39, -11974.19, -30164.48, -5538.90, -43771.11, 0.00, 0.00, 0.00, 0.00
195, 22530.29, 17884.03, -21710.65, -12010.96, -30176.20, -5478.90, -43798.98, 0.00, 0.00, 0.00, 0.00
196, 22490.01, 17860.47, -21703.79, -12016.79, -30176.80, -5528.75, -43764.91, 0.00, 0.00, 0.00, 0.00
197, 22367.35, 17706.18, -21680.25, -12009.01, -30167.90, -5598.73, -43743.95, 0.00, 0.00, 0.00, 0.00
198, 22372.58, 17697.15, -21697.20, -11999.51, -30171.81, -5562.61, -43782.17, 0.00, 0.00, 0.00, 0.00
199, 22508.77, 17840.22, -21729.29, -12003.65, -30189.09, -5489.95, -43829.47, 0.00, 0.00, 0.00, 0.00
200, 22510.22, 17856.16, -21707.77, -12010.44, -30176.84, -5529.91, -43774.41, 0.00, 0.00, 0.00, 0.00
201, 22369.58, 17717.56, -21685.93, -12008.68, -30159.12, -5603.65, -43748.82, 0.00, 0.00, 0.00, 0.00
202, 22331.09, 17666.35, -21704.77, -12010.51, -30175.77, -5593.57, -43803.11, 0.00, 0.09, 0.75, 0.64
203, 22468.17, 17810.63, -21741.29, -12016.54, -30205.50, -5515.99, -43861.99, 0.00, 0.00, 0.00, 0.00
204, 22518.22, 17878.73, -21715.99, -12006.60, -30185.09, -5514.02, -43761.09, 0.00, 0.00, 0.00, 0.00
205, 22397.10, 17746.68, -21683.56, -11998.21, -30166.96, -5585.59, -43742.09, 0.00, 0.00, 0.00, 0.00
206, 22328.41, 17666.93, -21686.82, -11997.54, -30174.74, -5583.85, -43752.80, 0.00, 0.00, 0.00, 0.00
207, 22461.80, 17789.93, -21723.06, -11990.50, -30185.16, -5491.06, -43773.68, 0.00, 0.00, 0.00, 0.00
208, 22541.22, 17880.63, -21723.62, -11989.39, -30178.03, -5497.61, -43795.98, 0.00, 0.00, 0.00, 0.00
209, 22425.30, 17776.32, -21690.40, -12008.43, -30162.58, -5586.97, -43782.75, 0.00, 0.00, 0.00, 0.00
210, 22344.17, 17682.42, -21668.88, -11990.10, -30159.86, -5591.11, -43763.53, 0.00, 0.00, 0.00, 0.00
211, 22445.60, 17774.24, -21705.04, -11987.44, -30179.99, -5497.59, -43768.20, 0.00, 0.00, 0.00, 0.00
212, 22556.93, 17901.36, -21720.11, -11994.44, -30179.68, -5483.37, -43794.24, 0.00, 0.09, 0.75, 0.63
213, 22461.45, 17807.10, -21691.05, -12004.94, -30163.48, -5573.07, -43764.29, 0.00, 0.00, 0.00, 0.00
214, 22356.06, 17678.84, -21663.91, -11989.18, -30150.45, -5583.60, -43725.84, 0.00, 0.00, 0.00, 0.00
215, 22432.21, 17744.56, -21684.59, -11976.85, -30158.25, -5499.11, -43747.39, 0.00, 0.00, 0.00, 0.00
216, 22559.23, 17888.95, -21712.69, -11994.84, -30172.42, -5480.40, -43791.25, 0.00, 0.00, 0.00, 0.00
217, 22494.19, 17838.84, -21695.07, -12007.11, -30170.43, -5564.53, -43774.30, 0.00, 0.00, 0.00, 0.00
218, 22363.88, 17697.87, -21663.87, -12001.32, -30152.10, -5604.16, -43725.46, 0.00, 0.00, 0.00, 0.00
219, 22398.41, 17718.47, -21673.03, -11990.28, -30160.95, -5530.07, -43770.10, 0.00, 0.00, 0.00, 0.00
220, 22541.26, 17871.22, -21717.76, -11983.13, -30180.73, -5472.47, -43822.85, 0.00, 0.00, 0.00, 0.00
221, 22520.99, 17863.38, -21700.62, -11980.85, -30161.38, -5528.68, -43763.66, 0.00, 0.00, 0.00, 0.00
222, 22381.27, 17714.92, -21680.01, -12015.27, -30153.62, -5590.26, -43735.72, 0.00, 0.09, 0.74, 0.64
223, 22363.61, 17691.20, -21692.23, -12013.97, -30174.76, -5576.92, -43806.38, 0.00, 0.00, 0.00, 0.00
224, 22511.25, 17828.42, -21725.67, -12019.96, -30195.17, -5510.17, -43851.24, 0.00, 0.00, 0.00, 0.00
225, 22531.88, 17853.97, -21711.79, -12021.75, -30174.68, -5510.76, -43726.40, 0.00, 0.00, 0.00, 0.00
226, 22407.22, 17717.96, -21678.51, -12025.10, -30158.22, -5584.00, -43700.48, 0.00, 0.00, 0.00, 0.00
227, 22361.29, 17657.07, -21693.96, -12034.69, -30174.65, -5594.28, -43756.69, 0.00, 0.00, 0.00, 0.00
228, 22479.35, 17797.64, -21737.54, -12029.08, -30183.71, -5509.97, -43812.52, 0.00, 0.00, 0.00, 0.00
229, 22522.82, 17870.35, -21719.57, -12020.75, -30165.64, -5513.57, -43770.10, 0.00, 0.00, 0.00, 0.00
230, 22412.25, 17760.40, -21680.52, -12018.35, -30154.89, -5599.49, -43749.89, 0.00, 0.00, 0.00, 0.00
231, 22355.81, 17685.93, -21690.15, -11983.73, -30154.76, -5581.97, -43752.24, 0.00, 0.09, 0.74, 0.64
232, 22460.35, 17799.68, -21736.54, -11995.69, -30175.57, -5478.26, -43803.58, 0.00, 0.00, 0.00, 0.00
233, 22536.95, 17895.32, -21746.08, -12011.71, -30180.29, -5476.33, -43795.71, 0.00, 0.00, 0.00, 0.00
234, 22438.24, 17792.28, -21710.34, -12007.76, -30160.50, -5572.76, -43744.04, 0.00, 0.00, 0.00, 0.00
235, 22341.42, 17678.08, -21686.22, -11999.18, -30148.26, -5593.81, -43738.38, 0.00, 0.00, 0.00, 0.00
236, 22430.94, 17763.00, -21710.45, -11996.25, -30168.04, -5494.08, -43779.04, 0.00, 0.00, 0.00, 0.00
237, 22546.63, 17886.92, -21731.13, -12005.17, -30183.46, -5473.29, -43818.11, 0.00, 0.00, 0.00, 0.00
238, 22471.41, 17818.27, -21711.52, -12009.01, -30168.73, -5551.66, -43764.87, 0.00, 0.00, 0.00, 0.00
239, 22357.22, 17701.71, -21689.69, -11997.34, -30156.30, -5587.13, -43751.17, 0.00, 0.00, 0.00, 0.00
240, 22416.05, 17749.25, -21707.70, -11987.69, -30168.06, -5514.15, -43801.41, 0.00, 0.00, 0.00, 0.00
241, 22555.50, 17892.48, -21728.67, -11998.91, -30167.72, -5465.78, -43776.56, 0.00, 0.10, 0.74, 0.64
242, 22507.38, 17849.34, -21712.69, -12007.16, -30159.90, -5527.32, -43753.72, 0.00, 0.00, 0.00, 0.00
243, 22386.75, 17716.15, -21679.83, -11998.17, -30146.40, -5571.24, -43732.91, 0.00, 0.00, 0.00, 0.00
244, 22414.20, 17727.84, -21698.78, -11994.48, -30165.33, -5518.11, -43760.13, 0.00, 0.00, 0.00, 0.00
245, 22535.27, 17868.79, -21736.00, -12006.60, -30173.65, -5461.34, -43781.30, 0.00, 0.00, 0.00, 0.00
246, 22512.27, 17862.93, -21729.85, -12022.76, -30166.58, -5533.67, -43805.33, 0.00, 0.00, 0.00, 0.00
247, 22378.54, 17719.59, -21707.34, -12021.64, -30164.26, -5604.50, -43778.08, 0.00, 0.00, 0.00, 0.00
248, 22364.91, 17697.78, -21709.06, -12004.70, -30167.23, -5543.66, -43773.68, 0.00, 0.00, 0.00, 0.00
249, 22519.78, 17851.51, -21742.70, -11999.71, -30186.79, -5447.70, -43784.32, 0.00, 0.00, 0.00, 0.00
250, 22550.29, 17886.56, -21735.89, -12011.65, -30176.91, -5497.79, -43775.35, 0.00, 0.00, 0.00, 0.00
251, 22420.54, 17750.28, -21704.59, -12010.51, -30160.95, -5573.68, -43735.25, 0.00, 0.10, 0.75, 0.64
252, 22369.54, 17680.59, -21703.74, -11993.92, -30163.10, -5574.61, -43757.76, 0.00, 0.00, 0.00, 0.00
253, 22507.42, 17818.43, -21734.10, -11985.63, -30184.09, -5482.01, -43817.40, 0.00, 0.00, 0.00, 0.00
254, 22575.06, 17906.96, -21731.95, -12009.95, -30178.14, -5478.75, -43804.57, 0.00, 0.00, 0.00, 0.00
255, 22461.40, 17780.03, -21706.18, -12020.34, -30160.66, -5560.53, -43736.84, 0.00, 0.00, 0.00, 0.00
0, 22370.59, 17669.30, -21697.31, -12024.17, -30170.70, -5577.16, -43746.88, 0.00, 0.00, 0.00, 0.00
1, 22483.06, 17786.31, -21719.03, -12020.70, -30181.11, -5495.33, -43808.32, 0.00, 0.00, 0.00, 0.00
2, 22578.55, 17897.76, -21740.71, -12022.04, -30183.95, -5486.93, -43856.96, 0.00, 0.00, 0.00, 0.00
3, 22485.03, 17801.06, -21715.70, -12028.46, -30184.04, -5577.03, -43834.25, 0.00, 0.00, 0.00, 0.00
4, 22382.46, 17701.08, -21689.37, -12013.15, -30163.32, -5588.76, -43744.87, 0.00, 0.00, 0.00, 0.00
5, 22465.42, 17773.86, -21720.69, -12004.58, -30163.52, -5486.06, -43752.80, 0.00, 0.10, 0.75, 0.63
6, 22579.26, 17899.37, -21744.42, -12014.49, -30185.07, -5461.47, -43803.54, 0.00, 0.00, 0.00, 0.00
7, 22511.63, 17840.56, -21719.73, -12025.80, -30173.92, -5547.68, -43780.81, 0.00, 0.00, 0.00, 0.00
8, 22391.40, 17715.84, -21688.50, -12012.74, -30148.77, -5576.18, -43729.78, 0.00, 0.00, 0.00, 0.00
9, 22438.45, 17754.10, -21706.98, -11996.85, -30160.84, -5491.09, -43745.25, 0.00, 0.00, 0.00, 0.00
10, 22571.97, 17891.19, -21742.08, -12011.33, -30189.27, -5449.27, -43791.47, 0.00, 0.00, 0.00, 0.00
11, 22532.14, 17860.81, -21718.54, -12024.75, -30172.87, -5530.87, -43775.93, 0.00, 0.00, 0.00, 0.00
12, 22398.21, 17718.36, -21698.22, -12021.15, -30161.62, -5588.14, -43758.66, 0.00, 0.00, 0.00, 0.00
13, 22410.06, 17715.01, -21710.72, -12009.91, -30168.64, -5528.73, -43782.53, 0.00, 0.00, 0.00, 0.00
14, 22553.94, 17862.69, -21747.26, -12014.49, -30189.58, -5449.11, -43816.95, 0.00, 0.09, 0.75, 0.63
15, 22552.08, 17876.61, -21729.22, -12020.19, -30181.04, -5501.35, -43808.30, 0.00, 0.00, 0.00, 0.00
16, 22410.17, 17721.89, -21703.86, -12031.47, -30166.56, -5585.68, -43771.17, 0.00, 0.00, 0.00, 0.00
17, 22392.24, 17687.54, -21702.11, -12019.14, -30158.52, -5551.48, -43780.25, 0.00, 0.00, 0.00, 0.00
18, 22538.25, 17829.56, -21745.34, -12026.02, -30185.90, -5458.09, -43815.72, 0.00, 0.00, 0.00, 0.00
19, 22569.72, 17876.52, -21734.32, -12031.09, -30184.31, -5489.61, -43816.26, 0.00, 0.00, 0.00, 0.00
20, 22446.76, 17750.93, -21702.00, -12004.16, -30164.82, -5563.28, -43781.52, 0.00, 0.00, 0.00, 0.00
21, 22387.37, 17677.19, -21704.28, -12017.33, -30162.09, -5544.60, -43786.77, 0.00, 0.00, 0.00, 0.00
22, 22523.56, 17811.03, -21744.98, -12021.48, -30186.34, -5458.50, -43833.76, 0.00, 0.00, 0.00, 0.00
23, 22600.92, 17901.53, -21739.89, -12039.41, -30181.27, -5466.39, -43815.86, 0.00, 0.00, 0.00, 0.00
24, 22485.38, 17790.29, -21702.13, -12027.07, -30163.46, -5544.57, -43776.47, 0.00, 0.09, 0.76, 0.63
25, 22386.50, 17685.28, -21682.67, -12010.33, -30142.24, -5557.29, -43759.82, 0.00, 0.00, 0.00, 0.00
26, 22493.74, 17788.28, -21726.39, -12000.25, -30165.42, -5450.90, -43807.32, 0.00, 0.00, 0.00, 0.00
27, 22594.53, 17906.07, -21739.33, -12003.07, -30167.08, -5423.40, -43792.00, 0.00, 0.00, 0.00, 0.00
28, 22512.95, 17829.99, -21699.32, -11999.98, -30144.93, -5498.31, -43732.28, 0.00, 0.00, 0.00, 0.00
29, 22402.17, 17707.72, -21673.05, -11994.53, -30142.04, -5533.06, -43720.91, 0.00, 0.00, 0.00, 0.00
30, 22467.73, 17780.23, -21700.68, -11991.71, -30155.90, -5469.99, -43752.42, 0.00, 0.00, 0.00, 0.00
31, 22598.35, 17921.54, -21742.26, -12005.84, -30168.15, -5442.27, -43811.41, 0.00, 0.00, 0.00, 0.00
32, 22530.31, 17849.07, -21725.58, -12018.58, -30163.59, -5516.75, -43793.44, 0.00, 0.00, 0.00, 0.00
33, 22410.78, 17710.09, -21687.09, -11997.57, -30139.85, -5537.56, -43746.86, 0.00, 0.00, 0.00, 0.00
34, 22450.18, 17740.27, -21702.58, -11995.44, -30144.70, -5485.03, -43770.95, 0.00, 0.09, 0.75, 0.64
35, 22586.41, 17887.25, -21736.74, -12008.85, -30174.27, -5439.81, -43841.22, 0.00, 0.00, 0.00, 0.00
36, 22557.18, 17869.73, -21721.36, -12013.08, -30161.94, -5488.18, -43779.33, 0.00, 0.00, 0.00, 0.00
37, 22418.49, 17718.52, -21685.33, -12012.81, -30137.35, -5539.48, -43722.63, 0.00, 0.00, 0.00, 0.00
38, 22418.24, 17705.04, -21698.67, -12012.88, -30149.78, -5512.59, -43785.52, 0.00, 0.00, 0.00, 0.00
39, 22561.80, 17859.45, -21741.96, -12023.90, -30179.35, -5446.38, -43845.76, 0.00, 0.00, 0.00, 0.00
40, 22565.20, 17875.05, -21733.36, -12028.64, -30167.14, -5480.00, -43810.16, 0.00, 0.00, 0.00, 0.00
41, 22441.58, 17738.30, -21697.53, -12013.70, -30145.95, -5555.73, -43776.47, 0.00, 0.00, 0.00, 0.00
42, 22412.32, 17687.78, -21699.50, -12032.21, -30152.19, -5555.57, -43805.59, 0.00, 0.00, 0.00, 0.00
43, 22545.82, 17825.70, -21737.61, -12036.30, -30173.94, -5453.69, -43812.86, 0.00, 0.00, 0.00, 0.00
44, 22586.13, 17887.45, -21724.04, -12020.79, -30163.72, -5440.12, -43774.13, 0.00, 0.09, 0.75, 0.64
45, 22454.38, 17751.20, -21699.01, -12003.65, -30155.95, -5538.38, -43753.52, 0.00, 0.00, 0.00, 0.00
46, 22394.28, 17673.55, -21692.77, -12031.25, -30150.51, -5552.42, -43736.08, 0.00, 0.00, 0.00, 0.00
47, 22525.30, 17789.66, -21720.78, -12040.75, -30159.32, -5449.18, -43792.54, 0.00, 0.00, 0.00, 0.00
48, 22598.71, 17880.01, -21719.19, -12035.09, -30163.16, -5449.22, -43826.90, 0.00, 0.00, 0.00, 0.00
49, 22485.03, 17771.16, -21701.84, -12044.37, -30154.94, -5547.66, -43794.38, 0.00, 0.00, 0.00, 0.00
50, 22390.32, 17667.38, -21697.84, -12042.61, -30154.31, -5576.63, -43781.70, 0.00, 0.00, 0.00, 0.00
51, 22491.84, 17769.28, -21715.84, -12032.32, -30169.18, -5471.84, -43789.43, 0.00, 0.00, 0.00, 0.00
52, 22602.49, 17888.12, -21745.21, -12041.38, -30182.14, -5446.14, -43810.54, 0.00, 0.00, 0.00, 0.00
53, 22520.57, 17808.84, -21717.47, -12050.47, -30168.37, -5533.04, -43790.66, 0.00, 0.09, 0.75, 0.63
54, 22403.40, 17692.03, -21688.19, -12034.33, -30143.32, -5562.46, -43767.33, 0.00, 0.00, 0.00, 0.00
55, 22473.07, 17750.59, -21706.18, -12016.28, -30153.13, -5467.77, -43786.86, 0.00, 0.00, 0.00, 0.00
56, 22612.03, 17878.62, -21735.55, -12032.39, -30170.54, -5437.60, -43819.97, 0.00, 0.00, 0.00, 0.00
57, 22557.00, 17837.83, -21711.66, -12037.02, -30158.00, -5526.85, -43807.96, 0.00, 0.00, 0.00, 0.00
58, 22422.82, 17696.41, -21691.50, -12026.96, -30156.77, -5551.08, -43781.23, 0.00, 0.00, 0.00, 0.00
59, 22457.24, 17717.02, -21698.71, -12002.86, -30153.22, -5466.34, -43739.93, 0.00, 0.00, 0.00, 0.00
60, 22600.54, 17871.36, -21734.41, -12016.07, -30165.44, -5432.39, -43818.78, 0.00, 0.00, 0.00, 0.00
61, 22575.46, 17870.87, -21725.56, -12046.03, -30163.81, -5489.25, -43804.37, 0.00, 0.00, 0.00, 0.00
62, 22437.71, 17720.19, -21699.68, -12038.13, -30155.30, -5529.73, -43733.27, 0.00, 0.00, 0.00, 0.00
63, 22431.56, 17693.73, -21696.93, -12023.03, -30151.54, -5494.66, -43745.92, 0.00, 0.09, 0.75, 0.63
64, 22577.92, 17846.39, -21731.84, -12033.67, -30171.93, -5421.66, -43819.41, 0.00, 0.00, 0.00, 0.00
65, 22588.47, 17873.95, -21731.97, -12049.45, -30175.17, -5471.75, -43817.96, 0.00, 0.00, 0.00, 0.00
66, 22457.27, 17735.46, -21709.69, -12050.47, -30162.49, -5554.34, -43785.34, 0.00, 0.00, 0.00, 0.00
67, 22412.29, 17673.81, -21702.36, -12031.63, -30159.68, -5537.47, -43770.53, 0.00, 0.00, 0.00, 0.00
68, 22550.03, 17820.40, -21731.24, -12031.70, -30175.44, -5455.30, -43828.77, 0.00, 0.00, 0.00, 0.00
69, 22606.87, 17889.49, -21731.53, -12048.64, -30175.46, -5473.25, -43844.78, 0.00, 0.00, 0.00, 0.00
70, 22471.41, 17746.50, -21724.93, -12045.18, -30174.29, -5558.25, -43780.29, 0.00, 0.00, 0.00, 0.00
71, 22391.84, 17658.39, -21710.90, -12020.48, -30169.98, -5552.60, -43770.30, 0.00, 0.00, 0.00, 0.00
72, 22515.83, 17778.04, -21735.75, -12052.42, -30187.59, -5450.18, -43817.71, 0.00, 0.00, 0.00, 0.00
73, 22602.73, 17871.63, -21753.19, -12061.43, -30190.19, -5452.08, -43837.34, 0.00, 0.09, 0.75, 0.63
74, 22497.83, 17770.33, -21725.52, -12063.88, -30172.39, -5545.09, -43805.64, 0.00, 0.00, 0.00, 0.00
75, 22401.54, 17664.11, -21706.74, -12056.89, -30162.54, -5577.77, -43796.48, 0.00, 0.00, 0.00, 0.00
76, 22484.80, 17747.60, -21738.35, -12047.12, -30189.52, -5471.15, -43836.31, 0.00, 0.00, 0.00, 0.00
77, 22595.69, 17875.23, -21754.01, -12054.76, -30200.20, -5448.15, -43854.39, 0.00, 0.00, 0.00, 0.00
78, 22519.22, 17808.37, -21735.28, -12069.72, -30183.24, -5535.10, -43809.80, 0.00, 0.00, 0.00, 0.00
79, 22406.95, 17676.81, -21711.12, -12058.01, -30168.69, -5559.57, -43764.31, 0.00, 0.00, 0.00, 0.00
80, 22466.50, 17718.58, -21725.25, -12050.09, -30178.27, -5486.84, -43780.20, 0.00, 0.00, 0.00, 0.00
81, 22596.07, 17856.52, -21767.34, -12059.17, -30200.98, -5458.16, -43874.95, 0.00, 0.00, 0.00, 0.00
82, 22551.21, 17829.18, -21747.40, -12050.00, -30192.71, -5505.73, -43801.77, 0.00, 0.00, 0.00, 0.00
83, 22431.58, 17707.70, -21706.07, -12045.49, -30169.74, -5545.67, -43743.55, 0.00, 0.09, 0.75, 0.62
84, 22456.10, 17718.76, -21714.74, -12035.43, -30186.41, -5503.87, -43803.36, 0.00, 0.00, 0.00, 0.00
85, 22610.11, 17872.41, -21747.60, -12028.90, -30197.23, -5424.81, -43830.23, 0.00, 0.00, 0.00, 0.00
86, 22593.32, 17863.56, -21745.10, -12030.63, -30197.54, -5473.00, -43834.47, 0.00, 0.00, 0.00, 0.00
87, 22455.25, 17722.61, -21719.88, -12036.17, -30195.22, -5547.66, -43816.53, 0.00, 0.00, 0.00, 0.00
88, 22430.11, 17681.46, -21725.43, -12038.40, -30192.71, -5533.42, -43821.35, 0.00, 0.00, 0.00, 0.00
89, 22582.53, 17832.67, -21753.03, -12025.26, -30204.85, -5442.36, -43839.59, 0.00, 0.00, 0.00, 0.00
90, 22617.30, 17886.18, -21740.71, -12028.46, -30198.55, -5455.97, -43829.04, 0.00, 0.00, 0.00, 0.00
91, 22482.26, 17753.61, -21713.31, -12044.17, -30181.31, -5537.56, -43801.82, 0.00, 0.00, 0.00, 0.00
92, 22420.36, 17680.12, -21710.43, -12037.91, -30179.59, -5527.90, -43800.99, 0.00, 0.00, 0.00, 0.00
93, 22540.44, 17801.62, -21751.89, -12061.05, -30205.63, -5464.22, -43876.25, 0.00, 0.09, 0.76, 0.63
94, 22601.72, 17859.69, -21764.03, -12083.69, -30202.08, -5498.80, -43864.05, 0.00, 0.00, 0.00, 0.00
95, 22484.27, 17741.12, -21729.72, -12070.01, -30180.78, -5546.94, -43828.86, 0.00, 0.00, 0.00, 0.00
96, 22398.15, 17643.97, -21718.50, -12057.13, -30175.46, -5543.72, -43803.88, 0.00, 0.00, 0.00, 0.00
97, 22511.69, 17760.76, -21741.45, -12029.06, -30178.23, -5442.11, -43786.39, 0.00, 0.00, 0.00, 0.00
98, 22605.73, 17871.34, -21754.26, -12035.45, -30186.19, -5445.98, -43810.96, 0.00, 0.00, 0.00, 0.00
99, 22508.18, 17782.24, -21723.48, -12081.83, -30176.73, -5537.80, -43829.02, 0.00, 0.00, 0.00, 0.00
100, 22397.14, 17658.46, -21716.89, -12070.66, -30171.30, -5557.63, -43797.35, 0.00, 0.00, 0.00, 0.00
101, 22476.40, 17724.91, -21742.99, -12055.12, -30175.44, -5471.80, -43800.12, 0.00, 0.00, 0.00, 0.00
102, 22612.01, 17861.30, -21754.95, -12058.63, -30177.40, -5443.90, -43829.15, 0.00, 0.08, 0.75, 0.63
103, 22554.45, 17809.38, -21728.29, -12055.57, -30170.90, -5511.29, -43787.65, 0.00, 0.00, 0.00, 0.00
104, 22434.91, 17684.01, -21704.41, -12069.41, -30158.78, -5553.89, -43756.45, 0.00, 0.00, 0.00, 0.00
105, 22467.86, 17718.29, -21724.04, -12051.43, -30158.96, -5480.31, -43789.39, 0.00, 0.00, 0.00, 0.00
106, 22597.30, 17857.30, -21762.46, -12055.30, -30179.30, -5429.93, -43835.17, 0.00, 0.00, 0.00, 0.00
107, 22557.49, 17824.44, -21750.57, -12069.32, -30178.18, -5495.20, -43817.09, 0.00, 0.00, 0.00, 0.00
108, 22424.79, 17678.44, -21726.48, -12070.66, -30168.10, -5561.02, -43778.13, 0.00, 0.00, 0.00, 0.00
109, 22432.99, 17672.27, -21732.82, -12060.38, -30169.60, -5519.41, -43820.39, 0.00, 0.00, 0.00, 0.00
110, 22583.11, 17824.33, -21764.34, -12063.46, -30185.70, -5442.25, -43843.66, 0.00, 0.00, 0.00, 0.00
111, 22586.79, 17842.32, -21750.39, -12061.02, -30186.14, -5462.92, -43814.58, 0.00, 0.00, 0.00, 0.00
112, 22463.68, 17714.85, -21709.13, -12049.74, -30164.86, -5520.75, -43784.29, 0.00, 0.09, 0.75, 0.62
113, 22437.08, 17685.19, -21709.22, -12045.31, -30166.56, -5506.60, -43810.65, 0.00, 0.00, 0.00, 0.00
114, 22587.22, 17841.63, -21748.31, -12056.60, -30186.01, -5427.67, -43836.60, 0.00, 0.00, 0.00, 0.00
115, 22618.45, 17870.35, -21741.00, -12061.98, -30166.94, -5455.26, -43800.41, 0.00, 0.00, 0.00, 0.00
116, 22471.79, 17724.35, -21723.48, -12070.43, -30156.32, -5531.10, -43772.14, 0.00, 0.00, 0.00, 0.00
117, 22407.89, 17648.36, -21718.12, -12063.33, -30163.07, -5522.80, -43780.83, 0.00, 0.00, 0.00, 0.00
118, 22542.29, 17788.59, -21734.43, -12061.27, -30176.80, -5437.62, -43824.01, 0.00, 0.00, 0.00, 0.00
119, 22626.47, 17868.86, -21758.33, -12071.33, -30184.96, -5449.29, -43845.54, 0.00, 0.00, 0.00, 0.00
120, 22508.68, 17755.69, -21733.54, -12070.86, -30168.08, -5531.25, -43809.02, 0.00, 0.00, 0.00, 0.00
121, 22412.38, 17658.32, -21716.22, -12062.43, -30160.71, -5540.17, -43781.21, 0.00, 0.00, 0.00, 0.00
122, 22519.14, 17752.36, -21746.82, -12056.28, -30171.10, -5448.62, -43814.67, 0.00, 0.08, 0.75, 0.63
123, 22621.84, 17864.59, -21768.79, -12074.81, -30188.13, -5449.89, -43895.09, 0.00, 0.00, 0.00, 0.00
124, 22532.53, 17785.17, -21741.56, -12079.62, -30169.85, -5518.58, -43789.73, 0.00, 0.00, 0.00, 0.00
125, 22426.15, 17665.97, -21710.83, -12063.44, -30148.63, -5533.38, -43748.49, 0.00, 0.00, 0.00, 0.00
126, 22500.07, 17734.12, -21731.71, -12051.37, -30169.09, -5455.12, -43794.26, 0.00, 0.00, 0.00, 0.00
127, 22626.51, 17875.16, -21760.27, -12038.07, -30178.30, -5419.83, -43830.65, 0.00, 0.00, 0.00, 0.00
128, 22561.85, 17818.92, -21746.48, -12064.82, -30168.28, -5512.81, -43837.18, 0.00, 0.00, 0.00, 0.00
129, 22433.91, 17677.75, -21723.59, -12083.26, -30154.60, -5540.91, -43767.71, 0.00, 0.00, 0.00, 0.00
130, 22471.33, 17701.26, -21736.69, -12062.21, -30160.50, -5456.06, -43784.38, 0.00, 0.00, 0.00, 0.00
131, 22619.41, 17850.86, -21764.27, -12066.37, -30180.80, -5411.02, -43841.85, 0.00, 0.00, 0.00, 0.00
132, 22598.28, 17837.14, -21748.89, -12073.70, -30179.64, -5474.52, -43826.94, 0.00, 0.08, 0.76, 0.62
133, 22470.52, 17702.38, -21714.47, -12059.55, -30155.90, -5526.16, -43781.16, 0.00, 0.00, 0.00, 0.00
134, 22457.76, 17692.21, -21716.64, -12043.39, -30151.74, -5484.96, -43789.99, 0.00, 0.00, 0.00, 0.00
135, 22597.84, 17838.30, -21764.09, -12048.62, -30171.86, -5403.85, -43809.69, 0.00, 0.00, 0.00, 0.00
136, 22598.04, 17857.66, -21762.93, -12067.30, -30172.19, -5456.95, -43816.73, 0.00, 0.00, 0.00, 0.00
137, 22474.37, 17722.23, -21719.88, -12058.59, -30151.45, -5521.01, -43787.80, 0.00, 0.00, 0.00, 0.00
138, 22445.04, 17672.43, -21710.63, -12043.59, -30144.28, -5490.39, -43747.64, 0.00, 0.00, 0.00, 0.00
139, 22583.11, 17808.62, -21747.96, -12050.47, -30164.37, -5406.91, -43813.44, 0.00, 0.00, 0.00, 0.00
140, 22636.26, 17870.89, -21746.08, -12057.38, -30164.77, -5438.00, -43820.19, 0.00, 0.00, 0.00, 0.00
141, 22517.55, 17748.87, -21717.74, -12061.25, -30156.50, -5515.02, -43775.71, 0.00, 0.08, 0.75, 0.63
142, 22438.71, 17664.38, -21715.97, -12061.58, -30153.15, -5520.59, -43776.27, 0.00, 0.00, 0.00, 0.00
143, 22544.51, 17780.83, -21764.05, -12071.91, -30185.85, -5443.66, -43859.42, 0.00, 0.00, 0.00, 0.00
144, 22624.50, 17858.02, -21776.54, -12086.68, -30196.78, -5474.77, -43890.46, 0.00, 0.00, 0.00, 0.00
145, 22527.05, 17753.83, -21733.07, -12073.99, -30170.21, -5528.28, -43794.22, 0.00, 0.00, 0.00, 0.00
146, 22432.46, 17651.48, -21718.63, -12059.86, -30157.62, -5518.51, -43778.21, 0.00, 0.00, 0.00, 0.00
147, 22515.56, 17729.76, -21767.27, -12070.75, -30186.86, -5453.51, -43854.57, 0.00, 0.00, 0.00, 0.00
148, 22622.74, 17840.29, -21783.94, -12088.18, -30198.86, -5449.65, -43870.19, 0.00, 0.00, 0.00, 0.00
149, 22540.13, 17774.35, -21745.36, -12082.48, -30185.18, -5523.70, -43830.88, 0.00, 0.00, 0.00, 0.00
150, 22426.55, 17658.28, -21732.64, -12065.16, -30170.99, -5536.48, -43776.43, 0.00, 0.00, 0.00, 0.00
151, 22483.93, 17703.68, -21761.10, -12076.60, -30170.34, -5465.72, -43797.04, 0.00, 0.08, 0.74, 0.62
152, 22609.50, 17826.46, -21794.94, -12097.70, -30191.95, -5437.64, -43836.73, 0.00, 0.00, 0.00, 0.00
153, 22553.00, 17772.90, -21779.09, -12109.64, -30198.70, -5514.98, -43831.93, 0.00, 0.00, 0.00, 0.00
154, 22423.63, 17635.93, -21758.51, -12077.63, -30185.16, -5566.19, -43803.43, 0.00, 0.00, 0.00, 0.00
155, 22445.22, 17651.39, -21772.14, -12094.24, -30190.43, -5517.64, -43846.48, 0.00, 0.00, 0.00, 0.00
156, 22587.29, 17791.38, -21802.43, -12114.87, -30214.19, -5462.81, -43880.68, 0.00, 0.00, 0.00, 0.00
157, 22583.53, 17796.59, -21774.71, -12108.10, -30196.54, -5504.85, -43829.04, 0.00, 0.00, 0.00, 0.00
158, 22451.54, 17658.77, -21742.23, -12103.40, -30179.03, -5559.71, -43800.66, 0.00, 0.00, 0.00, 0.00
159, 22442.00, 17639.95, -21741.52, -12088.40, -30176.78, -5518.58, -43805.86, 0.00, 0.00, 0.00, 0.00
160, 22593.03, 17793.40, -21778.78, -12090.13, -30201.56, -5431.32, -43876.94, 0.00, 0.00, 0.00, 0.00
161, 22614.13, 17829.67, -21772.86, -12100.70, -30194.72, -5481.79, -43860.09, 0.00, 0.09, 0.75, 0.63
162, 22483.93, 17693.69, -21744.94, -12103.38, -30179.10, -5553.13, -43806.07, 0.00, 0.00, 0.00, 0.00
163, 22440.75, 17632.42, -21735.10, -12091.26, -30171.84, -5539.75, -43805.98, 0.00, 0.00, 0.00, 0.00
164, 22572.27, 17763.80, -21774.42, -12099.76, -30192.78, -5462.52, -43860.94, 0.00, 0.00, 0.00, 0.00
165, 22624.14, 17829.23, -21779.85, -12108.36, -30204.72, -5465.29, -43863.51, 0.00, 0.00, 0.00, 0.00
166, 22509.41, 17709.22, -21744.40, -12100.27, -30186.83, -5529.87, -43828.04, 0.00, 0.00, 0.00, 0.00
167, 22432.17, 17622.67, -21718.43, -12096.07, -30163.88, -5546.61, -43801.91, 0.00, 0.00, 0.00, 0.00
168, 22541.98, 17730.81, -21759.00, -12095.80, -30183.39, -5452.10, -43841.11, 0.00, 0.00, 0.00, 0.00
169, 22646.18, 17838.57, -21774.31, -12095.29, -30191.60, -5439.30, -43865.61, 0.00, 0.00, 0.00, 0.00
170, 22546.47, 17754.10, -21754.86, -12098.57, -30182.74, -5525.22, -43826.85, 0.00, 0.00, 0.00, 0.00
171, 22431.23, 17623.81, -21742.73, -12110.06, -30163.92, -5552.98, -43800.03, 0.00, 0.09, 0.74, 0.62
172, 22503.33, 17684.77, -21771.13, -12107.87, -30188.87, -5480.38, -43858.61, 0.00, 0.00, 0.00, 0.00
173, 22621.78, 17811.57, -21796.53, -12111.87, -30200.07, -5444.88, -43860.85, 0.00, 0.00, 0.00, 0.00
174, 22546.29, 17744.56, -21780.41, -12122.11, -30195.04, -5523.83, -43808.57, 0.00, 0.00, 0.00, 0.00
175, 22427.38, 17615.65, -21756.16, -12115.14, -30183.73, -5563.84, -43800.50, 0.00, 0.00, 0.00, 0.00
176, 22481.56, 17664.11, -21768.12, -12096.67, -30191.60, -5487.58, -43871.36, 0.00, 0.00, 0.00, 0.00
177, 22622.07, 17812.51, -21791.88, -12105.39, -30213.66, -5434.80, -43908.70, 0.00, 0.00, 0.00, 0.00
178, 22587.44, 17781.71, -21770.55, -12106.75, -30197.25, -5491.35, -43840.91, 0.00, 0.00, 0.00, 0.00
179, 22455.34, 17635.62, -21744.16, -12108.59, -30171.63, -5561.74, -43792.07, 0.00, 0.00, 0.00, 0.00
180, 22464.58, 17634.81, -21755.98, -12098.78, -30180.11, -5507.04, -43820.46, 0.00, 0.00, 0.00, 0.00
181, 22609.08, 17782.85, -21792.30, -12107.43, -30201.43, -5435.47, -43869.25, 0.00, 0.08, 0.74, 0.63
182, 22599.71, 17786.60, -21785.78, -12126.04, -30207.29, -5496.36, -43882.33, 0.00, 0.00, 0.00, 0.00
183, 22466.23, 17648.00, -21747.11, -12122.78, -30191.15, -5566.61, -43840.42, 0.00, 0.00, 0.00, 0.00
184, 22445.64, 17621.78, -21738.19, -12101.95, -30175.90, -5524.19, -43829.24, 0.00, 0.00, 0.00, 0.00
185, 22588.81, 17773.55, -21795.12, -12087.53, -30208.25, -5444.88, -43888.30, 0.00, 0.00, 0.00, 0.00
186, 22619.52, 17818.94, -21794.40, -12115.54, -30202.21, -5481.03, -43849.34, 0.00, 0.00, 0.00, 0.00
187, 22489.27, 17688.41, -21756.12, -12144.91, -30182.43, -5564.82, -43815.59, 0.00, 0.00, 0.00, 0.00
188, 22434.54, 17621.78, -21749.12, -12128.50, -30185.49, -5540.08, -43813.04, 0.00, 0.00, 0.00, 0.00
189, 22561.69, 17746.81, -21791.03, -12128.77, -30201.27, -5458.16, -43872.43, 0.00, 0.00, 0.00, 0.00
190, 22633.49, 17826.59, -21790.31, -12124.44, -30202.32, -5474.63, -43896.63, 0.00, 0.08, 0.75, 0.63
191, 22525.86, 17706.43, -21761.01, -12132.01, -30192.15, -5556.84, -43866.28, 0.00, 0.00, 0.00, 0.00
192, 22433.69, 17606.47, -21749.54, -12122.00, -30184.62, -5563.93, -43837.71, 0.00, 0.00, 0.00, 0.00
193, 22533.78, 17708.21, -21784.41, -12107.89, -30200.47, -5468.78, -43834.94, 0.00, 0.00, 0.00, 0.00
194, 22633.44, 17816.87, -21797.20, -12120.66, -30206.95, -5457.83, -43871.69, 0.00, 0.00, 0.00, 0.00
195, 22525.21, 17739.28, -21770.55, -12148.17, -30195.82, -5545.09, -43858.84, 0.00, 0.00, 0.00, 0.00
196, 22418.33, 17633.98, -21740.33, -12133.62, -30188.62, -5574.75, -43850.97, 0.00, 0.00, 0.00, 0.00
197, 22502.42, 17676.90, -21755.49, -12115.49, -30187.19, -5494.64, -43847.39, 0.00, 0.00, 0.00, 0.00
198, 22625.64, 17800.73, -21794.56, -12122.51, -30201.56, -5441.84, -43881.90, 0.00, 0.00, 0.00, 0.00
199, 22568.22, 17745.74, -21769.48, -12127.97, -30187.82, -5516.68, -43838.61, 0.00, 0.00, 0.00, 0.00
200, 22449.04, 17614.58, -21737.74, -12122.83, -30178.70, -5565.85, -43819.21, 0.00, 0.08, 0.75, 0.63
201, 22488.94, 17649.29, -21763.87, -12109.59, -30194.54, -5495.02, -43840.42, 0.00, 0.00, 0.00, 0.00
202, 22637.02, 17808.66, -21782.45, -12100.14, -30199.08, -5416.65, -43847.64, 0.00, 0.00, 0.00, 0.00
203, 22607.63, 17798.65, -21764.90, -12110.11, -30187.59, -5475.64, -43826.67, 0.00, 0.00, 0.00, 0.00
204, 22468.17, 17657.27, -21746.66, -12117.26, -30178.07, -5550.65, -43833.85, 0.00, 0.00, 0.00, 0.00
205, 22466.72, 17643.55, -21759.49, -12113.24, -30175.46, -5508.12, -43836.73, 0.00, 0.00, 0.00, 0.00
206, 22614.24, 17797.20, -21783.83, -12110.93, -30183.93, -5424.81, -43848.60, 0.00, 0.00, 0.00, 0.00
207, 22626.74, 17818.01, -21772.54, -12115.63, -30183.10, -5469.56, -43850.12, 0.00, 0.00, 0.00, 0.00
208, 22496.45, 17675.45, -21747.71, -12119.29, -30172.37, -5534.78, -43819.72, 0.00, 0.00, 0.00, 0.00
209, 22449.55, 17618.76, -21749.90, -12114.06, -30178.72, -5507.54, -43831.57, 0.00, 0.00, 0.00, 0.00
210, 22589.86, 17763.09, -21784.59, -12117.66, -30191.17, -5429.17, -43855.29, 0.00, 0.09, 0.75, 0.63
211, 22635.61, 17825.94, -21777.77, -12108.43, -30188.31, -5452.46, -43857.38, 0.00, 0.00, 0.00, 0.00
212, 22503.09, 17695.41, -21752.02, -12105.01, -30174.68, -5530.11, -43818.98, 0.00, 0.00, 0.00, 0.00
213, 22440.10, 17609.58, -21749.25, -12133.71, -30175.68, -5533.46, -43812.46, 0.00, 0.00, 0.00, 0.00
214, 22581.38, 17737.79, -21778.51, -12117.35, -30197.50, -5440.97, -43897.77, 0.00, 0.00, 0.00, 0.00
215, 22651.55, 17831.28, -21783.21, -12118.38, -30196.96, -5437.53, -43858.57, 0.00, 0.00, 0.00, 0.00
216, 22538.36, 17730.12, -21746.71, -12108.95, -30176.22, -5511.49, -43813.84, 0.00, 0.00, 0.00, 0.00
217, 22449.78, 17625.71, -21724.38, -12112.39, -30166.65, -5529.40, -43779.85, 0.00, 0.00, 0.00, 0.00
218, 22547.05, 17729.02, -21764.38, -12116.68, -30172.55, -5452.46, -43840.89, 0.00, 0.00, 0.00, 0.00
219, 22650.25, 17833.83, -21783.05, -12123.63, -30186.74, -5452.26, -43876.00, 0.00, 0.00, 0.00, 0.00
220, 22560.82, 17748.60, -21755.89, -12135.83, -30178.68, -5524.95, -43833.02, 0.00, 0.08, 0.75, 0.63
221, 22442.38, 17618.34, -21731.17, -12126.42, -30159.59, -5541.91, -43788.95, 0.00, 0.00, 0.00, 0.00
222, 22513.64, 17682.73, -21748.52, -12113.21, -30164.59, -5465.29, -43817.44, 0.00, 0.00, 0.00, 0.00
223, 22639.99, 17828.06, -21777.75, -12113.71, -30182.25, -5404.38, -43859.62, 0.00, 0.00, 0.00, 0.00
224, 22586.30, 17767.27, -21758.48, -12120.21, -30177.25, -5484.60, -43831.97, 0.00, 0.00, 0.00, 0.00
225, 22457.29, 17627.79, -21731.33, -12108.81, -30164.82, -5531.92, -43795.02, 0.00, 0.00, 0.00, 0.00
226, 22485.00, 17646.84, -21746.32, -12110.67, -30178.03, -5471.95, -43823.70, 0.00, 0.00, 0.00, 0.00
227, 22635.86, 17802.20, -21772.63, -12115.87, -30184.06, -5411.96, -43880.09, 0.00, 0.00, 0.00, 0.00
228, 22617.30, 17801.96, -21757.01, -12115.45, -30174.68, -5466.14, -43837.20, 0.00, 0.00, 0.00, 0.00
229, 22486.68, 17664.11, -21723.03, -12108.25, -30157.89, -5522.27, -43779.11, 0.00, 0.08, 0.75, 0.63
230, 22491.35, 17649.14, -21716.13, -12091.44, -30158.13, -5476.67, -43827.30, 0.00, 0.00, 0.00, 0.00
231, 22634.49, 17798.78, -21764.36, -12098.10, -30185.07, -5403.35, -43900.64, 0.00, 0.00, 0.00, 0.00
232, 22650.94, 17831.69, -21755.94, -12107.18, -30180.02, -5439.39, -43865.99, 0.00, 0.00, 0.00, 0.00
233, 22527.52, 17697.11, -21723.23, -12110.04, -30149.75, -5510.84, -43763.53, 0.00, 0.00, 0.00, 0.00
234, 22485.25, 17642.88, -21719.99, -12098.10, -30142.38, -5493.23, -43755.82, 0.00, 0.00, 0.00, 0.00
235, 22615.72, 17782.80, -21751.64, -12102.17, -30170.00, -5401.43, -43843.23, 0.00, 0.00, 0.00, 0.00
236, 22668.94, 17836.60, -21757.34, -12115.34, -30177.18, -5437.82, -43855.33, 0.00, 0.00, 0.00, 0.00
237, 22547.79, 17702.96, -21734.81, -12094.22, -30163.77, -5525.55, -43831.25, 0.00, 0.00, 0.00, 0.00
238, 22475.13, 17615.37, -21723.71, -12110.69, -30151.63, -5517.98, -43777.57, 0.00, 0.00, 0.00, 0.00
239, 22593.16, 17740.02, -21755.15, -12110.67, -30161.46, -5438.20, -43834.12, 0.00, 0.08, 0.75, 0.62
240, 22680.58, 17845.28, -21752.58, -12122.07, -30165.87, -5420.28, -43843.82, 0.00, 0.00, 0.00, 0.00
241, 22566.39, 17744.58, -21728.40, -12129.71, -30157.38, -5493.39, -43800.81, 0.00, 0.00, 0.00, 0.00
242, 22462.79, 17620.01, -21721.54, -12114.80, -30152.48, -5500.97, -43802.06, 0.00, 0.00, 0.00, 0.00
243, 22557.76, 17703.95, -21750.59, -12114.85, -30168.08, -5440.57, -43840.09, 0.00, 0.00, 0.00, 0.00
244, 22670.39, 17835.04, -21770.20, -12122.27, -30176.11, -5418.38, -43859.57, 0.00, 0.00, 0.00, 0.00
245, 22583.49, 17748.25, -21753.30, -12129.67, -30175.57, -5488.02, -43820.48, 0.00, 0.00, 0.00, 0.00
246, 22472.94, 17623.10, -21714.41, -12111.96, -30155.99, -5510.78, -43785.08, 0.00, 0.00, 0.00, 0.00
247, 22526.60, 17675.76, -21743.35, -12114.69, -30168.57, -5451.93, -43839.57, 0.00, 0.00, 0.00, 0.00
248, 22655.08, 17817.87, -21785.22, -12127.72, -30193.38, -5414.53, -43900.34, 0.00, 0.00, 0.00, 0.00
249, 22611.02, 17780.57, -21763.04, -12130.65, -30176.91, -5473.36, -43837.38, 0.00, 0.09, 0.75, 0.62
250, 22482.43, 17656.60, -21737.38, -12122.36, -30167.16, -5520.52, -43812.48, 0.00, 0.00, 0.00, 0.00
251, 22497.70, 17652.96, -21744.98, -12119.41, -30175.12, -5469.49, -43838.88, 0.00, 0.00, 0.00, 0.00
252, 22635.16, 17791.56, -21782.47, -12127.09, -30187.95, -5406.80, -43862.66, 0.00, 0.00, 0.00, 0.00
253, 22630.07, 17795.05, -21774.24, -12135.79, -30181.36, -5466.32, -43869.97, 0.00, 0.00, 0.00, 0.00
254, 22502.57, 17661.99, -21738.57, -12125.02, -30159.59, -5518.47, -43804.77, 0.00, 0.00, 0.00, 0.00
255, 22484.92, 17639.53, -21742.64, -12110.98, -30161.38, -5469.29, -43787.78, 0.00, 0.00, 0.00, 0.00
0, 22627.83, 17784.68, -21782.76, -12118.38, -30188.40, -5400.02, -43868.00, 0.00, 0.00, 0.00, 0.00
1, 22656.71, 17826.88, -21774.11, -12129.87, -30183.44, -5445.47, -43847.68, 0.00, 0.00, 0.00, 0.00
2, 22524.52, 17691.16, -21739.60, -12131.05, -30158.56, -5516.46, -43792.86, 0.00, 0.00, 0.00, 0.00
3, 22473.38, 17626.79, -21727.57, -12103.54, -30151.94, -5483.49, -43781.88, 0.00, 0.09, 0.75, 0.63
4, 22613.19, 17761.63, -21766.73, -12110.46, -30177.38, -5401.79, -43883.16, 0.00, 0.00, 0.00, 0.00
5, 22679.55, 17833.74, -21775.61, -12128.24, -30186.97, -5423.18, -43873.21, 0.00, 0.00, 0.00, 0.00
6, 22564.96, 17729.27, -21751.17, -12107.07, -30165.40, -5464.17, -43783.07, 0.00, 0.00, 0.00, 0.00
7, 22485.94, 17644.09, -21727.59, -12084.72, -30152.08, -5461.36, -43778.10, 0.00, 0.00, 0.00, 0.00
8, 22597.14, 17752.00, -21754.30, -12082.70, -30173.78, -5385.43, -43836.02, 0.00, 0.00, 0.00, 0.00
9, 22691.96, 17852.92, -21764.94, -12089.99, -30183.17, -5389.77, -43866.39, 0.00, 0.00, 0.00, 0.00
10, 22585.05, 17753.99, -21754.86, -12091.60, -30178.14, -5487.00, -43844.75, 0.00, 0.00, 0.00, 0.00
11, 22477.20, 17639.57, -21737.90, -12124.75, -30164.42, -5511.98, -43821.33, 0.00, 0.00, 0.00, 0.00
12, 22554.61, 17706.18, -21768.54, -12127.25, -30182.23, -5446.96, -43879.02, 0.00, 0.09, 0.75, 0.63
13, 22673.45, 17834.81, -21784.10, -12123.61, -30189.99, -5411.60, -43906.40, 0.00, 0.00, 0.00, 0.00
14, 22603.09, 17776.34, -21763.02, -12140.44, -30179.19, -5484.13, -43856.98, 0.00, 0.00, 0.00, 0.00
15, 22480.85, 17621.73, -21750.19, -12145.98, -30168.84, -5536.17, -43789.97, 0.00, 0.00, 0.00, 0.00
16, 22526.67, 17661.72, -21760.67, -12121.66, -30171.19, -5440.68, -43809.46, 0.00, 0.00, 0.00, 0.00
17, 22665.34, 17813.20, -21786.78, -12122.74, -30181.36, -5395.64, -43889.75, 0.00, 0.00, 0.00, 0.00
18, 22621.93, 17790.18, -21778.24, -12134.07, -30185.22, -5474.39, -43876.05, 0.00, 0.00, 0.00, 0.00
19, 22493.97, 17652.63, -21746.66, -12131.61, -30166.79, -5524.70, -43804.68, 0.00, 0.00, 0.00, 0.00
20, 22506.39, 17649.14, -21755.98, -12125.42, -30170.43, -5470.52, -43821.20, 0.00, 0.00, 0.00, 0.00
21, 22656.04, 17813.36, -21781.42, -12116.81, -30183.33, -5379.22, -43862.55, 0.00, 0.00, 0.00, 0.00
22, 22648.42, 17822.99, -21761.57, -12131.79, -30175.28, -5430.89, -43842.32, 0.00, 0.09, 0.75, 0.62
23, 22506.39, 17670.13, -21736.15, -12139.32, -30160.53, -5512.45, -43802.45, 0.00, 0.00, 0.00, 0.00
24, 22479.71, 17631.53, -21751.00, -12125.75, -30161.60, -5482.55, -43812.26, 0.00, 0.00, 0.00, 0.00
25, 22624.32, 17777.19, -21791.38, -12131.01, -30195.28, -5404.41, -43918.83, 0.00, 0.00, 0.00, 0.00
26, 22661.27, 17826.16, -21782.15, -12133.51, -30182.86, -5445.06, -43866.77, 0.00, 0.00, 0.00, 0.00
27, 22533.66, 17706.13, -21740.63, -12143.77, -30158.85, -5511.38, -43783.07, 0.00, 0.00, 0.00, 0.00
28, 22473.25, 17635.28, -21734.86, -12132.73, -30162.40, -5496.96, -43788.27, 0.00, 0.00, 0.00, 0.00
29, 22595.18, 17748.58, -21779.81, -12132.71, -30188.96, -5403.71, -43852.69, 0.00, 0.00, 0.00, 0.00
30, 22660.04, 17820.29, -21784.03, -12146.92, -30182.32, -5426.38, -43866.50, 0.00, 0.00, 0.00, 0.00
31, 22553.76, 17703.41, -21758.95, -12158.99, -30169.09, -5522.31, -43832.69, 0.00, 0.00, 0.00, 0.00
32, 22466.47, 17611.07, -21747.29, -12149.29, -30167.34, -5533.60, -43834.92, 0.00, 0.09, 0.74, 0.62
33, 22552.15, 17716.48, -21780.39, -12118.15, -30192.36, -5439.16, -43915.43, 0.00, 0.00, 0.00, 0.00
34, 22656.87, 17829.29, -21798.29, -12132.50, -30201.03, -5415.51, -43894.55, 0.00, 0.00, 0.00, 0.00
35, 22567.13, 17728.96, -21785.24, -12166.03, -30193.67, -5493.41, -43836.66, 0.00, 0.00, 0.00, 0.00
36, 22464.84, 17624.19, -21754.66, -12147.26, -30169.91, -5514.42, -43786.71, 0.00, 0.00, 0.00, 0.00
37, 22541.82, 17694.09, -21771.74, -12131.61, -30171.41, -5436.70, -43821.06, 0.00, 0.00, 0.00, 0.00
38, 22656.69, 17811.70, -21803.46, -12142.29, -30200.74, -5406.08, -43889.35, 0.00, 0.00, 0.00, 0.00
39, 22597.26, 17758.88, -21775.16, -12149.76, -30189.72, -5487.00, -43850.01, 0.00, 0.00, 0.00, 0.00
40, 22471.37, 17628.73, -21748.09, -12143.37, -30179.26, -5525.66, -43820.14, 0.00, 0.00, 0.00, 0.00
41, 22504.38, 17657.54, -21771.76, -12141.13, -30182.14, -5465.20, -43852.47, 0.00, 0.00, 0.00, 0.00
42, 22647.95, 17808.84, -21808.17, -12152.31, -30204.96, -5412.39, -43883.49, 0.00, 0.09, 0.74, 0.62
43, 22621.84, 17790.33, -21796.82, -12166.88, -30211.20, -5481.45, -43924.84, 0.00, 0.00, 0.00, 0.00
44, 22487.78, 17650.12, -21766.98, -12167.48, -30196.20, -5549.85, -43862.84, 0.00, 0.00, 0.00, 0.00
45, 22483.46, 17629.47, -21778.38, -12150.90, -30190.93, -5496.56, -43820.86, 0.00, 0.00, 0.00, 0.00
46, 22637.53, 17773.62, -21816.91, -12150.34, -30212.03, -5416.36, -43893.91, 0.00, 0.00, 0.00, 0.00
47, 22640.01, 17801.55, -21805.85, -12167.80, -30207.62, -5458.92, -43897.10, 0.00, 0.00, 0.00, 0.00
48, 22507.63, 17661.25, -21775.96, -12166.48, -30191.86, -5535.01, -43842.48, 0.00, 0.00, 0.00, 0.00
49, 22474.68, 17610.51, -21768.16, -12159.15, -30181.78, -5509.86, -43837.27, 0.00, 0.00, 0.00, 0.00
50, 22607.20, 17758.71, -21803.59, -12163.98, -30204.18, -5425.93, -43899.96, 0.00, 0.00, 0.00, 0.00
51, 22651.59, 17823.37, -21810.09, -12172.60, -30209.41, -5456.60, -43897.57, 0.00, 0.00, 0.00, 0.00
52, 22537.06, 17690.98, -21777.88, -12163.17, -30188.35, -5508.12, -43828.42, 0.00, 0.09, 0.75, 0.62
53, 22470.90, 17608.46, -21757.10, -12143.64, -30173.42, -5487.33, -43825.73, 0.00, 0.00, 0.00, 0.00
54, 22582.32, 17725.22, -21798.76, -12147.86, -30193.12, -5412.12, -43871.62, 0.00, 0.00, 0.00, 0.00
55, 22663.13, 17820.08, -21803.19, -12153.13, -30194.99, -5423.14, -43876.96, 0.00, 0.00, 0.00, 0.00
56, 22566.95, 17726.07, -21759.60, -12143.70, -30173.27, -5487.82, -43826.05, 0.00, 0.00, 0.00, 0.00
57, 22466.21, 17611.95, -21767.00, -12120.55, -30169.47, -5511.49, -43821.87, 0.00, 0.00, 0.00, 0.00
58, 22553.87, 17697.28, -21807.05, -12147.37, -30194.79, -5436.06, -43882.71, 0.00, 0.00, 0.00, 0.00
59, 22662.10, 17823.01, -21820.82, -12163.57, -30206.26, -5394.82, -43885.17, 0.00, 0.00, 0.00, 0.00
60, 22578.46, 17757.54, -21785.84, -12156.89, -30179.39, -5470.32, -43831.70, 0.00, 0.00, 0.00, 0.00
61, 22474.03, 17634.99, -21753.70, -12140.19, -30154.02, -5502.64, -43810.56, 0.00, 0.09, 0.75, 0.63
62, 22544.42, 17683.52, -21784.17, -12135.92, -30175.26, -5425.64, -43839.26, 0.00, 0.00, 0.00, 0.00
63, 22669.94, 17812.98, -21807.81, -12148.44, -30189.88, -5380.87, -43864.11, 0.00, 0.00, 0.00, 0.00
64, 22609.75, 17766.75, -21792.44, -12166.66, -30187.95, -5466.43, -43884.00, 0.00, 0.00, 0.00, 0.00
65, 22482.30, 17627.17, -21765.32, -12159.26, -30174.94, -5515.36, -43826.92, 0.00, 0.00, 0.00, 0.00
66, 22515.36, 17649.38, -21774.04, -12144.02, -30177.87, -5450.50, -43824.46, 0.00, 0.00, 0.00, 0.00
67, 22653.80, 17795.16, -21807.79, -12149.71, -30195.13, -5386.03, -43863.24, 0.00, 0.00, 0.00, 0.00
68, 22625.24, 17784.08, -21797.24, -12164.42, -30192.80, -5457.20, -43862.19, 0.00, 0.00, 0.00, 0.00
69, 22489.83, 17641.25, -21772.59, -12157.83, -30186.52, -5528.75, -43865.50, 0.00, 0.00, 0.00, 0.00
70, 22469.49, 17614.65, -21779.63, -12159.71, -30191.53, -5482.39, -43879.71, 0.00, 0.00, 0.00, 0.00
71, 22607.78, 17765.12, -21815.71, -12162.01, -30209.30, -5387.96, -43880.56, 0.00, 0.09, 0.74, 0.63
72, 22633.96, 17800.32, -21801.42, -12167.82, -30204.27, -5428.37, -43838.99, 0.00, 0.00, 0.00, 0.00
73, 22504.38, 17660.11, -21768.05, -12172.56, -30183.48, -5518.06, -43827.86, 0.00, 0.00, 0.00, 0.00
74, 22456.44, 17596.66, -21775.54, -12162.75, -30178.18, -5498.57, -43812.97, 0.00, 0.00, 0.00, 0.00
75, 22586.84, 17729.13, -21813.49, -12158.03, -30200.25, -5395.38, -43842.88, 0.00, 0.00, 0.00, 0.00
76, 22646.85, 17798.63, -21815.68, -12166.90, -30197.45, -5421.95, -43868.79, 0.00, 0.00, 0.00, 0.00
77, 22524.48, 17671.78, -21791.61, -12190.44, -30194.66, -5522.49, -43868.58, 0.00, 0.00, 0.00, 0.00
78, 22446.31, 17584.92, -21772.65, -12165.32, -30185.09, -5512.43, -43842.92, 0.00, 0.00, 0.00, 0.00
79, 22566.46, 17696.55, -21814.14, -12135.21, -30201.16, -5412.39, -43863.78, 0.00, 0.00, 0.00, 0.00
80, 22651.88, 17794.65, -21826.86, -12186.19, -30210.93, -5427.27, -43893.28, 0.00, 0.00, 0.00, 0.00
81, 22546.85, 17700.73, -21798.16, -12195.54, -30195.69, -5503.13, -43854.50, 0.00, 0.09, 0.74, 0.63
82, 22447.12, 17586.55, -21784.46, -12183.35, -30189.70, -5520.12, -43843.62, 0.00, 0.00, 0.00, 0.00
83, 22527.05, 17684.54, -21811.03, -12176.94, -30207.51, -5437.87, -43874.84, 0.00, 0.00, 0.00, 0.00
84, 22640.95, 17807.48, -21829.54, -12172.09, -30218.80, -5405.90, -43895.74, 0.00, 0.00, 0.00, 0.00
85, 22572.18, 17714.83, -21810.92, -12197.91, -30208.20, -5497.88, -43883.20, 0.00, 0.00, 0.00, 0.00
86, 22458.70, 17588.10, -21782.02, -12190.69, -30189.25, -5524.77, -43845.09, 0.00, 0.00, 0.00, 0.00
87, 22515.54, 17639.39, -21793.42, -12172.40, -30195.33, -5454.65, -43863.11, 0.00, 0.00, 0.00, 0.00
88, 22648.22, 17789.80, -21821.16, -12187.44, -30213.37, -5424.12, -43919.59, 0.00, 0.00, 0.00, 0.00
89, 22604.34, 17760.54, -21811.03, -12191.02, -30203.67, -5478.46, -43876.34, 0.00, 0.00, 0.00, 0.00
90, 22479.51, 17617.40, -21783.76, -12181.05, -30188.09, -5514.20, -43835.17, 0.00, 0.00, 0.00, 0.00
91, 22493.63, 17617.00, -21796.41, -12171.84, -30196.31, -5455.81, -43848.78, 0.00, 0.09, 0.74, 0.64
92, 22628.75, 17762.51, -21836.09, -12184.52, -30228.34, -5413.75, -43935.53, 0.00, 0.00, 0.00, 0.00
93, 22618.29, 17769.44, -21819.46, -12197.01, -30213.16, -5472.85, -43878.39, 0.00, 0.00, 0.00, 0.00
94, 22487.84, 17634.74, -21783.14, -12185.21, -30186.43, -5521.24, -43801.06, 0.00, 0.00, 0.00, 0.00
95, 22466.81, 17599.61, -21788.75, -12171.96, -30191.10, -5482.79, -43821.27, 0.00, 0.00, 0.00, 0.00
96, 22618.47, 17747.11, -21823.77, -12173.52, -30210.86, -5395.51, -43890.20, 0.00, 0.00, 0.00, 0.00
97, 22635.25, 17787.05, -21822.99, -12190.22, -30215.02, -5450.94, -43906.45, 0.00, 0.00, 0.00, 0.00
98, 22508.18, 17653.03, -21787.12, -12184.74, -30191.86, -5530.76, -43867.18, 0.00, 0.00, 0.00, 0.00
99, 22460.62, 17586.26, -21777.84, -12168.63, -30180.60, -5499.22, -43813.02, 0.00, 0.00, 0.00, 0.00
100, 22598.64, 17733.72, -21804.64, -12157.43, -30199.17, -5383.77, -43838.61, 0.00, 0.09, 0.74, 0.63
101, 22674.90, 17815.35, -21791.90, -12165.67, -30186.19, -5400.11, -43851.77, 0.00, 0.00, 0.00, 0.00
102, 22556.17, 17689.24, -21784.23, -12175.26, -30182.43, -5498.82, -43831.99, 0.00, 0.00, 0.00, 0.00
103, 22465.96, 17593.71, -21782.62, -12163.73, -30187.62, -5512.48, -43826.98, 0.00, 0.00, 0.00, 0.00
104, 22573.21, 17699.70, -21814.68, -12146.09, -30211.53, -5418.53, -43899.16, 0.00, 0.00, 0.00, 0.00
105, 22660.44, 17798.04, -21838.59, -12203.87, -30223.07, -5422.87, -43938.36, 0.00, 0.00, 0.00, 0.00
106, 22559.30, 17700.19, -21820.71, -12214.38, -30222.87, -5512.59, -43885.52, 0.00, 0.00, 0.00, 0.00
107, 22455.32, 17591.45, -21787.50, -12206.22, -30191.21, -5518.78, -43789.21, 0.00, 0.00, 0.00, 0.00
108, 22526.15, 17666.59, -21818.68, -12191.40, -30207.29, -5437.49, -43875.20, 0.00, 0.00, 0.00, 0.00
109, 22653.11, 17805.87, -21847.67, -12201.75, -30235.16, -5428.25, -43948.04, 0.00, 0.00, 0.00, 0.00
110, 22596.36, 17748.13, -21816.49, -12201.12, -30222.20, -5505.03, -43892.32, 0.00, 0.09, 0.74, 0.63
111, 22475.28, 17613.17, -21790.96, -12190.10, -30204.87, -5520.12, -43829.82, 0.00, 0.00, 0.00, 0.00
112, 22513.93, 17645.34, -21800.77, -12179.76, -30197.16, -5443.39, -43840.91, 0.00, 0.00, 0.00, 0.00
113, 22647.37, 17792.86, -21835.26, -12201.41, -30219.89, -5409.35, -43921.04, 0.00, 0.00, 0.00, 0.00
114, 22613.28, 17765.41, -21821.43, -12224.03, -30220.74, -5499.04, -43922.50, 0.00, 0.00, 0.00, 0.00
115, 22486.93, 17623.70, -21803.63, -12222.20, -30214.73, -5557.07, -43869.07, 0.00, 0.00, 0.00, 0.00
116, 22491.69, 17623.28, -21812.73, -12202.06, -30215.38, -5482.12, -43854.81, 0.00, 0.00, 0.00, 0.00
117, 22630.20, 17767.42, -21850.24, -12211.12, -30239.65, -5414.20, -43931.61, 0.00, 0.00, 0.00, 0.00
118, 22629.20, 17784.77, -21839.98, -12218.09, -30228.77, -5455.66, -43878.91, 0.00, 0.00, 0.00, 0.00
119, 22497.79, 17646.19, -21804.28, -12216.59, -30211.22, -5531.86, -43853.27, 0.00, 0.00, 0.00, 0.00
120, 22475.93, 17607.38, -21797.00, -12199.00, -30200.85, -5502.87, -43829.67, 0.00, 0.09, 0.75, 0.63
121, 22608.81, 17735.15, -21848.38, -12211.85, -30225.53, -5413.39, -43895.85, 0.00, 0.00, 0.00, 0.00
122, 22650.41, 17783.63, -21847.09, -12231.79, -30229.66, -5452.86, -43909.60, 0.00, 0.00, 0.00, 0.00
123, 22528.72, 17658.75, -21808.17, -12225.22, -30212.09, -5522.33, -43872.88, 0.00, 0.00, 0.00, 0.00
124, 22463.28, 17583.09, -21781.26, -12199.96, -30201.54, -5509.53, -43854.99, 0.00, 0.00, 0.00, 0.00
125, 22579.64, 17700.55, -21835.55, -12208.50, -30222.11, -5432.12, -43920.21, 0.00, 0.00, 0.00, 0.00
126, 22648.20, 17790.22, -21852.27, -12218.60, -30230.71, -5442.92, -43935.91, 0.00, 0.00, 0.00, 0.00
127, 22541.69, 17682.13, -21813.31, -12200.90, -30204.96, -5512.86, -43869.90, 0.00, 0.00, 0.00, 0.00
128, 22452.53, 17570.24, -21805.24, -12237.69, -30206.79, -5535.21, -43888.66, 0.00, 0.00, 0.00, 0.00
129, 22547.57, 17663.44, -21843.49, -12234.38, -30226.20, -5456.51, -43908.14, 0.00, 0.00, 0.00, 0.00
130, 22656.15, 17788.59, -21852.45, -12230.11, -30228.63, -5431.70, -43919.01, 0.00, 0.09, 0.75, 0.64
131, 22563.26, 17704.44, -21833.63, -12235.28, -30226.11, -5516.03, -43901.11, 0.00, 0.00, 0.00, 0.00
132, 22451.41, 17578.08, -21813.11, -12222.69, -30217.03, -5533.15, -43863.71, 0.00, 0.00, 0.00, 0.00
133, 22527.36, 17651.44, -21834.23, -12218.60, -30228.59, -5453.76, -43897.53, 0.00, 0.00, 0.00, 0.00
134, 22654.72, 17774.29, -21858.57, -12234.90, -30247.99, -5432.66, -43947.46, 0.00, 0.00, 0.00, 0.00
135, 22594.97, 17713.78, -21844.61, -12244.24, -30241.89, -5499.53, -43899.52, 0.00, 0.00, 0.00, 0.00
136, 22475.66, 17583.65, -21815.19, -12231.03, -30216.12, -5540.57, -43851.71, 0.00, 0.00, 0.00, 0.00
137, 22498.15, 17605.35, -21835.87, -12230.52, -30229.37, -5496.16, -43891.65, 0.00, 0.00, 0.00, 0.00
138, 22640.01, 17760.67, -21858.57, -12241.22, -30247.52, -5442.52, -43950.21, 0.00, 0.00, 0.00, 0.00
139, 22626.92, 17759.55, -21843.93, -12246.23, -30237.17, -5494.93, -43931.08, 0.00, 0.00, 0.00, 0.00
140, 22492.18, 17613.02, -21825.63, -12241.31, -30226.29, -5546.05, -43870.57, 0.00, 0.10, 0.74, 0.64
141, 22476.76, 17595.22, -21824.44, -12232.37, -30229.17, -5507.34, -43890.15, 0.00, 0.00, 0.00, 0.00
142, 22616.66, 17738.70, -21868.86, -12243.66, -30252.64, -5432.70, -43945.47, 0.00, 0.00, 0.00, 0.00
143, 22633.40, 17765.30, -21860.09, -12249.72, -30247.52, -5457.45, -43912.77, 0.00, 0.00, 0.00, 0.00
144, 22499.62, 17628.13, -21829.67, -12254.95, -30229.77, -5536.66, -43878.80, 0.00, 0.00, 0.00, 0.00
145, 22460.44, 17573.01, -21828.51, -12248.33, -30221.70, -5527.52, -43896.05, 0.00, 0.00, 0.00, 0.00
146, 22602.29, 17714.27, -21864.39, -12245.00, -30243.96, -5427.25, -43941.07, 0.00, 0.00, 0.00, 0.00
147, 22645.87, 17779.74, -21863.80, -12244.51, -30248.86, -5456.08, -43950.66, 0.00, 0.00, 0.00, 0.00
148, 22520.34, 17655.49, -21830.75, -12261.67, -30240.66, -5541.89, -43910.20, 0.00, 0.00, 0.00, 0.00
149, 22455.95, 17575.82, -21812.75, -12256.65, -30229.10, -5527.90, -43898.87, 0.00, 0.10, 0.75, 0.64
150, 22590.44, 17704.93, -21846.19, -12242.79, -30234.31, -5435.43, -43914.89, 0.00, 0.00, 0.00, 0.00
151, 22670.17, 17799.45, -21853.21, -12253.81, -30237.93, -5438.16, -43916.86, 0.00, 0.00, 0.00, 0.00
152, 22564.89, 17690.67, -21832.33, -12248.35, -30221.55, -5499.98, -43844.04, 0.00, 0.00, 0.00, 0.00
153, 22473.52, 17580.23, -21820.55, -12241.51, -30209.05, -5523.38, -43836.66, 0.00, 0.00, 0.00, 0.00
154, 22558.18, 17670.57, -21849.23, -12238.41, -30229.10, -5446.07, -43910.89, 0.00, 0.00, 0.00, 0.00
155, 22667.95, 17793.26, -21869.50, -12230.94, -30247.34, -5435.43, -43936.35, 0.00, 0.00, 0.00, 0.00
156, 22593.66, 17723.46, -21839.80, -12242.27, -30228.54, -5502.04, -43888.23, 0.00, 0.00, 0.00, 0.00
157, 22476.89, 17598.89, -21820.53, -12269.61, -30222.66, -5551.48, -43890.22, 0.00, 0.00, 0.00, 0.00
158, 22529.17, 17647.51, -21844.36, -12258.48, -30240.88, -5497.88, -43935.21, 0.00, 0.00, 0.00, 0.00
159, 22668.83, 17796.12, -21860.77, -12254.63, -30241.26, -5433.11, -43930.81, 0.00, 0.09, 0.75, 0.63
160, 22622.58, 17753.32, -21838.14, -12256.62, -30228.41, -5469.74, -43899.96, 0.00, 0.00, 0.00, 0.00
161, 22483.42, 17606.04, -21817.74, -12254.43, -30224.74, -5536.21, -43886.17, 0.00, 0.00, 0.00, 0.00
162, 22507.89, 17621.62, -21826.95, -12240.31, -30231.20, -5497.88, -43906.98, 0.00, 0.00, 0.00, 0.00
163, 22651.73, 17768.54, -21864.43, -12250.07, -30252.21, -5433.15, -43940.18, 0.00, 0.00, 0.00, 0.00
164, 22632.57, 17761.03, -21851.85, -12250.39, -30248.88, -5466.05, -43925.00, 0.00, 0.00, 0.00, 0.00
165, 22501.86, 17625.33, -21819.86, -12255.59, -30234.80, -5538.78, -43898.40, 0.00, 0.00, 0.00, 0.00
166, 22485.90, 17588.90, -21833.81, -12256.44, -30243.76, -5516.37, -43922.27, 0.00, 0.00, 0.00, 0.00
167, 22627.97, 17730.74, -21877.26, -12269.70, -30266.76, -5451.79, -43967.78, 0.00, 0.00, 0.00, 0.00
168, 22648.93, 17767.04, -21869.08, -12278.64, -30251.97, -5487.38, -43941.11, 0.00, 0.00, 0.00, 0.00
169, 22520.21, 17627.46, -21835.04, -12273.10, -30240.93, -5545.27, -43885.70, 0.00, 0.10, 0.75, 0.63
170, 22470.92, 17569.19, -21821.18, -12253.07, -30230.17, -5526.20, -43885.04, 0.00, 0.00, 0.00, 0.00
171, 22594.55, 17697.82, -21874.49, -12262.26, -30254.83, -5453.96, -43942.61, 0.00, 0.00, 0.00, 0.00
172, 22649.56, 17764.38, -21882.94, -12277.19, -30263.17, -5470.08, -43961.90, 0.00, 0.00, 0.00, 0.00
173, 22526.54, 17645.58, -21853.05, -12267.73, -30251.16, -5537.29, -43938.68, 0.00, 0.00, 0.00, 0.00
174, 22448.08, 17557.14, -21838.12, -12249.38, -30244.46, -5542.58, -43921.87, 0.00, 0.00, 0.00, 0.00
175, 22564.71, 17671.60, -21861.37, -12268.34, -30256.57, -5464.46, -43935.91, 0.00, 0.00, 0.00, 0.00
176, 22659.39, 17777.17, -21883.52, -12273.10, -30264.95, -5459.17, -43946.55, 0.00, 0.00, 0.00, 0.00
177, 22551.21, 17675.54, -21868.68, -12285.48, -30264.98, -5560.13, -43970.44, 0.00, 0.00, 0.00, 0.00
178, 22454.65, 17567.42, -21835.20, -12263.78, -30241.93, -5553.74, -43905.29, 0.00, 0.00, 0.00, 0.00
179, 22539.68, 17646.12, -21845.59, -12253.49, -30246.25, -5453.89, -43936.27, 0.00, 0.10, 0.75, 0.63
180, 22658.43, 17778.87, -21878.54, -12264.04, -30259.95, -5433.78, -43944.91, 0.00, 0.00, 0.00, 0.00
181, 22598.46, 17718.00, -21865.73, -12273.34, -30237.69, -5517.39, -43894.31, 0.00, 0.00, 0.00, 0.00
182, 22491.51, 17586.82, -21838.46, -12254.79, -30230.38, -5548.24, -43870.17, 0.00, 0.00, 0.00, 0.00
183, 22523.45, 17626.27, -21843.40, -12214.51, -30243.70, -5466.90, -43921.51, 0.00, 0.00, 0.00, 0.00
184, 22661.29, 17775.00, -21869.93, -12246.34, -30253.38, -5408.36, -43947.35, 0.00, 0.00, 0.00, 0.00
185, 22627.54, 17756.98, -21860.83, -12260.96, -30244.08, -5482.79, -43906.18, 0.00, 0.00, 0.00, 0.00
186, 22501.34, 17632.62, -21834.61, -12257.67, -30240.34, -5536.21, -43912.06, 0.00, 0.00, 0.00, 0.00
187, 22502.82, 17631.12, -21839.46, -12244.64, -30251.01, -5483.58, -43937.65, 0.00, 0.00, 0.00, 0.00
188, 22653.78, 17766.66, -21862.15, -12243.99, -30254.13, -5412.41, -43942.95, 0.00, 0.09, 0.74, 0.63
189, 22659.88, 17771.45, -21855.78, -12255.44, -30252.46, -5465.90, -43930.88, 0.00, 0.00, 0.00, 0.00
190, 22519.07, 17622.96, -21836.20, -12245.40, -30248.88, -5535.16, -43915.68, 0.00, 0.00, 0.00, 0.00
191, 22485.92, 17596.66, -21840.80, -12242.63, -30245.40, -5510.15, -43929.36, 0.00, 0.00, 0.00, 0.00
192, 22623.29, 17743.44, -21876.77, -12254.05, -30264.48, -5424.97, -43950.26, 0.00, 0.00, 0.00, 0.00
193, 22655.08, 17781.88, -21872.03, -12256.06, -30266.03, -5456.82, -43955.78, 0.00, 0.00, 0.00, 0.00
194, 22515.83, 17644.13, -21847.02, -12270.19, -30255.14, -5544.06, -43926.45, 0.00, 0.00, 0.00, 0.00
195, 22454.61, 17564.78, -21841.43, -12267.17, -30241.06, -5541.33, -43911.32, 0.00, 0.00, 0.00, 0.00
196, 22595.91, 17695.83, -21868.54, -12262.35, -30252.66, -5453.67, -43962.32, 0.00, 0.00, 0.00, 0.00
197, 22660.87, 17776.54, -21872.25, -12271.26, -30258.58, -5456.98, -43960.79, 0.00, 0.00, 0.00, 0.00
198, 22539.32, 17669.21, -21831.02, -12266.01, -30241.87, -5536.19, -43943.66, 0.00, 0.08, 0.74, 0.64
199, 22463.28, 17582.51, -21813.94, -12241.36, -30221.52, -5518.80, -43875.07, 0.00, 0.00, 0.00, 0.00
200, 22581.61, 17695.00, -21844.85, -12234.38, -30223.18, -5416.56, -43882.84, 0.00, 0.00, 0.00, 0.00
201, 22685.25, 17808.30, -21866.46, -12253.76, -30237.19, -5427.36, -43940.31, 0.00, 0.00, 0.00, 0.00
202, 22587.64, 17719.97, -21847.64, -12260.13, -30227.02, -5503.58, -43891.49, 0.00, 0.00, 0.00, 0.00
203, 22486.28, 17603.76, -21819.84, -12241.31, -30212.49, -5510.73, -43843.48, 0.00, 0.00, 0.00, 0.00
204, 22552.06, 17665.43, -21852.54, -12240.60, -30241.22, -5447.83, -43920.10, 0.00, 0.00, 0.00, 0.00
205, 22682.01, 17800.24, -21870.47, -12248.42, -30248.32, -5416.99, -43936.33, 0.00, 0.00, 0.00, 0.00
206, 22621.42, 17748.11, -21843.26, -12250.03, -30228.54, -5488.34, -43900.97, 0.00, 0.00, 0.00, 0.00
207, 22493.43, 17613.46, -21817.98, -12251.59, -30215.96, -5531.52, -43857.79, 0.00, 0.00, 0.00, 0.00
208, 22536.48, 17648.78, -21829.00, -12210.38, -30213.14, -5455.52, -43868.61, 0.00, 0.08, 0.74, 0.64
209, 22670.93, 17788.03, -21862.53, -12240.80, -30234.58, -5400.94, -43934.41, 0.00, 0.00, 0.00, 0.00
210, 22636.35, 17764.25, -21849.84, -12273.61, -30233.88, -5472.76, -43902.20, 0.00, 0.00, 0.00, 0.00
211, 22503.38, 17622.32, -21817.74, -12251.97, -30216.70, -5524.81, -43864.74, 0.00, 0.00, 0.00, 0.00
212, 22507.00, 17618.87, -21827.24, -12232.73, -30219.27, -5474.61, -43894.27, 0.00, 0.00, 0.00, 0.00
213, 22654.81, 17753.23, -21866.40, -12260.09, -30242.56, -5403.58, -43956.09, 0.00, 0.00, 0.00, 0.00
214, 22667.62, 17773.17, -21852.88, -12257.79, -30237.35, -5445.38, -43948.27, 0.00, 0.00, 0.00, 0.00
215, 22533.82, 17634.95, -21814.72, -12254.54, -30219.67, -5519.92, -43890.42, 0.00, 0.00, 0.00, 0.00
216, 22493.86, 17584.03, -21807.01, -12240.04, -30216.23, -5485.32, -43875.64, 0.00, 0.00, 0.00, 0.00
217, 22636.82, 17730.65, -21850.86, -12238.34, -30229.17, -5407.58, -43937.09, 0.00, 0.00, 0.00, 0.00
218, 22675.15, 17798.98, -21856.12, -12256.22, -30226.80, -5445.58, -43915.79, 0.00, 0.08, 0.75, 0.64
219, 22549.69, 17662.50, -21826.12, -12250.63, -30210.91, -5486.95, -43849.47, 0.00, 0.00, 0.00, 0.00
220, 22482.86, 17572.29, -21821.05, -12247.79, -30211.02, -5491.53, -43862.19, 0.00, 0.00, 0.00, 0.00
221, 22610.67, 17696.37, -21853.50, -12248.96, -30229.75, -5411.20, -43919.07, 0.00, 0.00, 0.00, 0.00
222, 22686.04, 17786.09, -21862.40, -12257.92, -30242.65, -5414.98, -43927.59, 0.00, 0.00, 0.00, 0.00
223, 22584.18, 17696.12, -21826.30, -12256.74, -30228.79, -5496.58, -43888.92, 0.00, 0.00, 0.00, 0.00
224, 22500.56, 17598.73, -21808.04, -12254.77, -30217.93, -5518.24, -43862.73, 0.00, 0.00, 0.00, 0.00
225, 22573.29, 17668.20, -21859.65, -12263.04, -30238.65, -5445.51, -43930.77, 0.00, 0.00, 0.00, 0.00
226, 22667.75, 17774.84, -21877.87, -12274.04, -30259.59, -5436.32, -43984.14, 0.00, 0.00, 0.00, 0.00
227, 22597.68, 17700.95, -21834.90, -12278.48, -30237.80, -5507.80, -43955.44, 0.00, 0.00, 0.00, 0.00
228, 22483.75, 17568.20, -21824.60, -12276.23, -30220.43, -5535.45, -43918.18, 0.00, 0.08, 0.75, 0.64
229, 22531.45, 17609.55, -21850.26, -12269.21, -30231.36, -5462.70, -43948.96, 0.00, 0.00, 0.00, 0.00
230, 22652.96, 17739.10, -21871.99, -12267.78, -30246.18, -5423.29, -43942.93, 0.00, 0.00, 0.00, 0.00
231, 22605.08, 17699.77, -21842.62, -12252.38, -30230.49, -5471.01, -43880.07, 0.00, 0.00, 0.00, 0.00
232, 22487.49, 17564.34, -21801.49, -12278.13, -30210.37, -5522.78, -43863.31, 0.00, 0.00, 0.00, 0.00
233, 22511.63, 17579.78, -21826.92, -12285.99, -30215.85, -5474.63, -43912.30, 0.00, 0.00, 0.00, 0.00
234, 22645.13, 17733.34, -21865.30, -12279.13, -30230.35, -5416.54, -43971.45, 0.00, 0.00, 0.00, 0.00
235, 22622.36, 17720.66, -21847.18, -12280.61, -30223.11, -5469.56, -43932.15, 0.00, 0.00, 0.00, 0.00
236, 22492.94, 17580.41, -21817.13, -12276.90, -30212.09, -5518.80, -43892.61, 0.00, 0.00, 0.00, 0.00
237, 22498.39, 17565.99, -21809.02, -12257.56, -30204.29, -5465.60, -43898.09, 0.00, 0.09, 0.75, 0.64
238, 22646.16, 17718.70, -21834.03, -12256.11, -30213.01, -5384.18, -43907.81, 0.00, 0.00, 0.00, 0.00
239, 22662.84, 17756.47, -21829.29, -12262.37, -30211.20, -5428.66, -43935.68, 0.00, 0.00, 0.00, 0.00
240, 22524.16, 17617.20, -21805.94, -12270.55, -30203.91, -5516.01, -43903.38, 0.00, 0.00, 0.00, 0.00
241, 22479.01, 17556.78, -21805.09, -12259.35, -30204.67, -5482.57, -43874.91, 0.00, 0.00, 0.00, 0.00
242, 22623.83, 17701.80, -21834.12, -12248.87, -30216.47, -5375.75, -43888.86, 0.00, 0.00, 0.00, 0.00
243, 22679.69, 17775.02, -21836.13, -12261.36, -30221.93, -5404.03, -43898.29, 0.00, 0.00, 0.00, 0.00
244, 22565.58, 17661.19, -21805.62, -12264.69, -30203.93, -5492.58, -43851.82, 0.00, 0.00, 0.00, 0.00
245, 22492.25, 17577.59, -21788.90, -12251.75, -30193.67, -5498.01, -43862.70, 0.00, 0.00, 0.00, 0.00
246, 22601.99, 17685.68, -21828.69, -12263.08, -30218.82, -5418.00, -43937.09, 0.00, 0.00, 0.00, 0.00
247, 22687.58, 17787.34, -21839.91, -12262.26, -30225.39, -5394.73, -43945.45, 0.00, 0.09, 0.74, 0.63
248, 22591.71, 17692.39, -21805.73, -12270.82, -30206.37, -5469.29, -43885.59, 0.00, 0.00, 0.00, 0.00
249, 22490.97, 17574.44, -21796.62, -12274.26, -30209.14, -5501.64, -43889.66, 0.00, 0.00, 0.00, 0.00
250, 22567.64, 17648.74, -21832.83, -12275.49, -30236.57, -5430.89, -43925.25, 0.00, 0.00, 0.00, 0.00
251, 22679.38, 17766.04, -21846.64, -12282.71, -30234.51, -5405.39, -43943.13, 0.00, 0.00, 0.00, 0.00
252, 22600.47, 17690.78, -21830.72, -12290.20, -30225.73, -5484.22, -43940.11, 0.00, 0.00, 0.00, 0.00
253, 22474.72, 17572.14, -21819.84, -12285.23, -30218.91, -5518.91, -43886.78, 0.00, 0.00, 0.00, 0.00
254, 22525.21, 17605.06, -21844.27, -12277.61, -30230.26, -5438.00, -43900.28, 0.00, 0.00, 0.00, 0.00
255, 22664.31, 17741.90, -21868.63, -12285.43, -30245.73, -5396.56, -43938.75, 0.00, 0.00, 0.00, 0.00
0, 22621.31, 17708.19, -21842.26, -12290.42, -30239.12, -5472.09, -43943.39, 0.00, 0.00, 0.00, 0.00
1, 22496.38, 17576.92, -21808.98, -12288.14, -30224.97, -5521.26, -43958.55, 0.00, 0.10, 0.74, 0.64
2, 22512.43, 17581.95, -21839.78, -12282.42, -30239.27, -5478.50, -43923.68, 0.00, 0.00, 0.00, 0.00
3, 22660.78, 17731.77, -21865.95, -12261.32, -30239.14, -5396.31, -43892.75, 0.00, 0.00, 0.00, 0.00
4, 22638.07, 17735.15, -21854.66, -12304.99, -30240.43, -5440.91, -43919.48, 0.00, 0.00, 0.00, 0.00
5, 22503.42, 17589.95, -21826.75, -12299.96, -30235.96, -5504.32, -43891.56, 0.00, 0.00, 0.00, 0.00
6, 22489.10, 17553.00, -21828.36, -12279.47, -30233.48, -5466.41, -43887.85, 0.00, 0.00, 0.00, 0.00
7, 22638.70, 17710.16, -21859.04, -12277.12, -30247.83, -5385.14, -43936.15, 0.00, 0.00, 0.00, 0.00
8, 22661.45, 17739.69, -21866.06, -12301.46, -30255.90, -5446.02, -43948.73, 0.00, 0.00, 0.00, 0.00
9, 22538.67, 17606.71, -21826.79, -12291.13, -30234.87, -5512.66, -43898.54, 0.00, 0.00, 0.00, 0.00
10, 22494.71, 17552.09, -21807.19, -12273.05, -30214.91, -5486.39, -43864.02, 0.00, 0.00, 0.00, 0.00
11, 22624.21, 17684.34, -21847.38, -12279.67, -30241.60, -5404.58, -43934.18, 0.00, 0.10, 0.75, 0.64
12, 22690.98, 17764.34, -21863.07, -12287.13, -30246.42, -5423.36, -43958.66, 0.00, 0.00, 0.00, 0.00
13, 22571.55, 17648.67, -21843.00, -12291.92, -30231.90, -5512.14, -43900.66, 0.00, 0.00, 0.00, 0.00
14, 22490.93, 17555.26, -21821.98, -12270.82, -30220.05, -5501.37, -43883.09, 0.00, 0.00, 0.00, 0.00
15, 22593.28, 17649.85, -21857.64, -12279.36, -30244.12, -5422.29, -43945.61, 0.00, 0.00, 0.00, 0.00
16, 22689.72, 17756.27, -21867.34, -12296.92, -30245.17, -5413.19, -43946.32, 0.00, 0.00, 0.00, 0.00
17, 22596.41, 17667.00, -21843.00, -12304.10, -30234.58, -5494.68, -43906.91, 0.00, 0.00, 0.00, 0.00
18, 22496.20, 17555.80, -21819.28, -12290.87, -30220.14, -5514.31, -43888.09, 0.00, 0.00, 0.00, 0.00
19, 22571.19, 17618.90, -21847.87, -12289.37, -30235.40, -5439.65, -43926.52, 0.00, 0.00, 0.00, 0.00
20, 22683.47, 17746.86, -21865.88, -12299.90, -30249.26, -5414.35, -43971.49, 0.00, 0.10, 0.75, 0.62
21, 22609.82, 17678.24, -21852.70, -12307.36, -30242.74, -5491.15, -43945.67, 0.00, 0.00, 0.00, 0.00
22, 22491.76, 17544.91, -21834.64, -12281.41, -30232.12, -5515.27, -43904.64, 0.00, 0.00, 0.00, 0.00
23, 22537.31, 17579.94, -21844.94, -12291.13, -30234.67, -5441.22, -43881.93, 0.00, 0.00, 0.00, 0.00
24, 22684.72, 17730.03, -21856.79, -12300.12, -30244.01, -5391.58, -43931.91, 0.00, 0.00, 0.00, 0.00
25, 22649.33, 17711.90, -21848.85, -12300.79, -30238.56, -5450.58, -43936.49, 0.00, 0.00, 0.00, 0.00
26, 22506.78, 17572.96, -21845.48, -12302.71, -30235.09, -5524.01, -43904.88, 0.00, 0.00, 0.00, 0.00
27, 22516.10, 17570.39, -21846.79, -12288.27, -30233.33, -5469.78, -43901.75, 0.00, 0.00, 0.00, 0.00
28, 22658.16, 17704.91, -21883.45, -12301.75, -30254.61, -5405.01, -43947.82, 0.00, 0.00, 0.00, 0.00
29, 22658.25, 17713.00, -21876.50, -12316.53, -30257.09, -5466.21, -43974.06, 0.00, 0.00, 0.00, 0.00
30, 22524.23, 17579.06, -21837.63, -12308.26, -30232.43, -5530.09, -43893.17, 0.00, 0.09, 0.74, 0.62
31, 22488.27, 17534.85, -21842.77, -12297.04, -30230.20, -5486.57, -43884.39, 0.00, 0.00, 0.00, 0.00
32, 22613.73, 17670.24, -21895.86, -12292.68, -30261.56, -5424.03, -43967.60, 0.00, 0.00, 0.00, 0.00
33, 22652.96, 17726.97, -21890.56, -12292.16, -30257.53, -5444.37, -43932.93, 0.00, 0.00, 0.00, 0.00
34, 22533.93, 17605.98, -21854.87, -12320.86, -30238.06, -5506.82, -43888.81, 0.00, 0.00, 0.00, 0.00
35, 22473.20, 17519.05, -21849.10, -12309.08, -30243.90, -5506.15, -43921.20, 0.00, 0.00, 0.00, 0.00
36, 22605.32, 17655.87, -21874.80, -12299.20, -30258.90, -5423.96, -43970.62, 0.00, 0.00, 0.00, 0.00
37, 22683.62, 17745.36, -21871.56, -12313.62, -30246.74, -5435.32, -43957.66, 0.00, 0.00, 0.00, 0.00
38, 22580.83, 17626.67, -21847.49, -12330.38, -30224.16, -5514.60, -43904.01, 0.00, 0.00, 0.00, 0.00
39, 22491.22, 17522.52, -21839.38, -12319.41, -30232.19, -5516.32, -43910.85, 0.00, 0.00, 0.00, 0.00
40, 22585.54, 17617.51, -21869.66, -12320.21, -30252.71, -5443.12, -43934.83, 0.00, 0.09, 0.75, 0.64
41, 22678.57, 17724.53, -21884.28, -12331.26, -30255.61, -5434.36, -43947.53, 0.00, 0.00, 0.00, 0.00
42, 22590.04, 17645.92, -21852.41, -12327.95, -30238.13, -5506.55, -43906.11, 0.00, 0.00, 0.00, 0.00
43, 22478.99, 17522.07, -21832.24, -12308.79, -30226.53, -5532.77, -43885.52, 0.00, 0.00, 0.00, 0.00
44, 22545.09, 17581.61, -21851.24, -12317.62, -30238.82, -5460.02, -43934.57, 0.00, 0.00, 0.00, 0.00
45, 22674.14, 17716.73, -21873.73, -12340.87, -30255.74, -5429.31, -43983.58, 0.00, 0.00, 0.00, 0.00
46, 22614.27, 17661.34, -21875.03, -12347.53, -30255.01, -5508.39, -43981.13, 0.00, 0.00, 0.00, 0.00
47, 22488.04, 17527.14, -21846.84, -12335.41, -30236.59, -5545.00, -43923.43, 0.00, 0.00, 0.00, 0.00
48, 22519.72, 17555.10, -21856.16, -12325.33, -30243.54, -5487.44, -43937.98, 0.00, 0.00, 0.00, 0.00
49, 22668.63, 17704.73, -21880.23, -12328.55, -30267.08, -5413.17, -43949.92, 0.00, 0.00, 0.00, 0.00
50, 22652.17, 17694.22, -21864.50, -12337.31, -30265.85, -5461.42, -43948.78, 0.00, 0.09, 0.75, 0.63
51, 22515.74, 17558.55, -21835.40, -12321.53, -30233.28, -5522.56, -43896.30, 0.00, 0.00, 0.00, 0.00
52, 22504.58, 17546.05, -21836.09, -12297.24, -30217.90, -5472.06, -43901.30, 0.00, 0.00, 0.00, 0.00
53, 22651.79, 17705.02, -21870.91, -12300.83, -30250.67, -5392.05, -43982.89, 0.00, 0.00, 0.00, 0.00
54, 22673.21, 17742.48, -21853.63, -12302.44, -30234.82, -5431.27, -43942.57, 0.00, 0.00, 0.00, 0.00
55, 22551.99, 17626.74, -21831.37, -12286.96, -30215.38, -5489.07, -43905.44, 0.00, 0.00, 0.00, 0.00
56, 22514.15, 17593.30, -21828.06, -12270.93, -30210.66, -5444.68, -43845.09, 0.00, 0.00, 0.00, 0.00
57, 22657.07, 17727.48, -21857.79, -12272.36, -30220.59, -5365.78, -43903.47, 0.00, 0.00, 0.00, 0.00
58, 22703.47, 17773.95, -21857.19, -12282.71, -30222.46, -5403.20, -43959.55, 0.00, 0.00, 0.00, 0.00
59, 22583.60, 17646.93, -21824.71, -12281.66, -30209.95, -5468.26, -43885.39, 0.00, 0.00, 0.00, 0.00
60, 22524.93, 17574.10, -21802.32, -12260.29, -30196.80, -5453.74, -43830.23, 0.00, 0.09, 0.75, 0.63
61, 22646.27, 17699.54, -21840.20, -12250.32, -30220.27, -5373.09, -43920.75, 0.00, 0.00, 0.00, 0.00
62, 22727.99, 17797.24, -21858.49, -12240.80, -30226.06, -5369.60, -43912.26, 0.00, 0.00, 0.00, 0.00
63, 22623.32, 17698.69, -21835.17, -12270.26, -30208.31, -5447.61, -43874.50, 0.00, 0.00, 0.00, 0.00
64, 22524.12, 17583.45, -21822.21, -12273.41, -30198.17, -5475.77, -43867.80, 0.00, 0.00, 0.00, 0.00
65, 22612.10, 17664.87, -21851.09, -12281.43, -30215.80, -5388.04, -43898.31, 0.00, 0.00, 0.00, 0.00
66, 22718.29, 17782.35, -21870.87, -12288.97, -30232.23, -5373.38, -43920.84, 0.00, 0.00, 0.00, 0.00
67, 22630.31, 17706.76, -21851.96, -12301.48, -30223.20, -5467.86, -43894.53, 0.00, 0.00, 0.00, 0.00
68, 22523.20, 17595.49, -21825.63, -12290.98, -30210.77, -5501.81, -43883.78, 0.00, 0.00, 0.00, 0.00
69, 22596.21, 17670.30, -21830.43, -12264.56, -30209.32, -5397.99, -43915.23, 0.00, 0.09, 0.75, 0.64
70, 22721.11, 17804.53, -21870.33, -12283.51, -30231.63, -5378.25, -43966.46, 0.00, 0.00, 0.00, 0.00
71, 22673.97, 17771.54, -21849.12, -12283.38, -30217.23, -5425.84, -43897.82, 0.00, 0.00, 0.00, 0.00
72, 22549.40, 17640.33, -21815.68, -12271.17, -30192.51, -5454.70, -43853.90, 0.00, 0.00, 0.00, 0.00
73, 22563.62, 17638.23, -21837.74, -12268.89, -30208.83, -5407.15, -43898.42, 0.00, 0.00, 0.00, 0.00
74, 22708.59, 17779.63, -21873.77, -12283.83, -30236.48, -5360.51, -43963.40, 0.00, 0.00, 0.00, 0.00
75, 22706.11, 17788.63, -21842.82, -12281.01, -30216.18, -5395.58, -43891.45, 0.00, 0.00, 0.00, 0.00
76, 22572.96, 17653.38, -21800.64, -12270.95, -30187.95, -5445.78, -43830.68, 0.00, 0.00, 0.00, 0.00
77, 22549.42, 17627.35, -21810.70, -12266.46, -30196.96, -5422.40, -43866.91, 0.00, 0.00, 0.00, 0.00
78, 22689.84, 17767.60, -21863.11, -12273.21, -30224.56, -5354.78, -43939.24, 0.00, 0.00, 0.00, 0.00
79, 22717.96, 17810.41, -21853.81, -12282.37, -30229.88, -5392.74, -43959.64, 0.00, 0.09, 0.75, 0.64
80, 22586.24, 17680.41, -21819.48, -12285.81, -30214.35, -5469.74, -43923.70, 0.00, 0.00, 0.00, 0.00
81, 22538.49, 17610.47, -21818.97, -12267.93, -30203.42, -5445.53, -43899.52, 0.00, 0.00, 0.00, 0.00
82, 22679.22, 17753.88, -21851.31, -12261.61, -30209.52, -5348.68, -43879.76, 0.00, 0.00, 0.00, 0.00
83, 22738.83, 17829.96, -21849.63, -12257.67, -30209.61, -5361.27, -43879.69, 0.00, 0.00, 0.00, 0.00
84, 22618.69, 17713.60, -21818.32, -12266.01, -30201.65, -5446.72, -43872.34, 0.00, 0.00, 0.00, 0.00
85, 22549.31, 17617.22, -21811.23, -12275.62, -30198.68, -5464.06, -43857.07, 0.00, 0.00, 0.00, 0.00
86, 22655.82, 17726.56, -21842.64, -12262.70, -30214.24, -5345.22, -43885.70, 0.00, 0.00, 0.00, 0.00
87, 22737.00, 17824.02, -21858.60, -12253.16, -30227.67, -5333.91, -43934.95, 0.00, 0.00, 0.00, 0.00
88, 22635.21, 17731.62, -21828.58, -12256.71, -30209.21, -5423.47, -43892.75, 0.00, 0.00, 0.00, 0.00
89, 22536.53, 17620.08, -21807.79, -12288.30, -30188.78, -5461.04, -43877.57, 0.00, 0.09, 0.74, 0.64
90, 22616.92, 17690.53, -21847.20, -12293.91, -30216.29, -5399.15, -43913.38, 0.00, 0.00, 0.00, 0.00
91, 22745.38, 17824.29, -21863.87, -12294.93, -30220.88, -5361.71, -43918.36, 0.00, 0.00, 0.00, 0.00
92, 22671.06, 17759.27, -21844.34, -12293.71, -30213.21, -5422.78, -43901.17, 0.00, 0.00, 0.00, 0.00
93, 22548.06, 17634.03, -21818.41, -12283.11, -30198.30, -5460.40, -43862.08, 0.00, 0.00, 0.00, 0.00
94, 22591.94, 17672.43, -21829.16, -12277.34, -30208.87, -5390.99, -43893.15, 0.00, 0.00, 0.00, 0.00
95, 22723.14, 17806.70, -21862.53, -12292.16, -30231.65, -5357.76, -43980.36, 0.00, 0.00, 0.00, 0.00
96, 22684.31, 17777.35, -21856.70, -12298.13, -30231.76, -5426.40, -43956.18, 0.00, 0.00, 0.00, 0.00
97, 22562.88, 17641.72, -21822.19, -12287.92, -30208.70, -5474.97, -43862.08, 0.00, 0.00, 0.00, 0.00
98, 22577.14, 17639.08, -21828.62, -12281.81, -30206.57, -5423.11, -43863.06, 0.00, 0.00, 0.00, 0.00
99, 22723.21, 17790.49, -21860.70, -12287.33, -30232.61, -5348.93, -43934.54, 0.00, 0.10, 0.75, 0.64
100, 22722.65, 17798.09, -21848.07, -12293.41, -30223.89, -5394.95, -43898.27, 0.00, 0.00, 0.00, 0.00
101, 22584.11, 17664.14, -21820.55, -12287.51, -30205.83, -5466.61, -43853.92, 0.00, 0.00, 0.00, 0.00
102, 22545.33, 17618.34, -21836.49, -12290.84, -30215.96, -5454.65, -43922.05, 0.00, 0.00, 0.00, 0.00
103, 22685.21, 17764.67, -21876.59, -12297.48, -30239.81, -5381.61, -43989.62, 0.00, 0.00, 0.00, 0.00
104, 22719.83, 17802.18, -21867.58, -12301.97, -30228.03, -5392.67, -43906.56, 0.00, 0.00, 0.00, 0.00
105, 22590.66, 17662.97, -21829.83, -12285.84, -30208.43, -5458.39, -43874.89, 0.00, 0.00, 0.00, 0.00
106, 22540.91, 17599.00, -21814.88, -12279.76, -30202.19, -5451.37, -43895.49, 0.00, 0.00, 0.00, 0.00
107, 22676.69, 17732.64, -21849.05, -12295.29, -30221.28, -5355.63, -43926.43, 0.00, 0.00, 0.00, 0.00
108, 22748.06, 17831.17, -21850.10, -12289.48, -30230.40, -5362.54, -43921.22, 0.00, 0.10, 0.75, 0.63
109, 22641.60, 17730.39, -21822.95, -12284.63, -30208.81, -5449.91, -43896.21, 0.00, 0.00, 0.00, 0.00
110, 22566.68, 17616.73, -21803.97, -12263.51, -30199.64, -5457.16, -43877.50, 0.00, 0.00, 0.00, 0.00
111, 22684.49, 17726.97, -21823.30, -12216.46, -30215.47, -5337.91, -43908.48, 0.00, 0.00, 0.00, 0.00
112, 22791.00, 17855.76, -21847.18, -12260.02, -30228.74, -5327.74, -43962.21, 0.00, 0.00, 0.00, 0.00
113, 22691.45, 17764.72, -21828.24, -12281.14, -30226.80, -5413.57, -43929.96, 0.00, 0.00, 0.00, 0.00
114, 22575.51, 17633.67, -21802.34, -12277.01, -30212.83, -5456.40, -43867.27, 0.00, 0.00, 0.00, 0.00
115, 22647.70, 17695.16, -21829.54, -12266.32, -30219.60, -5365.09, -43896.52, 0.00, 0.00, 0.00, 0.00
116, 22765.14, 17822.45, -21858.33, -12276.90, -30234.33, -5336.23, -43955.11, 0.00, 0.00, 0.00, 0.00
117, 22703.38, 17770.29, -21831.75, -12284.76, -30219.83, -5414.11, -43928.78, 0.00, 0.00, 0.00, 0.00
118, 22580.76, 17636.60, -21808.69, -12282.37, -30206.32, -5464.06, -43891.94, 0.00, 0.09, 0.75, 0.63
119, 22616.43, 17663.11, -21825.58, -12273.70, -30212.05, -5409.59, -43932.80, 0.00, 0.00, 0.00, 0.00
120, 22755.46, 17813.40, -21848.27, -12280.14, -30214.57, -5343.39, -43936.58, 0.00, 0.00, 0.00, 0.00
121, 22732.33, 17795.21, -21834.10, -12286.44, -30200.56, -5391.60, -43881.59, 0.00, 0.00, 0.00, 0.00
122, 22597.93, 17649.61, -21808.95, -12273.99, -30186.39, -5449.85, -43866.88, 0.00, 0.00, 0.00, 0.00
123, 22589.54, 17629.33, -21815.64, -12257.14, -30195.89, -5396.92, -43896.12, 0.00, 0.00, 0.00, 0.00
124, 22735.86, 17776.77, -21846.73, -12285.50, -30211.00, -5338.40, -43939.32, 0.00, 0.00, 0.00, 0.00
125, 22745.85, 17801.33, -21842.95, -12295.29, -30211.33, -5389.36, -43912.97, 0.00, 0.00, 0.00, 0.00
126, 22615.61, 17666.88, -21811.21, -12283.27, -30192.67, -5433.82, -43856.60, 0.00, 0.00, 0.00, 0.00
127, 22573.09, 17615.34, -21824.64, -12274.53, -30199.71, -5412.59, -43863.53, 0.00, 0.00, 0.00, 0.00
128, 22714.47, 17754.57, -21858.22, -12269.86, -30217.46, -5322.62, -43900.48, 0.00, 0.09, 0.75, 0.63
129, 22755.66, 17810.94, -21853.57, -12289.12, -30218.26, -5371.66, -43941.20, 0.00, 0.00, 0.00, 0.00
130, 22640.82, 17698.76, -21815.26, -12287.56, -30194.84, -5448.10, -43888.45, 0.00, 0.00, 0.00, 0.00
131, 22578.93, 17613.60, -21807.34, -12279.62, -30193.43, -5432.08, -43869.43, 0.00, 0.00, 0.00, 0.00
132, 22691.47, 17719.28, -21862.08, -12281.30, -30222.73, -5353.96, -43941.43, 0.00, 0.00, 0.00, 0.00
133, 22763.73, 17809.38, -21876.12, -12299.87, -30241.57, -5354.63, -43969.10, 0.00, 0.00, 0.00, 0.00
134, 22657.83, 17706.18, -21843.02, -12307.63, -30228.32, -5440.46, -43909.13, 0.00, 0.00, 0.00, 0.00
135, 22558.90, 17598.18, -21824.00, -12292.92, -30200.09, -5455.81, -43839.93, 0.00, 0.00, 0.00, 0.00
136, 22663.08, 17692.37, -21847.49, -12260.58, -30208.36, -5354.25, -43892.43, 0.00, 0.00, 0.00, 0.00
137, 22764.92, 17814.85, -21863.27, -12265.90, -30220.70, -5334.62, -43919.37, 0.00, 0.00, 0.00, 0.00
138, 22680.00, 17743.95, -21833.45, -12307.88, -30207.02, -5417.21, -43894.33, 0.00, 0.10, 0.75, 0.63
139, 22567.55, 17612.12, -21815.68, -12299.36, -30203.13, -5458.12, -43906.91, 0.00, 0.00, 0.00, 0.00
140, 22631.79, 17667.27, -21840.45, -12290.20, -30211.60, -5376.80, -43910.16, 0.00, 0.00, 0.00, 0.00
141, 22762.66, 17802.25, -21866.71, -12308.68, -30227.25, -5349.22, -43952.51, 0.00, 0.00, 0.00, 0.00
142, 22703.16, 17761.01, -21842.06, -12318.36, -30214.13, -5431.34, -43932.17, 0.00, 0.00, 0.00, 0.00
143, 22577.34, 17639.17, -21804.71, -12300.37, -30189.40, -5462.54, -43863.89, 0.00, 0.00, 0.00, 0.00
144, 22601.39, 17656.56, -21829.47, -12288.30, -30201.77, -5396.78, -43931.30, 0.00, 0.00, 0.00, 0.00
145, 22736.73, 17785.66, -21876.41, -12283.94, -30231.31, -5324.57, -43954.46, 0.00, 0.00, 0.00, 0.00
146, 22733.65, 17785.28, -21846.26, -12284.27, -30198.41, -5368.80, -43859.57, 0.00, 0.00, 0.00, 0.00
147, 22601.21, 17644.20, -21811.19, -12291.31, -30178.45, -5448.75, -43836.53, 0.00, 0.09, 0.75, 0.64
148, 22591.49, 17619.70, -21814.83, -12271.67, -30188.67, -5409.95, -43875.82, 0.00, 0.00, 0.00, 0.00
149, 22750.14, 17771.78, -21853.28, -12275.00, -30206.37, -5300.40, -43909.24, 0.00, 0.00, 0.00, 0.00
150, 22761.59, 17800.82, -21844.07, -12292.16, -30204.16, -5353.94, -43903.34, 0.00, 0.00, 0.00, 0.00
151, 22627.63, 17662.55, -21816.87, -12294.84, -30194.79, -5438.76, -43891.67, 0.00, 0.00, 0.00, 0.00
152, 22586.82, 17610.56, -21821.94, -12279.91, -30197.36, -5417.15, -43883.11, 0.00, 0.00, 0.00, 0.00
153, 22723.19, 17752.04, -21854.91, -12280.72, -30212.79, -5337.66, -43920.48, 0.00, 0.00, 0.00, 0.00
154, 22776.29, 17819.01, -21851.53, -12292.45, -30204.49, -5357.33, -43908.01, 0.00, 0.00, 0.00, 0.00
155, 22658.34, 17692.48, -21816.11, -12293.44, -30187.04, -5431.41, -43875.15, 0.00, 0.00, 0.00, 0.00
156, 22586.62, 17607.88, -21804.46, -12276.90, -30185.90, -5415.02, -43860.74, 0.00, 0.00, 0.00, 0.00
157, 22698.46, 17727.53, -21834.01, -12267.20, -30193.45, -5324.88, -43904.05, 0.00, 0.09, 0.75, 0.63
158, 22791.49, 17836.42, -21835.11, -12274.28, -30192.71, -5330.42, -43923.75, 0.00, 0.00, 0.00, 0.00
159, 22693.57, 17735.01, -21801.73, -12285.46, -30177.04, -5415.36, -43876.61, 0.00, 0.00, 0.00, 0.00
160, 22589.32, 17623.72, -21787.16, -12285.79, -30175.84, -5443.03, -43857.16, 0.00, 0.00, 0.00, 0.00
161, 22666.14, 17698.69, -21829.65, -12282.15, -30187.30, -5356.24, -43909.06, 0.00, 0.00, 0.00, 0.00
162, 22778.24, 17821.92, -21850.86, -12291.22, -30197.23, -5331.87, -43932.82, 0.00, 0.00, 0.00, 0.00
163, 22705.24, 17756.36, -21821.09, -12287.54, -30184.33, -5410.73, -43892.88, 0.00, 0.00, 0.00, 0.00
164, 22588.54, 17625.45, -21796.57, -12270.48, -30172.08, -5459.88, -43871.33, 0.00, 0.00, 0.00, 0.00
165, 22646.45, 17661.90, -21816.91, -12292.77, -30181.85, -5363.28, -43894.49, 0.00, 0.00, 0.00, 0.00
166, 22772.22, 17798.98, -21848.88, -12300.95, -30205.30, -5324.16, -43965.59, 0.00, 0.00, 0.00, 0.00
167, 22725.93, 17774.20, -21831.17, -12299.11, -30199.64, -5398.59, -43938.34, 0.00, 0.09, 0.74, 0.63
168, 22599.54, 17646.01, -21808.93, -12275.00, -30189.67, -5449.62, -43906.38, 0.00, 0.00, 0.00, 0.00
169, 22616.63, 17649.41, -21819.26, -12270.21, -30186.92, -5388.98, -43863.11, 0.00, 0.00, 0.00, 0.00
170, 22747.97, 17791.65, -21854.06, -12303.25, -30204.74, -5329.55, -43903.72, 0.00, 0.00, 0.00, 0.00
171, 22745.76, 17798.85, -21828.36, -12302.91, -30187.91, -5374.72, -43882.55, 0.00, 0.00, 0.00, 0.00
172, 22617.26, 17660.22, -21801.31, -12295.05, -30177.40, -5432.46, -43877.57, 0.00, 0.00, 0.00, 0.00
173, 22597.14, 17631.97, -21819.17, -12285.37, -30184.04, -5393.90, -43883.18, 0.00, 0.00, 0.00, 0.00
174, 22740.40, 17774.13, -21861.14, -12293.75, -30209.28, -5318.69, -43923.61, 0.00, 0.00, 0.00, 0.00
175, 22768.40, 17817.11, -21844.74, -12296.41, -30198.03, -5347.25, -43894.38, 0.00, 0.00, 0.00, 0.00
176, 22634.45, 17685.73, -21809.09, -12299.70, -30183.84, -5428.28, -43872.36, 0.00, 0.00, 0.00, 0.00
177, 22583.40, 17612.17, -21816.58, -12290.02, -30186.74, -5422.00, -43886.11, 0.00, 0.09, 0.74, 0.63
178, 22710.02, 17734.10, -21874.94, -12303.67, -30226.62, -5345.17, -43991.96, 0.00, 0.00, 0.00, 0.00
179, 22765.56, 17812.80, -21873.95, -12317.87, -30232.68, -5363.86, -43970.11, 0.00, 0.00, 0.00, 0.00
180, 22647.23, 17700.79, -21839.69, -12321.13, -30206.12, -5451.43, -43899.07, 0.00, 0.00, 0.00, 0.00
181, 22575.19, 17616.48, -21819.77, -12304.30, -30180.38, -5440.73, -43865.36, 0.00, 0.00, 0.00, 0.00
182, 22682.97, 17717.20, -21860.05, -12312.17, -30213.72, -5355.99, -43939.01, 0.00, 0.00, 0.00, 0.00
183, 22776.11, 17817.33, -21873.10, -12328.46, -30225.19, -5356.57, -43972.16, 0.00, 0.00, 0.00, 0.00
184, 22678.17, 17728.98, -21845.95, -12331.37, -30212.14, -5437.15, -43933.61, 0.00, 0.00, 0.00, 0.00
185, 22575.73, 17615.39, -21827.35, -12321.33, -30204.89, -5460.13, -43891.88, 0.00, 0.00, 0.00, 0.00
186, 22657.49, 17678.75, -21852.65, -12319.59, -30214.37, -5395.64, -43928.22, 0.00, 0.00, 0.00, 0.00
187, 22776.74, 17811.90, -21878.38, -12319.14, -30229.17, -5342.54, -43965.57, 0.00, 0.10, 0.74, 0.63
188, 22717.78, 17756.87, -21854.91, -12315.34, -30211.87, -5398.01, -43888.45, 0.00, 0.00, 0.00, 0.00
189, 22590.62, 17630.61, -21832.42, -12297.33, -30198.08, -5439.12, -43865.90, 0.00, 0.00, 0.00, 0.00
190, 22622.80, 17662.64, -21854.26, -12311.32, -30216.34, -5387.93, -43917.24, 0.00, 0.00, 0.00, 0.00
191, 22757.49, 17795.86, -21889.17, -12325.47, -30238.00, -5328.19, -43966.04, 0.00, 0.00, 0.00, 0.00
192, 22725.62, 17761.86, -21872.81, -12312.10, -30227.74, -5403.96, -43959.55, 0.00, 0.00, 0.00, 0.00
193, 22596.14, 17620.77, -21844.40, -12324.35, -30210.75, -5468.29, -43881.43, 0.00, 0.00, 0.00, 0.00
194, 22600.50, 17618.05, -21846.62, -12340.91, -30216.94, -5416.41, -43922.47, 0.00, 0.00, 0.00, 0.00
195, 22741.58, 17764.34, -21888.08, -12344.02, -30245.06, -5349.64, -43984.95, 0.00, 0.00, 0.00, 0.00
196, 22734.54, 17776.86, -21892.62, -12350.50, -30241.53, -5397.28, -43950.08, 0.00, 0.10, 0.75, 0.63
197, 22601.52, 17648.51, -21862.60, -12349.52, -30224.52, -5476.20, -43901.46, 0.00, 0.00, 0.00, 0.00
198, 22565.49, 17595.27, -21863.51, -12339.33, -30229.30, -5449.44, -43926.00, 0.00, 0.00, 0.00, 0.00
199, 22714.87, 17728.53, -21899.70, -12341.36, -30258.70, -5358.94, -44003.39, 0.00, 0.00, 0.00, 0.00
200, 22762.26, 17785.04, -21882.33, -12344.85, -30231.65, -5382.81, -43928.87, 0.00, 0.00, 0.00, 0.00
201, 22635.07, 17661.07, -21846.82, -12338.81, -30208.63, -5452.24, -43897.84, 0.00, 0.00, 0.00, 0.00
202, 22558.03, 17575.98, -21850.35, -12342.61, -30214.51, -5461.54, -43922.74, 0.00, 0.00, 0.00, 0.00
203, 22690.28, 17706.36, -21890.63, -12340.22, -30240.79, -5368.06, -43996.93, 0.00, 0.00, 0.00, 0.00
204, 22769.86, 17797.24, -21883.38, -12337.92, -30239.00, -5359.75, -43976.70, 0.00, 0.00, 0.00, 0.00
205, 22652.87, 17681.39, -21849.37, -12348.82, -30218.08, -5453.62, -43946.12, 0.00, 0.00, 0.00, 0.00
206, 22565.20, 17577.54, -21845.57, -12339.82, -30212.76, -5460.98, -43886.33, 0.00, 0.09, 0.75, 0.63
207, 22665.49, 17668.14, -21885.24, -12335.73, -30235.40, -5364.89, -43951.98, 0.00, 0.00, 0.00, 0.00
208, 22765.94, 17776.23, -21897.24, -12349.27, -30248.93, -5363.61, -43980.48, 0.00, 0.00, 0.00, 0.00
209, 22691.94, 17704.41, -21866.55, -12351.37, -30227.25, -5437.55, -43937.38, 0.00, 0.00, 0.00, 0.00
210, 22571.55, 17588.95, -21849.99, -12347.44, -30215.91, -5491.73, -43930.41, 0.00, 0.00, 0.00, 0.00
211, 22623.61, 17636.51, -21872.16, -12344.11, -30227.02, -5399.71, -43950.46, 0.00, 0.00, 0.00, 0.00
212, 22758.39, 17762.97, -21882.71, -12344.24, -30235.52, -5334.09, -43961.77, 0.00, 0.00, 0.00, 0.00
213, 22705.37, 17712.08, -21859.83, -12352.29, -30222.82, -5418.26, -43940.29, 0.00, 0.00, 0.00, 0.00
214, 22579.33, 17575.42, -21856.14, -12337.98, -30218.60, -5470.25, -43922.56, 0.00, 0.00, 0.00, 0.00
215, 22613.13, 17609.84, -21873.10, -12338.99, -30228.88, -5387.60, -43942.43, 0.00, 0.00, 0.00, 0.00
216, 22756.02, 17758.77, -21904.28, -12355.11, -30249.22, -5334.69, -43994.09, 0.00, 0.07, 0.75, 0.63
217, 22726.56, 17739.64, -21886.51, -12369.52, -30243.07, -5411.74, -43962.71, 0.00, 0.00, 0.00, 0.00
218, 22582.59, 17589.44, -21860.72, -12369.21, -30229.77, -5471.46, -43917.40, 0.00, 0.00, 0.00, 0.00
219, 22579.35, 17580.83, -21864.79, -12350.30, -30228.99, -5426.65, -43938.99, 0.00, 0.00, 0.00, 0.00
220, 22729.18, 17727.46, -21899.32, -12331.68, -30249.64, -5352.48, -43994.51, 0.00, 0.00, 0.00, 0.00
221, 22739.86, 17745.83, -21892.77, -12371.22, -30248.30, -5401.23, -43991.52, 0.00, 0.00, 0.00, 0.00
222, 22609.95, 17608.32, -21860.83, -12387.43, -30228.72, -5486.79, -43934.43, 0.00, 0.00, 0.00, 0.00
223, 22565.83, 17563.42, -21863.83, -12379.27, -30228.59, -5474.17, -43947.08, 0.00, 0.00, 0.00, 0.00
224, 22704.16, 17699.18, -21899.12, -12375.62, -30243.25, -5370.21, -43975.29, 0.00, 0.00, 0.00, 0.00
225, 22756.91, 17754.08, -21892.04, -12384.27, -30238.38, -5390.15, -43960.98, 0.00, 0.00, 0.00, 0.00
226, 22639.46, 17630.81, -21860.27, -12385.75, -30222.64, -5473.90, -43945.45, 0.00, 0.07, 0.74, 0.63
227, 22568.33, 17553.96, -21848.23, -12369.37, -30223.16, -5455.32, -43957.70, 0.00, 0.00, 0.00, 0.00
228, 22692.83, 17672.76, -21884.03, -12368.09, -30238.15, -5368.82, -43978.13, 0.00, 0.00, 0.00, 0.00
229, 22772.45, 17768.23, -21894.96, -12372.79, -30227.51, -5358.61, -43944.85, 0.00, 0.00, 0.00, 0.00
230, 22657.69, 17660.02, -21872.25, -12383.63, -30220.99, -5451.08, -43946.25, 0.00, 0.00, 0.00, 0.00
231, 22564.24, 17552.20, -21857.44, -12379.31, -30213.88, -5467.73, -43926.12, 0.00, 0.00, 0.00, 0.00
232, 22659.88, 17638.90, -21895.88, -12365.01, -30234.55, -5384.42, -43978.82, 0.00, 0.00, 0.00, 0.00
233, 22764.69, 17765.14, -21911.55, -12363.51, -30244.79, -5359.26, -43981.91, 0.00, 0.00, 0.00, 0.00
234, 22683.87, 17697.35, -21869.79, -12393.01, -30219.67, -5430.00, -43917.13, 0.00, 0.00, 0.00, 0.00
235, 22572.67, 17566.64, -21843.44, -12380.76, -30211.20, -5460.96, -43909.57, 0.00, 0.07, 0.74, 0.65
236, 22626.94, 17615.32, -21879.94, -12376.52, -30222.29, -5390.50, -43913.33, 0.00, 0.00, 0.00, 0.00
237, 22762.93, 17755.13, -21914.74, -12382.11, -30236.52, -5350.54, -43965.70, 0.00, 0.00, 0.00, 0.00
238, 22708.81, 17716.71, -21892.28, -12380.90, -30221.66, -5425.80, -43942.79, 0.00, 0.00, 0.00, 0.00
239, 22579.22, 17589.01, -21872.63, -12370.59, -30214.60, -5468.51, -43912.37, 0.00, 0.00, 0.00, 0.00
240, 22604.52, 17607.61, -21888.21, -12366.24, -30226.67, -5419.40, -43946.21, 0.00, 0.00, 0.00, 0.00
241, 22752.13, 17743.89, -21918.92, -12379.60, -30242.38, -5356.13, -43978.31, 0.00, 0.00, 0.00, 0.00
242, 22733.71, 17737.92, -21887.56, -12374.98, -30226.02, -5372.17, -43949.09, 0.00, 0.00, 0.00, 0.00
243, 22601.81, 17600.01, -21858.80, -12372.54, -30205.52, -5438.09, -43902.82, 0.00, 0.00, 0.00, 0.00
244, 22591.09, 17561.52, -21875.07, -12374.75, -30209.77, -5415.47, -43922.38, 0.00, 0.00, 0.00, 0.00
245, 22733.36, 17698.65, -21911.44, -12387.90, -30231.52, -5353.51, -44006.63, 0.00, 0.08, 0.74, 0.65
246, 22752.18, 17725.27, -21902.74, -12402.16, -30226.69, -5391.40, -43955.46, 0.00, 0.00, 0.00, 0.00
247, 22621.84, 17587.25, -21873.44, -12393.57, -30224.94, -5466.39, -43909.26, 0.00, 0.00, 0.00, 0.00
248, 22581.86, 17536.75, -21862.73, -12371.47, -30224.05, -5441.24, -43903.99, 0.00, 0.00, 0.00, 0.00
249, 22720.90, 17692.25, -21901.94, -12399.72, -30236.03, -5350.02, -43945.52, 0.00, 0.00, 0.00, 0.00
250, 22759.30, 17749.30, -21919.33, -12418.43, -30247.01, -5386.50, -43965.68, 0.00, 0.00, 0.00, 0.00
251, 22638.47, 17611.03, -21895.54, -12419.75, -30241.60, -5470.12, -43953.81, 0.00, 0.00, 0.00, 0.00
252, 22563.26, 17515.56, -21878.83, -12408.21, -30228.12, -5478.55, -43923.70, 0.00, 0.00, 0.00, 0.00
253, 22680.81, 17631.93, -21905.74, -12395.83, -30239.79, -5381.32, -43958.77, 0.00, 0.00, 0.00, 0.00
254, 22771.31, 17737.20, -21914.92, -12386.87, -30250.34, -5354.27, -43987.45, 0.00, 0.00, 0.00, 0.00
255, 22674.82, 17656.67, -21888.68, -12389.06, -30236.99, -5437.82, -43944.51, 0.00, 0.09, 0.73, 0.66
0, 22574.88, 17550.01, -21875.05, -12412.39, -30229.15, -5473.85, -43925.36, 0.00, 0.00, 0.00, 0.00
1, 22655.66, 17607.05, -21900.44, -12398.20, -30239.54, -5399.69, -43982.22, 0.00, 0.00, 0.00, 0.00
2, 22770.23, 17726.34, -21921.23, -12405.60, -30255.90, -5377.25, -44006.27, 0.00, 0.00, 0.00, 0.00
3, 22702.42, 17665.05, -21891.90, -12412.17, -30242.74, -5448.98, -43982.82, 0.00, 0.00, 0.00, 0.00
4, 22587.98, 17544.17, -21870.42, -12394.73, -30219.74, -5473.03, -43910.20, 0.00, 0.00, 0.00, 0.00
5, 22637.49, 17590.71, -21895.72, -12383.63, -30231.76, -5402.75, -43950.50, 0.00, 0.00, 0.00, 0.00
6, 22771.46, 17724.66, -21928.04, -12400.23, -30244.03, -5358.54, -43985.37, 0.00, 0.00, 0.00, 0.00
7, 22738.90, 17691.43, -21908.44, -12399.67, -30233.37, -5409.21, -43938.36, 0.00, 0.00, 0.00, 0.00
8, 22607.54, 17554.90, -21884.39, -12400.21, -30225.23, -5470.90, -43927.12, 0.00, 0.00, 0.00, 0.00
9, 22615.85, 17559.80, -21881.51, -12389.73, -30229.32, -5432.61, -43965.43, 0.00, 0.09, 0.73, 0.65
10, 22763.48, 17702.00, -21922.90, -12397.42, -30246.31, -5359.79, -44015.99, 0.00, 0.00, 0.00, 0.00
11, 22764.49, 17709.02, -21923.89, -12408.28, -30245.91, -5407.20, -44015.97, 0.00, 0.00, 0.00, 0.00
12, 22635.37, 17572.36, -21892.73, -12413.53, -30230.60, -5486.41, -43960.56, 0.00, 0.00, 0.00, 0.00
13, 22610.11, 17545.02, -21887.54, -12400.84, -30225.46, -5446.16, -43942.66, 0.00, 0.00, 0.00, 0.00
14, 22755.26, 17701.31, -21918.77, -12397.75, -30237.30, -5357.96, -43984.03, 0.00, 0.00, 0.00, 0.00
15, 22783.56, 17741.88, -21914.05, -12408.68, -30237.21, -5394.15, -43969.50, 0.00, 0.00, 0.00, 0.00
16, 22646.63, 17605.40, -21887.77, -12415.03, -30227.63, -5474.25, -43954.97, 0.00, 0.00, 0.00, 0.00
17, 22587.17, 17532.19, -21885.53, -12409.44, -30234.38, -5472.51, -43979.09, 0.00, 0.00, 0.00, 0.00
18, 22718.71, 17663.94, -21915.17, -12401.44, -30246.58, -5371.82, -43992.64, 0.00, 0.00, 0.00, 0.00
19, 22791.87, 17751.40, -21908.22, -12402.45, -30234.42, -5369.34, -43990.55, 0.00, 0.09, 0.73, 0.65
20, 22677.03, 17637.45, -21883.79, -12408.21, -30223.13, -5455.12, -43940.33, 0.00, 0.00, 0.00, 0.00
21, 22597.68, 17546.34, -21869.79, -12382.91, -30216.94, -5456.02, -43929.80, 0.00, 0.00, 0.00, 0.00
22, 22703.18, 17652.31, -21902.67, -12396.90, -30239.72, -5379.30, -43993.57, 0.00, 0.00, 0.00, 0.00
23, 22806.11, 17752.92, -21911.30, -12395.94, -30246.20, -5375.39, -44012.44, 0.00, 0.00, 0.00, 0.00
24, 22710.31, 17655.49, -21883.23, -12417.31, -30234.49, -5455.35, -43976.30, 0.00, 0.00, 0.00, 0.00
25, 22590.59, 17533.56, -21873.80, -12433.09, -30231.18, -5486.06, -43941.34, 0.00, 0.00, 0.00, 0.00
26, 22672.31, 17606.54, -21891.16, -12404.21, -30233.51, -5386.70, -43942.59, 0.00, 0.00, 0.00, 0.00
27, 22802.11, 17747.06, -21901.22, -12396.86, -30235.29, -5339.74, -43969.84, 0.00, 0.00, 0.00, 0.00
28, 22734.05, 17701.60, -21884.41, -12404.08, -30231.61, -5418.15, -43957.63, 0.00, 0.08, 0.74, 0.64
29, 22603.00, 17567.29, -21873.91, -12405.58, -30224.94, -5484.74, -43973.75, 0.00, 0.00, 0.00, 0.00
30, 22637.87, 17579.42, -21891.23, -12395.03, -30230.64, -5420.54, -43956.45, 0.00, 0.00, 0.00, 0.00
31, 22788.59, 17735.68, -21909.13, -12386.02, -30232.99, -5327.83, -43951.46, 0.00, 0.00, 0.00, 0.00
32, 22762.64, 17722.92, -21894.05, -12394.71, -30231.20, -5394.06, -43964.58, 0.00, 0.00, 0.00, 0.00
33, 22634.20, 17587.71, -21863.74, -12387.76, -30220.81, -5459.12, -43942.05, 0.00, 0.00, 0.00, 0.00
34, 22638.27, 17582.57, -21873.35, -12380.88, -30234.89, -5420.68, -43989.57, 0.00, 0.00, 0.00, 0.00
35, 22783.94, 17728.15, -21914.30, -12394.73, -30266.43, -5367.68, -44042.39, 0.00, 0.00, 0.00, 0.00
36, 22786.28, 17743.28, -21905.25, -12408.82, -30255.57, -5414.02, -44009.73, 0.00, 0.00, 0.00, 0.00
37, 22645.47, 17593.42, -21879.43, -12416.75, -30238.62, -5489.97, -43975.11, 0.00, 0.00, 0.00, 0.00
38, 22614.85, 17543.93, -21868.74, -12403.72, -30231.63, -5457.78, -43943.91, 0.00, 0.08, 0.74, 0.64
39, 22748.73, 17684.32, -21909.13, -12413.80, -30255.19, -5369.20, -44006.14, 0.00, 0.00, 0.00, 0.00
40, 22792.41, 17743.31, -21916.02, -12429.92, -30259.16, -5403.00, -44001.22, 0.00, 0.00, 0.00, 0.00
41, 22672.09, 17624.64, -21882.89, -12432.60, -30233.19, -5476.58, -43968.76, 0.00, 0.00, 0.00, 0.00
42, 22591.82, 17535.26, -21872.61, -12418.88, -30220.25, -5464.15, -43938.63, 0.00, 0.00, 0.00, 0.00
43, 22699.29, 17641.22, -21902.94, -12404.10, -30229.84, -5375.46, -43977.46, 0.00, 0.00, 0.00, 0.00
44, 22763.64, 17717.20, -21912.29, -12424.57, -30235.88, -5390.97, -44014.05, 0.00, 0.00, 0.00, 0.00
45, 22647.88, 17606.54, -21886.54, -12441.41, -30224.23, -5471.26, -43943.86, 0.00, 0.00, 0.00, 0.00
46, 22547.19, 17501.06, -21874.94, -12428.60, -30224.16, -5483.33, -43935.95, 0.00, 0.00, 0.00, 0.00
47, 22643.75, 17590.93, -21910.10, -12428.29, -30234.96, -5398.75, -43972.65, 0.00, 0.00, 0.00, 0.00
48, 22754.99, 17701.60, -21924.13, -12427.84, -30240.01, -5365.45, -43986.87, 0.00, 0.09, 0.74, 0.63
49, 22669.81, 17634.50, -21892.17, -12430.61, -30226.51, -5447.23, -43968.00, 0.00, 0.00, 0.00, 0.00
50, 22562.88, 17518.83, -21871.38, -12424.19, -30218.48, -5485.54, -43957.25, 0.00, 0.00, 0.00, 0.00
51, 22623.38, 17563.33, -21904.75, -12430.72, -30243.27, -5436.93, -44036.60, 0.00, 0.00, 0.00, 0.00
52, 22752.60, 17702.25, -21927.78, -12430.97, -30260.51, -5370.45, -44073.68, 0.00, 0.00, 0.00, 0.00
53, 22705.10, 17665.68, -21902.61, -12428.44, -30251.12, -5418.89, -44011.28, 0.00, 0.00, 0.00, 0.00
54, 22587.06, 17538.94, -21868.32, -12418.07, -30215.27, -5463.24, -43892.32, 0.00, 0.00, 0.00, 0.00
55, 22618.22, 17560.04, -21879.09, -12410.34, -30216.99, -5410.08, -43930.61, 0.00, 0.00, 0.00, 0.00
56, 22764.49, 17716.53, -21909.63, -12416.57, -30236.68, -5354.05, -44005.40, 0.00, 0.00, 0.00, 0.00
57, 22736.39, 17707.01, -21891.99, -12426.43, -30235.79, -5411.22, -43991.63, 0.00, 0.00, 0.00, 0.00
58, 22606.20, 17561.29, -21874.98, -12404.14, -30228.63, -5476.60, -43948.94, 0.00, 0.09, 0.74, 0.63
59, 22610.02, 17545.27, -21876.37, -12407.92, -30221.32, -5429.26, -43954.37, 0.00, 0.00, 0.00, 0.00
60, 22750.01, 17689.86, -21917.70, -12438.30, -30242.94, -5356.06, -44008.84, 0.00, 0.00, 0.00, 0.00
61, 22764.63, 17725.02, -21904.13, -12442.08, -30228.68, -5399.67, -43992.07, 0.00, 0.00, 0.00, 0.00
62, 22635.97, 17596.77, -21872.48, -12436.55, -30214.24, -5473.03, -43974.98, 0.00, 0.00, 0.00, 0.00
63, 22594.24, 17525.26, -21871.05, -12425.98, -30214.21, -5449.11, -43955.08, 0.00, 0.00, 0.00, 0.00
64, 22726.16, 17655.04, -21906.83, -12431.12, -30236.39, -5373.54, -44003.12, 0.00, 0.00, 0.00, 0.00
65, 22778.01, 17728.58, -21903.95, -12426.83, -30231.65, -5393.39, -43993.77, 0.00, 0.00, 0.00, 0.00
66, 22658.61, 17610.13, -21880.97, -12421.85, -30213.92, -5471.71, -43964.23, 0.00, 0.00, 0.00, 0.00
67, 22594.13, 17532.78, -21871.90, -12424.04, -30213.79, -5452.46, -43938.34, 0.00, 0.00, 0.00, 0.00
68, 22709.35, 17657.90, -21902.85, -12420.51, -30233.24, -5361.22, -43996.66, 0.00, 0.09, 0.75, 0.64
69, 22779.98, 17743.28, -21911.24, -12428.58, -30238.96, -5365.04, -44007.16, 0.00, 0.00, 0.00, 0.00
70, 22677.72, 17633.22, -21894.11, -12430.52, -30234.13, -5434.89, -43989.77, 0.00, 0.00, 0.00, 0.00
71, 22589.41, 17525.24, -21883.97, -12423.48, -30221.57, -5459.55, -43977.70, 0.00, 0.00, 0.00, 0.00
72, 22673.14, 17605.15, -21911.95, -12417.98, -30223.51, -5381.79, -43976.92, 0.00, 0.00, 0.00, 0.00
73, 22774.06, 17720.04, -21929.65, -12434.10, -30235.38, -5366.68, -43995.88, 0.00, 0.00, 0.00, 0.00
74, 22700.77, 17653.77, -21902.14, -12441.00, -30224.47, -5437.96, -43968.50, 0.00, 0.00, 0.00, 0.00
75, 22591.04, 17539.05, -21881.04, -12431.53, -30210.42, -5461.92, -43935.64, 0.00, 0.00, 0.00, 0.00
76, 22633.44, 17589.95, -21903.05, -12427.68, -30229.86, -5401.88, -43973.97, 0.00, 0.00, 0.00, 0.00
77, 22767.58, 17722.56, -21926.93, -12430.23, -30244.68, -5354.43, -44015.95, 0.00, 0.09, 0.75, 0.65
78, 22720.08, 17681.55, -21917.40, -12445.14, -30241.84, -5419.90, -44007.79, 0.00, 0.00, 0.00, 0.00
79, 22593.37, 17546.14, -21885.51, -12436.00, -30229.71, -5470.54, -43963.33, 0.00, 0.00, 0.00, 0.00
80, 22617.64, 17552.60, -21892.17, -12419.46, -30236.61, -5407.15, -43966.86, 0.00, 0.00, 0.00, 0.00
81, 22770.44, 17710.56, -21910.30, -12420.28, -30237.71, -5336.68, -43981.88, 0.00, 0.00, 0.00, 0.00
82, 22759.28, 17713.85, -21911.64, -12437.38, -30230.51, -5401.57, -43962.32, 0.00, 0.00, 0.00, 0.00
83, 22624.28, 17575.80, -21894.58, -12447.31, -30224.18, -5496.56, -43954.35, 0.00, 0.00, 0.00, 0.00
84, 22602.69, 17546.79, -21889.82, -12434.77, -30224.27, -5447.70, -43970.73, 0.00, 0.00, 0.00, 0.00
85, 22745.27, 17691.14, -21918.81, -12436.93, -30241.04, -5362.32, -44019.61, 0.00, 0.00, 0.00, 0.00
86, 22775.20, 17737.58, -21927.42, -12409.22, -30236.25, -5387.53, -43973.17, 0.00, 0.00, 0.00, 0.00
87, 22643.90, 17606.76, -21899.46, -12417.15, -30223.27, -5438.54, -43921.49, 0.00, 0.09, 0.74, 0.65
88, 22598.26, 17536.64, -21885.80, -12454.82, -30213.63, -5432.50, -43921.94, 0.00, 0.00, 0.00, 0.00
89, 22727.72, 17661.21, -21921.83, -12438.34, -30233.17, -5352.37, -43976.52, 0.00, 0.00, 0.00, 0.00
90, 22784.32, 17730.45, -21932.47, -12452.11, -30248.06, -5380.27, -44029.94, 0.00, 0.00, 0.00, 0.00
91, 22666.14, 17615.12, -21903.30, -12457.90, -30239.61, -5473.12, -43999.77, 0.00, 0.00, 0.00, 0.00
92, 22588.54, 17527.54, -21889.15, -12446.03, -30223.49, -5480.60, -43939.86, 0.00, 0.00, 0.00, 0.00
93, 22707.56, 17637.16, -21914.39, -12429.71, -30229.08, -5357.31, -43953.41, 0.00, 0.00, 0.00, 0.00
94, 22802.18, 17742.43, -21928.11, -12440.91, -30240.70, -5358.25, -43999.99, 0.00, 0.00, 0.00, 0.00
95, 22697.17, 17655.46, -21908.06, -12442.37, -30226.93, -5436.19, -43953.32, 0.00, 0.00, 0.00, 0.00
96, 22593.39, 17544.38, -21894.20, -12437.47, -30221.95, -5470.43, -43935.62, 0.00, 0.00, 0.00, 0.00
97, 22662.23, 17613.80, -21925.29, -12439.84, -30241.66, -5413.91, -44002.78, 0.00, 0.09, 0.73, 0.65
98, 22777.52, 17732.11, -21949.90, -12457.19, -30262.65, -5384.71, -44060.07, 0.00, 0.00, 0.00, 0.00
99, 22722.96, 17671.11, -21925.18, -12457.79, -30249.44, -5429.66, -43998.49, 0.00, 0.00, 0.00, 0.00
100, 22608.74, 17551.66, -21880.77, -12443.48, -30222.87, -5463.68, -43890.20, 0.00, 0.00, 0.00, 0.00
101, 22653.63, 17584.65, -21906.14, -12431.19, -30229.04, -5401.03, -43944.87, 0.00, 0.00, 0.00, 0.00
102, 22789.03, 17718.09, -21953.21, -12446.50, -30255.25, -5360.93, -44025.27, 0.00, 0.00, 0.00, 0.00
103, 22756.29, 17696.19, -21938.33, -12457.43, -30250.67, -5419.65, -43990.46, 0.00, 0.00, 0.00, 0.00
104, 22629.89, 17567.20, -21899.90, -12443.26, -30232.99, -5462.19, -43948.91, 0.00, 0.00, 0.00, 0.00
105, 22638.31, 17564.54, -21907.01, -12436.62, -30238.42, -5419.76, -43965.07, 0.00, 0.00, 0.00, 0.00
106, 22763.73, 17704.44, -21958.62, -12459.29, -30270.38, -5365.89, -44048.25, 0.00, 0.00, 0.00, 0.00
107, 22761.85, 17710.78, -21949.03, -12469.97, -30263.68, -5413.26, -44005.18, 0.00, 0.09, 0.74, 0.64
108, 22641.67, 17580.25, -21902.72, -12459.04, -30229.08, -5474.66, -43954.52, 0.00, 0.00, 0.00, 0.00
109, 22612.54, 17535.93, -21908.02, -12461.34, -30243.63, -5457.04, -43972.00, 0.00, 0.00, 0.00, 0.00
110, 22754.88, 17687.14, -21950.53, -12456.27, -30263.97, -5359.43, -44032.76, 0.00, 0.00, 0.00, 0.00
111, 22776.00, 17732.49, -21946.86, -12442.34, -30242.09, -5380.56, -44025.16, 0.00, 0.00, 0.00, 0.00
112, 22653.58, 17610.00, -21906.97, -12434.01, -30211.27, -5462.54, -43944.29, 0.00, 0.00, 0.00, 0.00
113, 22614.11, 17556.76, -21896.57, -12445.25, -30210.88, -5448.22, -43931.70, 0.00, 0.00, 0.00, 0.00
114, 22747.15, 17692.05, -21928.27, -12427.19, -30231.78, -5334.51, -43975.09, 0.00, 0.00, 0.00, 0.00
115, 22816.03, 17770.71, -21920.89, -12432.06, -30228.86, -5347.36, -43996.77, 0.00, 0.00, 0.00, 0.00
116, 22699.27, 17671.13, -21910.25, -12443.30, -30227.29, -5438.20, -43968.92, 0.00, 0.00, 0.00, 0.00
117, 22602.87, 17558.90, -21912.06, -12441.58, -30225.19, -5455.90, -43940.00, 0.00, 0.08, 0.75, 0.65
118, 22709.66, 17644.47, -21937.61, -12435.62, -30238.38, -5380.31, -44010.34, 0.00, 0.00, 0.00, 0.00
119, 22815.83, 17757.21, -21948.90, -12443.71, -30254.13, -5360.64, -44048.61, 0.00, 0.00, 0.00, 0.00
120, 22720.03, 17676.79, -21930.88, -12445.03, -30238.13, -5417.95, -43954.73, 0.00, 0.00, 0.00, 0.00
121, 22606.64, 17554.90, -21913.78, -12436.64, -30221.28, -5450.50, -43919.86, 0.00, 0.00, 0.00, 0.00
122, 22674.03, 17614.36, -21937.99, -12434.43, -30237.13, -5389.77, -44004.91, 0.00, 0.00, 0.00, 0.00
123, 22793.59, 17742.43, -21965.53, -12454.26, -30256.53, -5364.28, -44018.72, 0.00, 0.00, 0.00, 0.00
124, 22737.24, 17691.29, -21937.63, -12464.81, -30241.48, -5450.14, -43993.75, 0.00, 0.00, 0.00, 0.00
125, 22617.86, 17561.83, -21913.47, -12451.82, -30230.98, -5486.59, -43985.48, 0.00, 0.00, 0.00, 0.00
126, 22648.93, 17586.82, -21936.34, -12442.01, -30242.22, -5412.47, -43974.86, 0.00, 0.08, 0.74, 0.64
127, 22789.57, 17734.43, -21960.01, -12450.17, -30246.80, -5352.55, -44012.15, 0.00, 0.00, 0.00, 0.00
128, 22775.60, 17727.86, -21937.99, -12450.64, -30239.61, -5397.86, -43992.86, 0.00, 0.00, 0.00, 0.00
129, 22648.75, 17589.55, -21907.37, -12445.47, -30219.98, -5464.51, -43938.30, 0.00, 0.00, 0.00, 0.00
130, 22643.17, 17580.41, -21906.12, -12426.38, -30213.52, -5421.64, -43961.48, 0.00, 0.00, 0.00, 0.00
131, 22781.32, 17726.88, -21945.25, -12414.29, -30242.78, -5347.34, -44025.52, 0.00, 0.00, 0.00, 0.00
132, 22785.17, 17741.16, -21947.13, -12458.71, -30252.04, -5392.58, -44045.39, 0.00, 0.00, 0.00, 0.00
133, 22662.99, 17600.66, -21917.27, -12474.11, -30234.78, -5477.32, -43997.26, 0.00, 0.00, 0.00, 0.00
134, 22627.59, 17554.14, -21908.44, -12457.19, -30223.07, -5442.58, -43929.96, 0.00, 0.00, 0.00, 0.00
135, 22763.26, 17700.14, -21941.75, -12439.42, -30243.96, -5340.99, -44002.92, 0.00, 0.00, 0.00, 0.00
136, 22812.44, 17762.35, -21934.37, -12460.31, -30234.80, -5357.20, -43977.01, 0.00, 0.09, 0.75, 0.64
137, 22691.51, 17641.47, -21902.29, -12461.97, -30216.00, -5440.01, -43943.73, 0.00, 0.00, 0.00, 0.00
138, 22625.73, 17556.80, -21899.26, -12451.64, -30214.77, -5445.02, -43941.56, 0.00, 0.00, 0.00, 0.00
139, 22743.05, 17664.05, -21949.79, -12456.22, -30246.20, -5358.99, -43989.06, 0.00, 0.00, 0.00, 0.00
140, 22824.71, 17756.25, -21967.43, -12462.10, -30259.19, -5356.19, -44017.98, 0.00, 0.00, 0.00, 0.00
141, 22717.62, 17656.96, -21933.92, -12463.29, -30239.96, -5438.81, -43976.32, 0.00, 0.00, 0.00, 0.00
142, 22612.52, 17545.43, -21916.78, -12458.42, -30233.33, -5457.20, -43956.18, 0.00, 0.00, 0.00, 0.00
143, 22704.30, 17636.44, -21936.72, -12455.11, -30248.37, -5368.17, -43994.91, 0.00, 0.00, 0.00, 0.00
144, 22820.37, 17762.46, -21959.89, -12460.63, -30256.48, -5346.78, -44019.17, 0.00, 0.00, 0.00, 0.00
145, 22736.95, 17682.08, -21944.76, -12472.52, -30255.88, -5434.29, -44012.02, 0.00, 0.00, 0.00, 0.00
146, 22620.26, 17545.58, -21927.78, -12463.91, -30256.93, -5451.95, -43987.20, 0.00, 0.08, 0.75, 0.64
147, 22689.34, 17604.77, -21938.84, -12448.38, -30252.79, -5378.48, -43989.44, 0.00, 0.00, 0.00, 0.00
148, 22823.99, 17748.69, -21962.71, -12451.98, -30251.83, -5334.11, -44016.44, 0.00, 0.00, 0.00, 0.00
149, 22770.86, 17710.34, -21946.48, -12464.14, -30249.11, -5404.96, -43998.76, 0.00, 0.00, 0.00, 0.00
150, 22637.53, 17571.91, -21920.62, -12470.26, -30245.57, -5464.33, -43965.90, 0.00, 0.00, 0.00, 0.00
151, 22662.01, 17582.17, -21930.28, -12455.31, -30256.68, -5401.68, -44002.54, 0.00, 0.00, 0.00, 0.00
152, 22808.75, 17721.94, -21978.63, -12463.09, -30279.71, -5347.59, -44055.96, 0.00, 0.00, 0.00, 0.00
153, 22790.82, 17726.47, -21961.84, -12477.55, -30262.12, -5396.63, -43991.94, 0.00, 0.00, 0.00, 0.00
154, 22655.53, 17594.15, -21921.00, -12459.98, -30237.80, -5440.77, -43951.86, 0.00, 0.00, 0.00, 0.00
155, 22635.19, 17561.63, -21930.41, -12454.97, -30243.99, -5409.48, -43992.01, 0.00, 0.00, 0.00, 0.00
