%OpenBCI Raw EEG Data
%
%Sample Rate = 250.0 Hz
%First Column = SampleIndex
%Other Columns = EEG data in microvolts followed by Accel Data (in G) interleaved with Aux Data
0, 42396.47, 49307.57, 18519.89, 33614.21, 24646.60, 36081.82, 25823.51, 0.00, 0.14, 0.96, 0.24
1, 42326.00, 49343.22, 18499.20, 33542.34, 24258.04, 35204.53, 25742.79, 0.00, 0.00, 0.00, 0.00
2, 42323.83, 49356.70, 18564.91, 33617.36, 24426.16, 35388.91, 25810.63, 0.00, 0.00, 0.00, 0.00
3, 42361.38, 49335.91, 18590.04, 33679.65, 24674.34, 35961.70, 25869.86, 0.00, 0.00, 0.00, 0.00
4, 42408.16, 49316.48, 18547.66, 33645.10, 24733.72, 36227.46, 25851.96, 0.00, 0.00, 0.00, 0.00
5, 42340.53, 49343.66, 18495.73, 33544.74, 24285.08, 35295.73, 25748.16, 0.00, 0.00, 0.00, 0.00
6, 42322.80, 49363.36, 18559.19, 33611.68, 24387.07, 35311.69, 25784.17, 0.00, 0.00, 0.00, 0.00
7, 42345.78, 49343.46, 18588.25, 33659.36, 24618.34, 35832.50, 25848.45, 0.00, 0.15, 0.97, 0.24
8, 42399.56, 49312.06, 18558.83, 33658.39, 24783.86, 36298.81, 25866.24, 0.00, 0.00, 0.00, 0.00
9, 42346.45, 49330.52, 18484.58, 33535.71, 24329.81, 35420.56, 25754.46, 0.00, 0.00, 0.00, 0.00
10, 42325.08, 49364.47, 18549.96, 33593.24, 24350.06, 35241.46, 25777.01, 0.00, 0.00, 0.00, 0.00
11, 42353.38, 49360.07, 18586.77, 33665.77, 24570.94, 35713.95, 25844.23, 0.00, 0.00, 0.00, 0.00
12, 42402.09, 49318.72, 18575.04, 33683.39, 24807.35, 36304.91, 25876.48, 0.00, 0.00, 0.00, 0.00
13, 42355.91, 49317.74, 18480.27, 33547.04, 24396.88, 35581.45, 25761.14, 0.00, 0.00, 0.00, 0.00
14, 42311.74, 49354.80, 18535.61, 33568.16, 24308.53, 35185.91, 25756.07, 0.00, 0.00, 0.00, 0.00
15, 42337.76, 49357.43, 18582.64, 33647.29, 24532.40, 35616.86, 25836.76, 0.00, 0.00, 0.00, 0.00
16, 42396.59, 49329.79, 18592.02, 33702.99, 24809.23, 36282.67, 25899.10, 0.00, 0.15, 0.96, 0.23
17, 42381.12, 49323.28, 18502.79, 33575.18, 24495.81, 35795.33, 25801.31, 0.00, 0.00, 0.00, 0.00
18, 42331.43, 49366.44, 18534.47, 33574.33, 24287.45, 35182.49, 25768.72, 0.00, 0.00, 0.00, 0.00
19, 42344.46, 49368.32, 18583.22, 33644.20, 24489.55, 35530.67, 25825.54, 0.00, 0.00, 0.00, 0.00
20, 42379.11, 49330.12, 18591.40, 33695.21, 24766.71, 36179.27, 25877.71, 0.00, 0.00, 0.00, 0.00
21, 42380.61, 49308.33, 18506.08, 33591.12, 24587.12, 35969.12, 25812.93, 0.00, 0.00, 0.00, 0.00
22, 42318.64, 49349.43, 18510.69, 33554.44, 24264.92, 35177.58, 25753.23, 0.00, 0.00, 0.00, 0.00
23, 42330.27, 49361.10, 18573.14, 33627.26, 24449.97, 35447.54, 25820.00, 0.00, 0.00, 0.00, 0.00
24, 42372.04, 49338.77, 18598.64, 33695.86, 24717.65, 36067.49, 25885.55, 0.00, 0.00, 0.00, 0.00
25, 42399.34, 49312.71, 18534.18, 33631.73, 24678.31, 36144.76, 25848.81, 0.00, 0.00, 0.00, 0.00
26, 42334.79, 49348.54, 18508.56, 33551.26, 24270.66, 35241.50, 25760.27, 0.00, 0.15, 0.96, 0.23
27, 42329.64, 49361.39, 18571.62, 33618.72, 24419.30, 35380.51, 25814.52, 0.00, 0.00, 0.00, 0.00
28, 42366.37, 49347.80, 18596.74, 33686.22, 24664.57, 35939.70, 25872.08, 0.00, 0.00, 0.00, 0.00
29, 42403.07, 49306.61, 18547.63, 33649.37, 24745.01, 36260.03, 25853.12, 0.00, 0.00, 0.00, 0.00
30, 42350.61, 49344.00, 18504.92, 33549.01, 24297.82, 35339.67, 25756.38, 0.00, 0.00, 0.00, 0.00
31, 42327.77, 49359.80, 18570.19, 33609.04, 24386.40, 35315.29, 25804.60, 0.00, 0.00, 0.00, 0.00
32, 42351.37, 49344.34, 18594.01, 33699.10, 24605.52, 35822.45, 25859.60, 0.00, 0.00, 0.00, 0.00
33, 42403.92, 49311.05, 18571.21, 33692.04, 24797.49, 36339.09, 25885.62, 0.00, 0.00, 0.00, 0.00
34, 42346.03, 49320.84, 18494.64, 33535.98, 24354.95, 35490.05, 25779.05, 0.00, 0.00, 0.00, 0.00
35, 42311.98, 49351.87, 18550.56, 33582.67, 24344.83, 35242.24, 25784.99, 0.00, 0.00, 0.00, 0.00
36, 42338.25, 49345.81, 18588.96, 33647.18, 24558.82, 35695.02, 25844.38, 0.00, 0.15, 0.96, 0.23
37, 42404.77, 49317.56, 18585.21, 33684.21, 24806.70, 36315.95, 25879.25, 0.00, 0.00, 0.00, 0.00
38, 42388.83, 49339.38, 18497.21, 33566.04, 24429.29, 35661.78, 25780.59, 0.00, 0.00, 0.00, 0.00
39, 42333.67, 49365.14, 18542.27, 33575.54, 24309.15, 35197.58, 25767.65, 0.00, 0.00, 0.00, 0.00
40, 42348.53, 49357.70, 18585.83, 33639.91, 24526.08, 35604.07, 25841.43, 0.00, 0.00, 0.00, 0.00
41, 42400.61, 49326.03, 18592.36, 33682.96, 24801.70, 36256.18, 25887.52, 0.00, 0.00, 0.00, 0.00
42, 42409.37, 49332.27, 18509.66, 33565.21, 24517.92, 35827.97, 25786.56, 0.00, 0.00, 0.00, 0.00
43, 42361.98, 49382.80, 18539.97, 33565.52, 24289.37, 35178.76, 25763.49, 0.00, 0.00, 0.00, 0.00
44, 42386.75, 49402.56, 18592.92, 33653.75, 24493.96, 35528.19, 25840.09, 0.00, 0.00, 0.00, 0.00
45, 42441.74, 49388.64, 18612.03, 33724.49, 24767.86, 36182.91, 25899.37, 0.00, 0.00, 0.00, 0.00
46, 42451.19, 49359.82, 18535.50, 33619.19, 24618.43, 36045.02, 25833.65, 0.00, 0.15, 0.96, 0.23
47, 42381.79, 49392.61, 18525.19, 33562.93, 24267.78, 35211.68, 25763.89, 0.00, 0.00, 0.00, 0.00
48, 42370.90, 49386.47, 18576.15, 33623.64, 24445.28, 35431.87, 25811.73, 0.00, 0.00, 0.00, 0.00
49, 42413.77, 49368.14, 18601.37, 33692.64, 24701.65, 36043.59, 25871.65, 0.00, 0.00, 0.00, 0.00
50, 42469.16, 49366.46, 18555.54, 33661.46, 24704.85, 36207.12, 25852.32, 0.00, 0.00, 0.00, 0.00
51, 42403.36, 49402.27, 18526.71, 33582.73, 24290.94, 35289.98, 25769.01, 0.00, 0.00, 0.00, 0.00
52, 42389.19, 49414.72, 18584.74, 33644.05, 24417.56, 35381.78, 25812.96, 0.00, 0.00, 0.00, 0.00
53, 42428.62, 49407.16, 18615.76, 33717.02, 24655.87, 35938.65, 25878.56, 0.00, 0.00, 0.00, 0.00
54, 42494.09, 49393.89, 18584.47, 33704.51, 24771.81, 36318.14, 25874.58, 0.00, 0.00, 0.00, 0.00
55, 42434.74, 49420.31, 18520.74, 33583.74, 24311.90, 35390.03, 25759.07, 0.00, 0.00, 0.00, 0.00
56, 42390.82, 49418.54, 18575.01, 33615.30, 24370.98, 35290.05, 25786.78, 0.00, 0.15, 0.95, 0.23
57, 42402.04, 49390.18, 18595.71, 33667.85, 24586.70, 35777.63, 25849.75, 0.00, 0.00, 0.00, 0.00
58, 42472.29, 49371.92, 18587.78, 33693.33, 24793.98, 36331.80, 25876.03, 0.00, 0.00, 0.00, 0.00
59, 42434.81, 49391.21, 18512.47, 33567.00, 24366.48, 35527.00, 25773.33, 0.00, 0.00, 0.00, 0.00
60, 42380.34, 49399.84, 18562.03, 33589.24, 24332.55, 35226.19, 25779.05, 0.00, 0.00, 0.00, 0.00
61, 42385.05, 49375.29, 18588.13, 33639.66, 24540.67, 35657.71, 25830.46, 0.00, 0.00, 0.00, 0.00
62, 42448.44, 49353.34, 18595.04, 33687.43, 24803.06, 36298.65, 25876.57, 0.00, 0.00, 0.00, 0.00
63, 42431.37, 49359.80, 18505.97, 33562.51, 24445.03, 35697.07, 25776.79, 0.00, 0.00, 0.00, 0.00
64, 42377.68, 49394.00, 18542.31, 33569.37, 24295.43, 35183.90, 25758.66, 0.00, 0.00, 0.00, 0.00
65, 42404.07, 49407.81, 18590.12, 33654.06, 24510.97, 35580.04, 25829.21, 0.00, 0.16, 0.96, 0.23
66, 42459.13, 49383.79, 18603.18, 33710.92, 24790.54, 36239.17, 25882.02, 0.00, 0.00, 0.00, 0.00
67, 42453.92, 49370.09, 18519.07, 33593.35, 24540.29, 35892.54, 25801.38, 0.00, 0.00, 0.00, 0.00
68, 42383.18, 49396.64, 18527.54, 33554.39, 24260.25, 35168.61, 25742.06, 0.00, 0.00, 0.00, 0.00
69, 42394.80, 49406.25, 18585.38, 33641.97, 24464.74, 35493.61, 25816.24, 0.00, 0.00, 0.00, 0.00
70, 42436.60, 49385.13, 18605.41, 33711.44, 24741.75, 36139.89, 25880.79, 0.00, 0.00, 0.00, 0.00
71, 42460.33, 49365.64, 18531.23, 33618.57, 24626.95, 36071.16, 25818.52, 0.00, 0.00, 0.00, 0.00
72, 42397.05, 49406.50, 18522.62, 33564.18, 24260.74, 35211.11, 25747.22, 0.00, 0.00, 0.00, 0.00
73, 42392.41, 49409.82, 18584.33, 33628.51, 24429.41, 35405.07, 25800.84, 0.00, 0.00, 0.00, 0.00
74, 42432.50, 49393.35, 18610.11, 33703.77, 24685.53, 35998.11, 25870.82, 0.00, 0.00, 0.00, 0.00
75, 42477.88, 49377.66, 18558.41, 33663.96, 24713.36, 36210.43, 25850.44, 0.00, 0.15, 0.96, 0.23
76, 42414.02, 49411.91, 18518.31, 33568.27, 24275.47, 35284.55, 25748.67, 0.00, 0.00, 0.00, 0.00
77, 42400.65, 49423.15, 18583.49, 33631.57, 24396.86, 35345.01, 25795.99, 0.00, 0.00, 0.00, 0.00
78, 42422.38, 49397.64, 18605.44, 33689.84, 24633.16, 35873.48, 25863.78, 0.00, 0.00, 0.00, 0.00
79, 42469.90, 49364.96, 18572.09, 33672.48, 24771.68, 36297.80, 25868.41, 0.00, 0.00, 0.00, 0.00
80, 42425.22, 49398.65, 18514.49, 33567.49, 24330.46, 35419.07, 25766.55, 0.00, 0.00, 0.00, 0.00
81, 42401.39, 49424.69, 18578.90, 33623.91, 24370.46, 35289.07, 25796.88, 0.00, 0.00, 0.00, 0.00
82, 42402.09, 49389.06, 18595.20, 33666.13, 24575.12, 35752.87, 25849.12, 0.00, 0.00, 0.00, 0.00
83, 42462.05, 49360.54, 18589.05, 33688.37, 24801.94, 36333.07, 25881.06, 0.00, 0.00, 0.00, 0.00
84, 42430.83, 49379.11, 18509.32, 33567.27, 24384.95, 35581.79, 25772.97, 0.00, 0.00, 0.00, 0.00
85, 42392.74, 49414.30, 18566.05, 33606.16, 24325.16, 35240.95, 25789.67, 0.00, 0.16, 0.95, 0.24
86, 42411.05, 49407.03, 18602.08, 33674.49, 24535.69, 35666.19, 25854.31, 0.00, 0.00, 0.00, 0.00
87, 42464.49, 49377.82, 18600.50, 33723.42, 24795.10, 36309.31, 25893.09, 0.00, 0.00, 0.00, 0.00
88, 42450.30, 49377.35, 18514.24, 33582.06, 24462.73, 35763.93, 25795.72, 0.00, 0.00, 0.00, 0.00
89, 42387.38, 49401.38, 18543.77, 33580.48, 24283.27, 35195.39, 25770.46, 0.00, 0.00, 0.00, 0.00
90, 42399.38, 49399.84, 18588.47, 33675.38, 24492.57, 35561.94, 25832.63, 0.00, 0.00, 0.00, 0.00
91, 42453.14, 49379.00, 18611.31, 33719.71, 24776.04, 36225.11, 25889.49, 0.00, 0.00, 0.00, 0.00
92, 42459.80, 49370.69, 18533.69, 33606.38, 24571.29, 35965.63, 25824.62, 0.00, 0.00, 0.00, 0.00
93, 42387.15, 49396.19, 18537.93, 33568.50, 24273.90, 35199.84, 25766.96, 0.00, 0.00, 0.00, 0.00
94, 42388.96, 49393.71, 18591.38, 33637.09, 24463.63, 35479.44, 25827.22, 0.00, 0.00, 0.00, 0.00
95, 42439.99, 49379.43, 18617.04, 33709.80, 24736.88, 36112.89, 25898.16, 0.00, 0.15, 0.96, 0.24
96, 42474.15, 49364.95, 18553.71, 33640.74, 24673.22, 36137.88, 25860.72, 0.00, 0.00, 0.00, 0.00
97, 42405.55, 49400.50, 18533.37, 33575.56, 24284.79, 35250.53, 25773.39, 0.00, 0.00, 0.00, 0.00
98, 42398.24, 49405.09, 18589.19, 33644.89, 24438.28, 35411.29, 25820.94, 0.00, 0.00, 0.00, 0.00
99, 42426.29, 49379.11, 18609.41, 33703.77, 24687.75, 35981.90, 25885.67, 0.00, 0.00, 0.00, 0.00
100, 42472.94, 49353.39, 18564.87, 33657.77, 24751.11, 36253.39, 25871.25, 0.00, 0.00, 0.00, 0.00
101, 42412.07, 49379.27, 18517.73, 33555.15, 24304.84, 35332.38, 25770.44, 0.00, 0.00, 0.00, 0.00
102, 42398.78, 49406.16, 18585.52, 33629.36, 24408.64, 35347.85, 25813.76, 0.00, 0.00, 0.00, 0.00
103, 42427.10, 49390.29, 18611.04, 33691.99, 24631.91, 35859.77, 25877.04, 0.00, 0.00, 0.00, 0.00
104, 42484.36, 49364.36, 18589.32, 33694.23, 24800.80, 36331.46, 25896.53, 0.00, 0.15, 0.96, 0.24
105, 42432.71, 49385.15, 18515.67, 33573.17, 24355.35, 35467.88, 25786.40, 0.00, 0.00, 0.00, 0.00
106, 42401.75, 49406.16, 18577.83, 33617.02, 24372.14, 35270.07, 25806.05, 0.00, 0.00, 0.00, 0.00
107, 42418.58, 49387.09, 18605.28, 33672.66, 24580.28, 35725.46, 25860.28, 0.00, 0.00, 0.00, 0.00
108, 42473.25, 49355.02, 18596.72, 33699.19, 24811.51, 36322.88, 25892.44, 0.00, 0.00, 0.00, 0.00
109, 42439.32, 49364.30, 18515.36, 33570.22, 24419.55, 35617.82, 25795.21, 0.00, 0.00, 0.00, 0.00
110, 42396.30, 49401.11, 18564.78, 33603.23, 24332.15, 35227.20, 25797.44, 0.00, 0.00, 0.00, 0.00
111, 42408.34, 49387.88, 18597.77, 33665.14, 24531.31, 35635.45, 25855.60, 0.00, 0.00, 0.00, 0.00
112, 42463.53, 49359.31, 18606.22, 33716.80, 24805.65, 36291.03, 25907.97, 0.00, 0.00, 0.00, 0.00
113, 42458.57, 49362.80, 18523.87, 33602.25, 24510.50, 35817.62, 25823.04, 0.00, 0.00, 0.00, 0.00
114, 42393.48, 49390.78, 18546.09, 33585.75, 24298.16, 35201.83, 25794.49, 0.00, 0.15, 0.96, 0.24
115, 42398.71, 49390.67, 18590.79, 33647.73, 24497.69, 35543.36, 25857.86, 0.00, 0.00, 0.00, 0.00
116, 42443.73, 49363.91, 18607.11, 33715.32, 24774.11, 36193.69, 25913.79, 0.00, 0.00, 0.00, 0.00
117, 42461.52, 49352.49, 18533.87, 33615.05, 24607.32, 36004.03, 25852.85, 0.00, 0.00, 0.00, 0.00
118, 42396.72, 49389.11, 18533.48, 33567.38, 24284.77, 35214.01, 25791.28, 0.00, 0.00, 0.00, 0.00
119, 42404.48, 49401.54, 18594.44, 33645.21, 24467.76, 35470.05, 25852.68, 0.00, 0.00, 0.00, 0.00
120, 42439.10, 49374.98, 18610.91, 33706.43, 24724.27, 36073.57, 25910.59, 0.00, 0.00, 0.00, 0.00
121, 42470.64, 49350.06, 18546.11, 33638.50, 24683.59, 36158.55, 25867.76, 0.00, 0.00, 0.00, 0.00
122, 42407.56, 49390.38, 18522.35, 33570.00, 24282.42, 35269.87, 25785.53, 0.00, 0.00, 0.00, 0.00
123, 42396.18, 49398.85, 18583.08, 33638.64, 24426.41, 35398.73, 25835.29, 0.00, 0.00, 0.00, 0.00
124, 42425.15, 49379.34, 18605.97, 33706.27, 24665.30, 35953.29, 25895.77, 0.00, 0.14, 0.95, 0.24
125, 42473.72, 49352.38, 18567.66, 33678.87, 24755.34, 36282.20, 25889.49, 0.00, 0.00, 0.00, 0.00
126, 42412.34, 49380.95, 18513.14, 33575.70, 24305.06, 35365.51, 25788.03, 0.00, 0.00, 0.00, 0.00
127, 42396.00, 49402.47, 18578.01, 33637.90, 24388.75, 35329.21, 25828.47, 0.00, 0.00, 0.00, 0.00
128, 42422.54, 49387.09, 18605.41, 33700.39, 24611.21, 35827.97, 25887.70, 0.00, 0.00, 0.00, 0.00
129, 42475.89, 49356.88, 18586.91, 33706.54, 24799.84, 36336.47, 25906.47, 0.00, 0.00, 0.00, 0.00
130, 42439.86, 49386.27, 18520.07, 33596.86, 24369.95, 35516.88, 25806.23, 0.00, 0.00, 0.00, 0.00
131, 42400.12, 49406.76, 18578.61, 33630.55, 24358.01, 35271.01, 25818.30, 0.00, 0.00, 0.00, 0.00
132, 42411.83, 49390.45, 18605.72, 33687.74, 24567.72, 35714.58, 25876.59, 0.00, 0.00, 0.00, 0.00
133, 42465.45, 49355.69, 18599.69, 33715.73, 24808.63, 36330.26, 25911.28, 0.00, 0.00, 0.00, 0.00
134, 42438.77, 49361.99, 18517.39, 33582.13, 24435.91, 35673.16, 25809.65, 0.00, 0.15, 0.95, 0.24
135, 42396.70, 49403.14, 18567.68, 33611.46, 24318.81, 35225.75, 25810.01, 0.00, 0.00, 0.00, 0.00
136, 42411.16, 49397.42, 18608.25, 33676.88, 24522.41, 35613.52, 25868.68, 0.00, 0.00, 0.00, 0.00
137, 42462.25, 49365.91, 18615.94, 33722.61, 24797.16, 36266.40, 25919.98, 0.00, 0.00, 0.00, 0.00
138, 42458.43, 49359.64, 18532.95, 33607.79, 24530.88, 35869.90, 25834.57, 0.00, 0.00, 0.00, 0.00
139, 42397.41, 49394.07, 18554.67, 33592.79, 24290.45, 35210.88, 25795.19, 0.00, 0.00, 0.00, 0.00
140, 42398.42, 49387.30, 18600.79, 33657.55, 24482.60, 35524.48, 25853.72, 0.00, 0.00, 0.00, 0.00
141, 42446.54, 49367.56, 18621.71, 33724.94, 24753.26, 36162.73, 25906.25, 0.00, 0.00, 0.00, 0.00
142, 42471.87, 49361.77, 18551.28, 33643.91, 24622.03, 36053.34, 25847.98, 0.00, 0.00, 0.00, 0.00
143, 42407.49, 49402.23, 18545.82, 33592.05, 24281.75, 35228.27, 25785.96, 0.00, 0.00, 0.00, 0.00
144, 42405.68, 49406.88, 18601.37, 33661.64, 24458.19, 35452.17, 25849.30, 0.00, 0.15, 0.95, 0.24
145, 42436.71, 49380.07, 18617.01, 33721.14, 24707.42, 36043.46, 25907.32, 0.00, 0.00, 0.00, 0.00
146, 42474.53, 49354.24, 18562.21, 33661.23, 24705.29, 36192.86, 25875.32, 0.00, 0.00, 0.00, 0.00
147, 42411.18, 49391.39, 18534.69, 33577.08, 24287.65, 35278.96, 25787.97, 0.00, 0.00, 0.00, 0.00
148, 42395.89, 49401.45, 18596.05, 33644.22, 24422.25, 35374.85, 25842.37, 0.00, 0.00, 0.00, 0.00
149, 42415.63, 49373.46, 18609.66, 33698.67, 24649.14, 35909.66, 25897.98, 0.00, 0.00, 0.00, 0.00
150, 42465.39, 49345.57, 18579.80, 33673.59, 24766.27, 36283.90, 25893.67, 0.00, 0.00, 0.00, 0.00
151, 42408.05, 49373.86, 18518.80, 33565.79, 24316.51, 35386.16, 25788.99, 0.00, 0.00, 0.00, 0.00
152, 42377.59, 49390.16, 18576.33, 33625.88, 24378.40, 35305.00, 25824.56, 0.00, 0.00, 0.00, 0.00
153, 42395.87, 49375.02, 18603.91, 33683.70, 24591.90, 35781.59, 25879.36, 0.00, 0.15, 0.95, 0.24
154, 42463.35, 49358.35, 18598.08, 33704.57, 24802.39, 36331.73, 25906.19, 0.00, 0.00, 0.00, 0.00
155, 42424.84, 49375.79, 18520.61, 33578.53, 24379.34, 35543.50, 25800.84, 0.00, 0.00, 0.00, 0.00
156, 42375.60, 49391.09, 18568.51, 33604.13, 24336.15, 35236.29, 25804.95, 0.00, 0.00, 0.00, 0.00
157, 42395.34, 49384.93, 18603.22, 33667.05, 24543.73, 35667.23, 25860.83, 0.00, 0.00, 0.00, 0.00
158, 42447.05, 49351.91, 18601.41, 33704.71, 24798.30, 36301.55, 25902.50, 0.00, 0.00, 0.00, 0.00
159, 42426.34, 49355.15, 18516.77, 33581.02, 24453.75, 35706.71, 25810.77, 0.00, 0.00, 0.00, 0.00
160, 42377.21, 49391.23, 18553.15, 33588.88, 24297.22, 35184.57, 25786.16, 0.00, 0.00, 0.00, 0.00
161, 42395.40, 49394.65, 18591.69, 33664.81, 24497.62, 35568.06, 25850.57, 0.00, 0.00, 0.00, 0.00
162, 42441.27, 49360.23, 18603.80, 33711.50, 24777.67, 36219.46, 25911.44, 0.00, 0.00, 0.00, 0.00
163, 42443.41, 49353.57, 18525.97, 33605.09, 24545.57, 35901.28, 25838.75, 0.00, 0.14, 0.96, 0.24
164, 42379.71, 49388.28, 18539.72, 33580.66, 24273.19, 35188.33, 25786.58, 0.00, 0.00, 0.00, 0.00
165, 42386.30, 49389.11, 18593.54, 33653.14, 24466.64, 35489.76, 25848.09, 0.00, 0.00, 0.00, 0.00
166, 42421.35, 49355.02, 18607.92, 33704.26, 24735.00, 36116.02, 25910.43, 0.00, 0.00, 0.00, 0.00
167, 42440.95, 49334.34, 18535.70, 33618.39, 24632.87, 36072.34, 25859.65, 0.00, 0.00, 0.00, 0.00
168, 42374.68, 49370.49, 18523.78, 33560.05, 24261.46, 35217.63, 25779.41, 0.00, 0.00, 0.00, 0.00
169, 42378.73, 49386.40, 18588.92, 33640.13, 24427.13, 35414.53, 25828.38, 0.00, 0.00, 0.00, 0.00
170, 42414.85, 49371.78, 18614.58, 33709.13, 24678.40, 36000.34, 25889.89, 0.00, 0.00, 0.00, 0.00
171, 42456.11, 49349.72, 18563.84, 33663.13, 24711.37, 36218.39, 25878.09, 0.00, 0.00, 0.00, 0.00
172, 42384.79, 49369.61, 18516.10, 33561.12, 24276.86, 35294.12, 25776.21, 0.00, 0.00, 0.00, 0.00
173, 42369.18, 49383.16, 18579.87, 33622.79, 24388.41, 35335.56, 25814.97, 0.00, 0.14, 0.96, 0.24
174, 42396.79, 49366.42, 18605.99, 33685.91, 24618.99, 35859.55, 25872.81, 0.00, 0.00, 0.00, 0.00
175, 42439.39, 49325.49, 18569.56, 33665.59, 24759.67, 36286.45, 25873.82, 0.00, 0.00, 0.00, 0.00
176, 42396.81, 49361.32, 18511.38, 33559.96, 24321.11, 35414.77, 25778.31, 0.00, 0.00, 0.00, 0.00
177, 42365.45, 49382.00, 18570.86, 33606.38, 24355.94, 35271.21, 25803.95, 0.00, 0.00, 0.00, 0.00
178, 42384.67, 49366.46, 18599.06, 33665.26, 24567.12, 35740.77, 25866.53, 0.00, 0.00, 0.00, 0.00
179, 42441.94, 49337.18, 18586.84, 33686.60, 24790.52, 36322.25, 25895.66, 0.00, 0.00, 0.00, 0.00
180, 42413.20, 49357.59, 18510.91, 33562.60, 24384.10, 35583.15, 25786.51, 0.00, 0.00, 0.00, 0.00
181, 42374.39, 49390.92, 18561.40, 33597.78, 24319.17, 35227.49, 25788.91, 0.00, 0.00, 0.00, 0.00
182, 42384.36, 49378.54, 18590.12, 33658.55, 24523.28, 35643.79, 25855.78, 0.00, 0.00, 0.00, 0.00
183, 42433.62, 49346.08, 18594.37, 33699.93, 24786.03, 36288.75, 25900.89, 0.00, 0.14, 0.95, 0.23
184, 42423.70, 49350.77, 18512.81, 33582.06, 24469.97, 35764.87, 25812.33, 0.00, 0.00, 0.00, 0.00
185, 42366.25, 49383.45, 18543.59, 33583.16, 24290.11, 35196.53, 25792.04, 0.00, 0.00, 0.00, 0.00
186, 42372.16, 49377.24, 18586.39, 33648.70, 24490.89, 35557.82, 25858.64, 0.00, 0.00, 0.00, 0.00
187, 42421.06, 49349.32, 18601.57, 33702.65, 24764.97, 36209.13, 25910.43, 0.00, 0.00, 0.00, 0.00
188, 42432.19, 49342.23, 18522.00, 33602.23, 24563.47, 35950.46, 25831.08, 0.00, 0.00, 0.00, 0.00
189, 42374.44, 49386.42, 18531.34, 33575.20, 24268.58, 35198.14, 25778.00, 0.00, 0.00, 0.00, 0.00
190, 42377.34, 49389.29, 18581.70, 33645.23, 24454.53, 35473.60, 25834.84, 0.00, 0.00, 0.00, 0.00
191, 42411.20, 49358.93, 18597.88, 33699.34, 24718.64, 36086.24, 25890.94, 0.00, 0.00, 0.00, 0.00
192, 42437.09, 49337.77, 18532.97, 33618.27, 24653.59, 36108.82, 25850.69, 0.00, 0.00, 0.00, 0.00
193, 42373.72, 49375.89, 18514.46, 33550.41, 24264.58, 35219.24, 25763.51, 0.00, 0.14, 0.96, 0.23
194, 42370.17, 49389.33, 18579.57, 33626.84, 24423.95, 35380.46, 25827.62, 0.00, 0.00, 0.00, 0.00
195, 42398.20, 49365.41, 18600.03, 33687.16, 24667.23, 35944.31, 25892.64, 0.00, 0.00, 0.00, 0.00
196, 42441.02, 49335.91, 18556.93, 33647.36, 24728.34, 36224.46, 25876.01, 0.00, 0.00, 0.00, 0.00
197, 42378.68, 49363.85, 18510.93, 33550.75, 24290.42, 35313.50, 25777.77, 0.00, 0.00, 0.00, 0.00
198, 42356.29, 49373.10, 18573.49, 33607.30, 24386.69, 35310.19, 25810.81, 0.00, 0.00, 0.00, 0.00
199, 42377.88, 49353.41, 18595.87, 33663.31, 24604.22, 35810.96, 25864.01, 0.00, 0.00, 0.00, 0.00
200, 42433.67, 49326.83, 18570.14, 33665.21, 24770.49, 36288.35, 25875.29, 0.00, 0.00, 0.00, 0.00
201, 42390.48, 49351.62, 18503.06, 33547.06, 24330.28, 35435.98, 25768.28, 0.00, 0.00, 0.00, 0.00
202, 42354.05, 49368.95, 18559.61, 33602.09, 24341.21, 35238.66, 25786.20, 0.00, 0.14, 0.95, 0.24
203, 42366.21, 49348.49, 18580.92, 33653.68, 24545.63, 35694.55, 25847.47, 0.00, 0.00, 0.00, 0.00
204, 42428.97, 49328.18, 18583.31, 33678.18, 24787.17, 36303.19, 25890.11, 0.00, 0.00, 0.00, 0.00
205, 42395.69, 49333.83, 18501.30, 33549.50, 24399.14, 35604.65, 25783.21, 0.00, 0.00, 0.00, 0.00
206, 42348.02, 49365.77, 18545.67, 33576.07, 24303.14, 35196.42, 25780.12, 0.00, 0.00, 0.00, 0.00
207, 42358.10, 49353.48, 18582.53, 33641.12, 24511.50, 35603.38, 25844.52, 0.00, 0.00, 0.00, 0.00
208, 42412.86, 49325.43, 18592.76, 33690.83, 24787.10, 36260.05, 25895.90, 0.00, 0.00, 0.00, 0.00
209, 42403.27, 49318.21, 18504.83, 33564.38, 24492.66, 35797.64, 25802.76, 0.00, 0.00, 0.00, 0.00
210, 42344.11, 49348.65, 18528.39, 33550.26, 24275.02, 35170.76, 25764.59, 0.00, 0.00, 0.00, 0.00
211, 42352.71, 49351.15, 18576.94, 33621.43, 24474.09, 35515.04, 25829.88, 0.00, 0.00, 0.00, 0.00
212, 42400.79, 49325.52, 18596.79, 33679.85, 24748.92, 36161.93, 25888.24, 0.00, 0.14, 0.95, 0.24
213, 42412.10, 49309.55, 18519.29, 33582.98, 24584.55, 35979.45, 25829.54, 0.00, 0.00, 0.00, 0.00
214, 42343.34, 49344.74, 18518.51, 33537.34, 24260.09, 35177.69, 25765.66, 0.00, 0.00, 0.00, 0.00
215, 42338.07, 49342.99, 18567.73, 33605.73, 24434.63, 35422.93, 25821.49, 0.00, 0.00, 0.00, 0.00
216, 42370.84, 49315.75, 18583.13, 33663.47, 24688.02, 36026.96, 25877.37, 0.00, 0.00, 0.00, 0.00
217, 42414.04, 49301.42, 18528.77, 33600.88, 24663.34, 36126.65, 25845.72, 0.00, 0.00, 0.00, 0.00
218, 42349.47, 49333.23, 18505.19, 33516.77, 24255.73, 35217.27, 25756.76, 0.00, 0.00, 0.00, 0.00
219, 42336.28, 49340.20, 18568.06, 33583.14, 24400.62, 35339.74, 25807.57, 0.00, 0.00, 0.00, 0.00
220, 42365.59, 49322.16, 18590.73, 33651.06, 24640.92, 35895.43, 25869.08, 0.00, 0.00, 0.00, 0.00
221, 42413.08, 49293.13, 18547.16, 33623.04, 24735.24, 36230.10, 25852.43, 0.00, 0.00, 0.00, 0.00
222, 42354.34, 49319.08, 18493.01, 33517.16, 24290.15, 35310.93, 25752.25, 0.00, 0.14, 0.95, 0.25
223, 42333.60, 49342.84, 18559.64, 33578.69, 24369.12, 35261.42, 25799.68, 0.00, 0.00, 0.00, 0.00
224, 42359.17, 49331.93, 18586.95, 33649.63, 24591.25, 35765.16, 25864.46, 0.00, 0.00, 0.00, 0.00
225, 42416.21, 49298.85, 18565.72, 33653.88, 24778.49, 36283.83, 25879.86, 0.00, 0.00, 0.00, 0.00
226, 42371.89, 49314.12, 18492.65, 33527.68, 24343.98, 35463.86, 25771.72, 0.00, 0.00, 0.00, 0.00
227, 42338.52, 49343.98, 18551.19, 33574.49, 24330.23, 35225.81, 25796.57, 0.00, 0.00, 0.00, 0.00
228, 42359.26, 49339.69, 18581.92, 33643.93, 24541.88, 35674.59, 25862.26, 0.00, 0.00, 0.00, 0.00
229, 42425.06, 49319.70, 18585.27, 33689.62, 24797.27, 36307.26, 25904.08, 0.00, 0.00, 0.00, 0.00
230, 42402.20, 49328.51, 18503.51, 33566.26, 24434.77, 35671.41, 25803.68, 0.00, 0.00, 0.00, 0.00
231, 42351.59, 49363.96, 18545.17, 33580.16, 24303.81, 35192.64, 25786.78, 0.00, 0.00, 0.00, 0.00
232, 42372.78, 49371.38, 18589.01, 33659.00, 24506.18, 35590.44, 25853.72, 0.00, 0.14, 0.95, 0.24
233, 42429.67, 49350.57, 18601.77, 33712.09, 24776.75, 36249.57, 25904.35, 0.00, 0.00, 0.00, 0.00
234, 42430.49, 49343.06, 18517.82, 33595.92, 24511.59, 35859.71, 25818.34, 0.00, 0.00, 0.00, 0.00
235, 42364.22, 49367.98, 18535.23, 33571.71, 24262.64, 35176.13, 25765.50, 0.00, 0.00, 0.00, 0.00
236, 42365.16, 49366.31, 18578.61, 33634.10, 24457.86, 35493.99, 25818.50, 0.00, 0.00, 0.00, 0.00
237, 42408.50, 49342.73, 18595.20, 33692.55, 24725.83, 36133.05, 25879.59, 0.00, 0.00, 0.00, 0.00
238, 42427.90, 49325.54, 18524.59, 33603.79, 24594.99, 36025.04, 25821.76, 0.00, 0.00, 0.00, 0.00
239, 42357.76, 49354.59, 18514.44, 33546.17, 24245.85, 35184.68, 25750.33, 0.00, 0.00, 0.00, 0.00
240, 42355.21, 49361.88, 18572.42, 33618.01, 24425.18, 35410.06, 25818.68, 0.00, 0.00, 0.00, 0.00
241, 42385.81, 49337.68, 18594.68, 33681.04, 24679.21, 35999.81, 25877.33, 0.00, 0.14, 0.95, 0.24
242, 42416.86, 49304.73, 18533.53, 33616.08, 24681.00, 36159.06, 25845.25, 0.00, 0.00, 0.00, 0.00
243, 42354.09, 49336.85, 18497.72, 33528.20, 24260.34, 35246.04, 25755.22, 0.00, 0.00, 0.00, 0.00
244, 42346.25, 49356.79, 18564.82, 33600.84, 24391.23, 35332.03, 25807.77, 0.00, 0.00, 0.00, 0.00
245, 42370.75, 49338.10, 18583.42, 33660.56, 24621.88, 35874.32, 25871.00, 0.00, 0.00, 0.00, 0.00
246, 42423.09, 49313.58, 18550.61, 33647.76, 24749.13, 36275.89, 25876.48, 0.00, 0.00, 0.00, 0.00
247, 42367.42, 49337.94, 18493.07, 33532.38, 24302.74, 35368.82, 25773.79, 0.00, 0.00, 0.00, 0.00
248, 42336.13, 49354.57, 18554.67, 33586.27, 24354.17, 35265.42, 25798.52, 0.00, 0.00, 0.00, 0.00
249, 42355.08, 49337.23, 18576.27, 33645.54, 24566.09, 35748.95, 25855.47, 0.00, 0.00, 0.00, 0.00
250, 42418.96, 49316.95, 18569.34, 33666.60, 24780.44, 36299.93, 25886.09, 0.00, 0.00, 0.00, 0.00
251, 42386.82, 49340.87, 18495.62, 33545.61, 24364.54, 35519.43, 25785.55, 0.00, 0.14, 0.95, 0.24
252, 42344.04, 49368.14, 18550.67, 33580.32, 24321.60, 35209.79, 25796.82, 0.00, 0.00, 0.00, 0.00
253, 42356.82, 49352.14, 18580.65, 33636.36, 24525.41, 35636.12, 25851.83, 0.00, 0.00, 0.00, 0.00
254, 42412.81, 49324.53, 18578.66, 33681.55, 24782.74, 36283.47, 25895.57, 0.00, 0.00, 0.00, 0.00
255, 42392.25, 49324.69, 18492.69, 33553.99, 24437.70, 35703.42, 25792.26, 0.00, 0.00, 0.00, 0.00
0, 42331.48, 49347.53, 18529.10, 33548.31, 24275.42, 35157.93, 25770.91, 0.00, 0.00, 0.00, 0.00
1, 42349.94, 49353.39, 18574.99, 33625.18, 24484.19, 35547.50, 25843.44, 0.00, 0.00, 0.00, 0.00
2, 42408.97, 49337.45, 18589.72, 33692.53, 24768.88, 36214.43, 25911.64, 0.00, 0.00, 0.00, 0.00
3, 42408.28, 49322.57, 18506.26, 33581.48, 24542.93, 35901.21, 25838.32, 0.00, 0.00, 0.00, 0.00
4, 42338.25, 49352.36, 18517.59, 33546.48, 24267.09, 35172.44, 25781.08, 0.00, 0.00, 0.00, 0.00
5, 42342.16, 49352.52, 18567.57, 33617.80, 24461.05, 35470.41, 25845.23, 0.00, 0.14, 0.96, 0.24
6, 42381.54, 49328.31, 18586.44, 33681.80, 24727.73, 36105.18, 25908.00, 0.00, 0.00, 0.00, 0.00
7, 42407.61, 49314.23, 18519.52, 33605.13, 24634.95, 36084.75, 25859.02, 0.00, 0.00, 0.00, 0.00
8, 42344.02, 49350.44, 18503.76, 33538.07, 24258.32, 35216.47, 25777.26, 0.00, 0.00, 0.00, 0.00
9, 42346.74, 49361.79, 18569.92, 33607.72, 24423.71, 35399.95, 25833.61, 0.00, 0.00, 0.00, 0.00
10, 42387.36, 49350.50, 18594.57, 33675.05, 24675.39, 35985.39, 25900.84, 0.00, 0.00, 0.00, 0.00
11, 42435.55, 49332.73, 18544.08, 33628.94, 24711.87, 36215.93, 25876.10, 0.00, 0.00, 0.00, 0.00
12, 42371.26, 49359.85, 18504.65, 33530.39, 24279.40, 35287.43, 25773.01, 0.00, 0.00, 0.00, 0.00
13, 42350.32, 49372.90, 18565.16, 33593.13, 24388.28, 35318.13, 25812.11, 0.00, 0.00, 0.00, 0.00
14, 42376.07, 49353.34, 18587.29, 33654.80, 24614.41, 35834.90, 25872.37, 0.00, 0.00, 0.00, 0.00
15, 42435.86, 49329.70, 18565.07, 33648.74, 24769.15, 36285.80, 25882.85, 0.00, 0.15, 0.96, 0.24
16, 42388.92, 49358.11, 18503.22, 33540.76, 24326.10, 35407.38, 25774.11, 0.00, 0.00, 0.00, 0.00
17, 42363.13, 49380.72, 18563.37, 33591.99, 24359.13, 35258.89, 25804.08, 0.00, 0.00, 0.00, 0.00
18, 42376.67, 49364.03, 18591.02, 33644.76, 24570.71, 35723.96, 25861.57, 0.00, 0.00, 0.00, 0.00
19, 42431.07, 49333.85, 18583.66, 33675.27, 24797.43, 36312.44, 25889.82, 0.00, 0.00, 0.00, 0.00
20, 42389.79, 49338.79, 18495.91, 33548.98, 24387.59, 35577.67, 25779.14, 0.00, 0.00, 0.00, 0.00
21, 42343.21, 49365.35, 18546.05, 33586.29, 24313.42, 35207.77, 25781.26, 0.00, 0.00, 0.00, 0.00
22, 42363.68, 49366.93, 18585.25, 33658.04, 24526.88, 35630.04, 25848.56, 0.00, 0.00, 0.00, 0.00
23, 42427.10, 49344.00, 18593.32, 33690.54, 24796.11, 36278.13, 25897.18, 0.00, 0.00, 0.00, 0.00
24, 42418.67, 49352.23, 18507.78, 33580.77, 24479.27, 35772.89, 25810.01, 0.00, 0.00, 0.00, 0.00
25, 42361.65, 49385.24, 18530.69, 33588.77, 24282.78, 35195.64, 25783.32, 0.00, 0.15, 0.96, 0.24
26, 42371.82, 49378.46, 18577.41, 33665.14, 24488.73, 35559.12, 25851.31, 0.00, 0.00, 0.00, 0.00
27, 42414.71, 49351.38, 18587.93, 33705.29, 24762.31, 36200.57, 25901.09, 0.00, 0.00, 0.00, 0.00
28, 42413.75, 49331.30, 18505.08, 33598.79, 24566.78, 35952.54, 25832.02, 0.00, 0.00, 0.00, 0.00
29, 42354.34, 49357.48, 18519.83, 33555.71, 24263.76, 35183.07, 25771.34, 0.00, 0.00, 0.00, 0.00
30, 42368.07, 49373.73, 18575.15, 33624.64, 24455.00, 35451.72, 25835.24, 0.00, 0.00, 0.00, 0.00
31, 42408.66, 49357.95, 18599.94, 33697.60, 24725.37, 36074.44, 25900.55, 0.00, 0.00, 0.00, 0.00
32, 42439.68, 49334.05, 18531.16, 33628.73, 24666.91, 36111.19, 25859.18, 0.00, 0.00, 0.00, 0.00
33, 42371.71, 49360.68, 18506.53, 33547.42, 24266.91, 35215.98, 25771.09, 0.00, 0.00, 0.00, 0.00
34, 42354.81, 49366.24, 18572.22, 33620.49, 24422.52, 35369.89, 25824.78, 0.00, 0.15, 0.95, 0.24
35, 42382.41, 49344.07, 18591.78, 33700.48, 24663.88, 35930.11, 25883.70, 0.00, 0.00, 0.00, 0.00
36, 42436.77, 49323.04, 18557.38, 33652.76, 24740.27, 36221.94, 25872.66, 0.00, 0.00, 0.00, 0.00
37, 42386.91, 49357.79, 18510.35, 33523.05, 24303.95, 35307.04, 25779.56, 0.00, 0.00, 0.00, 0.00
38, 42363.82, 49379.00, 18565.34, 33594.29, 24393.11, 35302.32, 25818.21, 0.00, 0.00, 0.00, 0.00
39, 42382.04, 49352.89, 18588.67, 33657.10, 24613.76, 35804.77, 25874.98, 0.00, 0.00, 0.00, 0.00
40, 42434.94, 49312.68, 18562.01, 33652.99, 24784.31, 36287.59, 25882.71, 0.00, 0.00, 0.00, 0.00
41, 42382.80, 49332.40, 18492.13, 33535.80, 24344.49, 35439.74, 25771.16, 0.00, 0.00, 0.00, 0.00
42, 42355.08, 49364.63, 18554.50, 33586.31, 24352.20, 35238.29, 25799.75, 0.00, 0.00, 0.00, 0.00
43, 42370.05, 49353.93, 18584.18, 33651.13, 24560.59, 35690.64, 25867.52, 0.00, 0.00, 0.00, 0.00
44, 42426.20, 49325.11, 18580.40, 33681.62, 24803.57, 36300.68, 25901.85, 0.00, 0.14, 0.95, 0.24
45, 42396.92, 49335.21, 18496.02, 33552.52, 24419.48, 35618.15, 25793.71, 0.00, 0.00, 0.00, 0.00
46, 42350.25, 49370.22, 18540.97, 33573.79, 24313.02, 35190.54, 25787.56, 0.00, 0.00, 0.00, 0.00
47, 42368.85, 49361.46, 18576.78, 33639.42, 24516.80, 35593.57, 25852.12, 0.00, 0.00, 0.00, 0.00
48, 42424.59, 49332.40, 18583.53, 33686.83, 24789.31, 36244.49, 25901.13, 0.00, 0.00, 0.00, 0.00
49, 42420.17, 49331.93, 18496.49, 33568.03, 24503.43, 35796.18, 25811.71, 0.00, 0.00, 0.00, 0.00
50, 42360.36, 49367.80, 18519.54, 33554.62, 24281.53, 35155.52, 25771.67, 0.00, 0.00, 0.00, 0.00
51, 42365.92, 49368.09, 18566.16, 33624.91, 24477.42, 35495.42, 25838.53, 0.00, 0.00, 0.00, 0.00
52, 42413.24, 49341.77, 18586.46, 33687.32, 24752.68, 36140.11, 25900.78, 0.00, 0.00, 0.00, 0.00
53, 42427.59, 49326.70, 18511.87, 33588.88, 24597.85, 35972.72, 25837.12, 0.00, 0.00, 0.00, 0.00
54, 42363.80, 49366.13, 18509.86, 33547.08, 24273.95, 35175.68, 25780.61, 0.00, 0.14, 0.95, 0.25
55, 42368.85, 49377.24, 18568.33, 33623.04, 24454.93, 35424.52, 25843.18, 0.00, 0.00, 0.00, 0.00
56, 42409.93, 49357.72, 18591.22, 33689.78, 24711.60, 36025.40, 25902.12, 0.00, 0.00, 0.00, 0.00
57, 42449.22, 49342.37, 18533.98, 33634.10, 24691.84, 36140.80, 25872.34, 0.00, 0.00, 0.00, 0.00
58, 42377.79, 49371.11, 18500.20, 33550.14, 24276.88, 35230.84, 25780.43, 0.00, 0.00, 0.00, 0.00
59, 42366.07, 49384.03, 18561.07, 33620.58, 24414.27, 35337.88, 25826.32, 0.00, 0.00, 0.00, 0.00
60, 42400.88, 49371.00, 18586.95, 33686.78, 24655.54, 35889.61, 25885.87, 0.00, 0.00, 0.00, 0.00
61, 42449.16, 49338.28, 18546.09, 33647.67, 24758.27, 36242.59, 25880.82, 0.00, 0.00, 0.00, 0.00
62, 42386.64, 49355.24, 18490.37, 33536.20, 24306.98, 35325.28, 25771.16, 0.00, 0.00, 0.00, 0.00
63, 42368.47, 49381.13, 18557.00, 33595.23, 24379.49, 35265.24, 25802.54, 0.00, 0.00, 0.00, 0.00
64, 42395.38, 49375.80, 18586.68, 33668.88, 24600.57, 35770.77, 25868.48, 0.00, 0.14, 0.96, 0.24
65, 42454.95, 49347.84, 18570.90, 33677.68, 24796.42, 36296.80, 25891.43, 0.00, 0.00, 0.00, 0.00
66, 42412.23, 49362.57, 18498.93, 33549.43, 24365.99, 35480.75, 25788.57, 0.00, 0.00, 0.00, 0.00
67, 42378.68, 49395.75, 18556.04, 33596.82, 24342.90, 35224.05, 25802.67, 0.00, 0.00, 0.00, 0.00
68, 42396.74, 49387.59, 18585.45, 33660.79, 24549.95, 35665.38, 25859.13, 0.00, 0.00, 0.00, 0.00
69, 42447.13, 49349.23, 18581.07, 33692.66, 24796.82, 36283.90, 25897.40, 0.00, 0.00, 0.00, 0.00
70, 42425.53, 49357.30, 18501.05, 33573.01, 24434.90, 35656.93, 25801.98, 0.00, 0.00, 0.00, 0.00
71, 42373.00, 49393.82, 18545.49, 33584.28, 24301.42, 35177.91, 25797.62, 0.00, 0.00, 0.00, 0.00
72, 42385.86, 49389.73, 18583.31, 33653.37, 24504.78, 35573.83, 25864.95, 0.00, 0.00, 0.00, 0.00
73, 42434.02, 49358.71, 18591.35, 33702.03, 24781.47, 36226.48, 25916.27, 0.00, 0.00, 0.00, 0.00
74, 42435.32, 49354.95, 18513.46, 33597.04, 24532.60, 35855.53, 25838.97, 0.00, 0.14, 0.95, 0.25
75, 42374.59, 49387.54, 18533.62, 33579.11, 24285.97, 35169.48, 25797.60, 0.00, 0.00, 0.00, 0.00
76, 42368.80, 49378.15, 18575.37, 33637.07, 24476.63, 35480.87, 25859.51, 0.00, 0.00, 0.00, 0.00
77, 42418.65, 49362.21, 18596.61, 33709.65, 24749.08, 36121.02, 25917.90, 0.00, 0.00, 0.00, 0.00
78, 42441.29, 49344.56, 18525.75, 33622.48, 24625.63, 36026.68, 25861.84, 0.00, 0.00, 0.00, 0.00
79, 42374.19, 49379.70, 18521.91, 33561.57, 24274.73, 35189.60, 25794.76, 0.00, 0.00, 0.00, 0.00
80, 42369.27, 49388.32, 18577.94, 33632.20, 24445.28, 35408.20, 25851.38, 0.00, 0.00, 0.00, 0.00
81, 42401.73, 49365.52, 18599.00, 33697.36, 24695.57, 35998.27, 25911.59, 0.00, 0.00, 0.00, 0.00
82, 42444.38, 49347.73, 18546.20, 33653.32, 24710.95, 36180.84, 25882.96, 0.00, 0.00, 0.00, 0.00
83, 42381.95, 49383.36, 18509.30, 33577.08, 24290.51, 35271.05, 25790.92, 0.00, 0.14, 0.96, 0.24
84, 42369.54, 49398.85, 18573.61, 33623.82, 24416.46, 35338.87, 25840.72, 0.00, 0.00, 0.00, 0.00
85, 42392.29, 49373.55, 18590.08, 33683.41, 24642.75, 35864.00, 25897.00, 0.00, 0.00, 0.00, 0.00
86, 42444.98, 49350.62, 18559.39, 33676.93, 24776.46, 36273.93, 25903.44, 0.00, 0.00, 0.00, 0.00
87, 42399.02, 49385.17, 18502.28, 33570.75, 24337.25, 35390.12, 25801.13, 0.00, 0.00, 0.00, 0.00
88, 42375.51, 49405.73, 18563.10, 33623.97, 24383.61, 35273.22, 25827.39, 0.00, 0.00, 0.00, 0.00
89, 42397.19, 49391.54, 18593.21, 33684.26, 24596.08, 35747.97, 25885.40, 0.00, 0.00, 0.00, 0.00
90, 42455.37, 49362.55, 18578.88, 33699.10, 24810.59, 36313.87, 25908.33, 0.00, 0.00, 0.00, 0.00
91, 42420.88, 49381.93, 18506.21, 33579.98, 24398.49, 35545.62, 25802.88, 0.00, 0.00, 0.00, 0.00
92, 42380.54, 49413.11, 18556.33, 33614.77, 24346.48, 35228.07, 25815.30, 0.00, 0.00, 0.00, 0.00
93, 42387.94, 49391.95, 18576.87, 33670.02, 24544.14, 35646.43, 25866.73, 0.00, 0.14, 0.96, 0.24
94, 42452.46, 49370.80, 18587.17, 33715.62, 24811.40, 36282.31, 25905.25, 0.00, 0.00, 0.00, 0.00
95, 42436.28, 49370.71, 18503.60, 33594.56, 24479.00, 35728.41, 25819.93, 0.00, 0.00, 0.00, 0.00
96, 42382.53, 49405.07, 18538.76, 33602.74, 24317.45, 35190.65, 25809.07, 0.00, 0.00, 0.00, 0.00
97, 42389.50, 49397.51, 18578.50, 33675.20, 24517.05, 35565.34, 25877.46, 0.00, 0.00, 0.00, 0.00
98, 42442.50, 49373.37, 18594.51, 33745.10, 24792.29, 36224.62, 25931.49, 0.00, 0.00, 0.00, 0.00
99, 42452.31, 49376.34, 18518.82, 33629.85, 24573.33, 35931.43, 25855.78, 0.00, 0.00, 0.00, 0.00
100, 42377.88, 49398.40, 18522.53, 33611.46, 24286.64, 35189.82, 25798.12, 0.00, 0.00, 0.00, 0.00
101, 42385.48, 49398.88, 18572.13, 33672.57, 24480.26, 35484.45, 25862.22, 0.00, 0.00, 0.00, 0.00
102, 42431.77, 49379.56, 18594.44, 33726.37, 24751.90, 36120.44, 25926.77, 0.00, 0.00, 0.00, 0.00
103, 42452.62, 49356.61, 18526.78, 33640.45, 24663.00, 36094.69, 25871.56, 0.00, 0.14, 0.96, 0.24
104, 42387.67, 49396.26, 18513.14, 33561.59, 24290.11, 35216.36, 25789.33, 0.00, 0.00, 0.00, 0.00
105, 42396.16, 49413.56, 18583.13, 33671.32, 24459.13, 35409.05, 25857.68, 0.00, 0.00, 0.00, 0.00
106, 42417.53, 49385.11, 18600.81, 33727.80, 24702.95, 35979.73, 25916.47, 0.00, 0.00, 0.00, 0.00
107, 42454.52, 49359.78, 18550.18, 33705.04, 24749.66, 36235.20, 25901.04, 0.00, 0.00, 0.00, 0.00
108, 42387.64, 49384.39, 18505.63, 33601.29, 24313.65, 35308.29, 25796.75, 0.00, 0.00, 0.00, 0.00
109, 42368.87, 49392.84, 18573.79, 33655.82, 24420.40, 35330.93, 25836.51, 0.00, 0.00, 0.00, 0.00
110, 42401.84, 49383.99, 18598.64, 33727.02, 24644.47, 35853.67, 25896.75, 0.00, 0.00, 0.00, 0.00
111, 42457.09, 49358.86, 18559.97, 33734.88, 24792.24, 36300.86, 25904.26, 0.00, 0.00, 0.00, 0.00
112, 42404.01, 49381.71, 18492.38, 33625.14, 24342.03, 35423.25, 25794.16, 0.00, 0.00, 0.00, 0.00
113, 42375.38, 49405.20, 18558.36, 33689.98, 24370.29, 35263.77, 25820.27, 0.00, 0.14, 0.93, 0.24
114, 42395.13, 49398.32, 18590.26, 33767.07, 24584.82, 35725.46, 25886.22, 0.00, 0.00, 0.00, 0.00
115, 42451.75, 49370.93, 18583.20, 33799.14, 24819.31, 36313.67, 25922.59, 0.00, 0.00, 0.00, 0.00
116, 42410.49, 49373.68, 18499.91, 33679.18, 24416.40, 35584.89, 25814.12, 0.00, 0.00, 0.00, 0.00
117, 42363.86, 49399.16, 18543.30, 33716.27, 24336.36, 35201.61, 25806.56, 0.00, 0.00, 0.00, 0.00
118, 42379.09, 49395.14, 18576.45, 33795.01, 24540.61, 35614.87, 25867.20, 0.00, 0.00, 0.00, 0.00
119, 42428.66, 49360.52, 18578.68, 33850.71, 24805.76, 36264.79, 25916.13, 0.00, 0.00, 0.00, 0.00
120, 42427.79, 49367.04, 18504.32, 33744.98, 24498.94, 35764.00, 25832.98, 0.00, 0.00, 0.00, 0.00
121, 42370.84, 49403.25, 18534.49, 33754.84, 24300.95, 35176.39, 25797.33, 0.00, 0.00, 0.00, 0.00
122, 42375.51, 49392.84, 18574.32, 33831.84, 24495.14, 35528.68, 25851.15, 0.00, 0.15, 0.95, 0.25
123, 42428.32, 49366.33, 18593.28, 33885.76, 24771.28, 36179.85, 25915.77, 0.00, 0.00, 0.00, 0.00
124, 42449.11, 49363.91, 18522.69, 33807.39, 24592.97, 35961.90, 25862.26, 0.00, 0.00, 0.00, 0.00
125, 42375.22, 49390.56, 18520.97, 33775.72, 24282.33, 35181.91, 25801.45, 0.00, 0.00, 0.00, 0.00
126, 42380.00, 49401.00, 18575.51, 33852.34, 24467.16, 35450.45, 25859.92, 0.00, 0.00, 0.00, 0.00
127, 42417.82, 49375.47, 18593.72, 33918.37, 24727.09, 36066.13, 25914.57, 0.00, 0.00, 0.00, 0.00
128, 42447.50, 49356.18, 18531.32, 33860.63, 24673.78, 36116.13, 25871.61, 0.00, 0.00, 0.00, 0.00
129, 42382.73, 49392.55, 18505.32, 33793.29, 24274.57, 35218.12, 25790.49, 0.00, 0.00, 0.00, 0.00
130, 42375.00, 49400.26, 18566.28, 33860.86, 24422.19, 35367.16, 25848.52, 0.00, 0.00, 0.00, 0.00
131, 42409.39, 49381.42, 18593.28, 33924.49, 24661.89, 35936.91, 25916.56, 0.00, 0.00, 0.00, 0.00
132, 42456.94, 49351.93, 18547.72, 33885.85, 24737.59, 36245.21, 25907.88, 0.00, 0.15, 0.95, 0.25
133, 42391.31, 49376.66, 18493.97, 33788.21, 24291.18, 35320.85, 25801.09, 0.00, 0.00, 0.00, 0.00
134, 42366.34, 49392.39, 18555.75, 33849.35, 24378.87, 35300.00, 25835.31, 0.00, 0.00, 0.00, 0.00
135, 42391.38, 49370.24, 18581.29, 33904.42, 24600.02, 35801.75, 25891.01, 0.00, 0.00, 0.00, 0.00
136, 42451.41, 49342.68, 18562.14, 33906.93, 24778.88, 36301.51, 25907.82, 0.00, 0.00, 0.00, 0.00
137, 42397.77, 49359.56, 18485.74, 33794.79, 24339.78, 35461.93, 25799.81, 0.00, 0.00, 0.00, 0.00
138, 42358.79, 49382.02, 18540.01, 33836.16, 24336.98, 35240.90, 25813.02, 0.00, 0.00, 0.00, 0.00
139, 42373.79, 49369.21, 18567.84, 33889.78, 24549.17, 35688.71, 25875.34, 0.00, 0.00, 0.00, 0.00
140, 42441.40, 49355.71, 18575.82, 33931.58, 24801.92, 36305.85, 25918.37, 0.00, 0.00, 0.00, 0.00
141, 42417.53, 49367.65, 18497.50, 33814.03, 24422.37, 35632.28, 25816.55, 0.00, 0.00, 0.00, 0.00
142, 42369.27, 49393.60, 18539.92, 33829.79, 24310.67, 35190.56, 25803.95, 0.00, 0.15, 0.94, 0.25
143, 42381.95, 49386.94, 18576.31, 33894.27, 24517.07, 35593.63, 25876.55, 0.00, 0.00, 0.00, 0.00
144, 42433.00, 49359.71, 18584.31, 33946.84, 24793.16, 36250.97, 25928.89, 0.00, 0.00, 0.00, 0.00
145, 42427.57, 49358.57, 18502.84, 33838.28, 24514.81, 35818.63, 25845.84, 0.00, 0.00, 0.00, 0.00
146, 42363.86, 49389.51, 18525.51, 33830.77, 24288.43, 35172.55, 25806.29, 0.00, 0.00, 0.00, 0.00
147, 42367.71, 49381.95, 18569.83, 33890.14, 24481.96, 35505.77, 25868.43, 0.00, 0.00, 0.00, 0.00
148, 42410.06, 49356.58, 18584.63, 33958.63, 24754.94, 36157.03, 25926.19, 0.00, 0.00, 0.00, 0.00
149, 42436.53, 49349.99, 18513.61, 33859.83, 24604.08, 36004.77, 25864.79, 0.00, 0.00, 0.00, 0.00
150, 42374.46, 49389.33, 18511.74, 33810.72, 24272.29, 35191.34, 25807.01, 0.00, 0.00, 0.00, 0.00
151, 42379.51, 49403.19, 18568.85, 33894.07, 24457.48, 35442.54, 25877.98, 0.00, 0.00, 0.00, 0.00
152, 42419.16, 49382.85, 18592.56, 33956.43, 24712.78, 36049.59, 25934.13, 0.00, 0.15, 0.94, 0.25
153, 42458.52, 49362.20, 18534.80, 33902.32, 24696.22, 36180.70, 25900.62, 0.00, 0.00, 0.00, 0.00
154, 42401.55, 49407.59, 18509.95, 33837.84, 24290.06, 35275.39, 25820.06, 0.00, 0.00, 0.00, 0.00
155, 42394.84, 49423.82, 18579.11, 33914.82, 24427.53, 35385.18, 25871.67, 0.00, 0.00, 0.00, 0.00
156, 42417.95, 49397.60, 18602.60, 33964.93, 24657.50, 35926.72, 25921.16, 0.00, 0.00, 0.00, 0.00
157, 42461.96, 49363.69, 18552.71, 33925.61, 24751.38, 36274.93, 25900.73, 0.00, 0.00, 0.00, 0.00
158, 42397.55, 49385.73, 18490.12, 33815.33, 24296.55, 35349.30, 25790.00, 0.00, 0.00, 0.00, 0.00
159, 42368.45, 49402.72, 18551.86, 33871.65, 24371.69, 35281.91, 25830.21, 0.00, 0.00, 0.00, 0.00
160, 42391.45, 49386.07, 18581.85, 33930.08, 24593.60, 35774.61, 25900.57, 0.00, 0.00, 0.00, 0.00
161, 42443.57, 49351.62, 18560.42, 33935.80, 24788.78, 36306.47, 25915.46, 0.00, 0.00, 0.00, 0.00
162, 42403.25, 49368.70, 18484.98, 33814.41, 24360.00, 35494.90, 25805.51, 0.00, 0.14, 0.95, 0.25
163, 42369.36, 49396.13, 18542.74, 33847.78, 24335.88, 35219.55, 25823.15, 0.00, 0.00, 0.00, 0.00
164, 42387.80, 49391.21, 18576.78, 33912.94, 24547.69, 35669.32, 25888.15, 0.00, 0.00, 0.00, 0.00
165, 42444.08, 49362.75, 18574.81, 33950.89, 24803.57, 36308.60, 25924.63, 0.00, 0.00, 0.00, 0.00
166, 42426.27, 49370.91, 18494.64, 33827.15, 24451.22, 35687.91, 25835.31, 0.00, 0.00, 0.00, 0.00
167, 42367.62, 49398.00, 18528.30, 33835.15, 24306.83, 35185.46, 25817.78, 0.00, 0.00, 0.00, 0.00
168, 42380.14, 49389.82, 18569.11, 33898.61, 24514.41, 35571.21, 25887.12, 0.00, 0.00, 0.00, 0.00
169, 42432.64, 49365.75, 18584.11, 33950.13, 24793.58, 36233.34, 25946.28, 0.00, 0.00, 0.00, 0.00
170, 42430.32, 49358.86, 18500.38, 33844.86, 24544.47, 35872.71, 25864.07, 0.00, 0.00, 0.00, 0.00
171, 42363.33, 49390.56, 18510.89, 33819.84, 24282.17, 35167.43, 25809.13, 0.00, 0.14, 0.94, 0.24
172, 42367.13, 49390.67, 18563.21, 33889.33, 24477.69, 35483.64, 25872.81, 0.00, 0.00, 0.00, 0.00
173, 42411.16, 49367.31, 18585.72, 33950.91, 24749.39, 36123.57, 25932.63, 0.00, 0.00, 0.00, 0.00
174, 42429.73, 49348.61, 18511.29, 33869.02, 24627.67, 36044.58, 25877.15, 0.00, 0.00, 0.00, 0.00
175, 42365.25, 49385.24, 18499.40, 33817.70, 24268.18, 35194.47, 25803.28, 0.00, 0.00, 0.00, 0.00
176, 42369.77, 49395.10, 18561.98, 33882.25, 24444.16, 35401.52, 25863.87, 0.00, 0.00, 0.00, 0.00
177, 42402.11, 49373.66, 18580.18, 33937.86, 24692.20, 35991.74, 25901.98, 0.00, 0.00, 0.00, 0.00
178, 42442.07, 49352.61, 18524.57, 33884.50, 24701.16, 36184.32, 25864.34, 0.00, 0.00, 0.00, 0.00
179, 42382.57, 49389.48, 18496.34, 33804.71, 24281.46, 35260.64, 25804.73, 0.00, 0.00, 0.00, 0.00
180, 42369.54, 49405.04, 18562.54, 33871.56, 24410.09, 35333.14, 25860.10, 0.00, 0.00, 0.00, 0.00
181, 42394.69, 49386.45, 18583.06, 33928.94, 24638.30, 35866.66, 25914.05, 0.00, 0.14, 0.94, 0.24
182, 42448.51, 49360.88, 18549.73, 33914.32, 24766.65, 36285.75, 25914.88, 0.00, 0.00, 0.00, 0.00
183, 42392.09, 49382.31, 18486.52, 33803.41, 24318.70, 35385.89, 25806.90, 0.00, 0.00, 0.00, 0.00
184, 42361.98, 49399.66, 18547.99, 33853.48, 24367.94, 35263.65, 25839.71, 0.00, 0.00, 0.00, 0.00
185, 42378.57, 49382.22, 18571.82, 33912.09, 24580.84, 35747.05, 25903.50, 0.00, 0.00, 0.00, 0.00
186, 42439.46, 49356.94, 18560.64, 33923.60, 24799.77, 36314.03, 25929.05, 0.00, 0.00, 0.00, 0.00
187, 42399.98, 49369.64, 18480.47, 33797.78, 24382.76, 35539.88, 25820.96, 0.00, 0.00, 0.00, 0.00
188, 42359.62, 49398.02, 18532.14, 33851.94, 24326.90, 35209.50, 25823.28, 0.00, 0.00, 0.00, 0.00
189, 42370.32, 49385.17, 18560.53, 33895.39, 24532.27, 35630.89, 25878.33, 0.00, 0.00, 0.00, 0.00
190, 42436.53, 49367.71, 18572.89, 33944.07, 24803.26, 36281.04, 25929.23, 0.00, 0.00, 0.00, 0.00
191, 42421.26, 49371.29, 18489.90, 33802.68, 24473.13, 35726.11, 25832.71, 0.00, 0.14, 0.95, 0.23
192, 42363.10, 49398.11, 18529.55, 33809.27, 24306.20, 35171.77, 25808.80, 0.00, 0.00, 0.00, 0.00
193, 42372.89, 49391.86, 18570.43, 33873.24, 24507.97, 35540.79, 25868.77, 0.00, 0.00, 0.00, 0.00
194, 42422.36, 49367.07, 18581.45, 33925.16, 24785.78, 36205.96, 25922.19, 0.00, 0.00, 0.00, 0.00
195, 42435.72, 49365.66, 18506.86, 33830.37, 24575.38, 35920.19, 25852.09, 0.00, 0.00, 0.00, 0.00
196, 42371.22, 49402.00, 18515.34, 33802.25, 24286.49, 35170.67, 25798.54, 0.00, 0.00, 0.00, 0.00
197, 42371.73, 49401.11, 18562.74, 33857.48, 24475.52, 35457.42, 25856.86, 0.00, 0.00, 0.00, 0.00
198, 42417.55, 49378.27, 18583.42, 33916.18, 24742.15, 36093.17, 25918.88, 0.00, 0.00, 0.00, 0.00
199, 42449.49, 49367.25, 18516.72, 33845.46, 24660.72, 36087.47, 25872.39, 0.00, 0.00, 0.00, 0.00
200, 42378.91, 49401.18, 18501.83, 33783.92, 24280.30, 35201.83, 25793.60, 0.00, 0.00, 0.00, 0.00
201, 42375.48, 49408.73, 18567.91, 33856.48, 24440.63, 35390.10, 25854.55, 0.00, 0.14, 0.96, 0.24
202, 42410.06, 49390.49, 18583.08, 33915.93, 24681.89, 35968.36, 25909.09, 0.00, 0.00, 0.00, 0.00
203, 42457.72, 49369.66, 18533.39, 33874.47, 24730.06, 36229.74, 25891.28, 0.00, 0.00, 0.00, 0.00
204, 42402.00, 49401.55, 18497.39, 33785.49, 24294.31, 35300.78, 25796.13, 0.00, 0.00, 0.00, 0.00
205, 42380.56, 49415.50, 18556.84, 33849.57, 24399.28, 35324.94, 25839.46, 0.00, 0.00, 0.00, 0.00
206, 42410.38, 49396.55, 18581.12, 33910.16, 24625.23, 35846.30, 25900.17, 0.00, 0.00, 0.00, 0.00
207, 42469.61, 49367.25, 18557.11, 33898.25, 24789.07, 36311.44, 25911.73, 0.00, 0.00, 0.00, 0.00
208, 42422.22, 49389.29, 18491.87, 33780.82, 24341.76, 35436.36, 25804.42, 0.00, 0.00, 0.00, 0.00
209, 42393.68, 49414.48, 18554.85, 33833.25, 24364.38, 35264.46, 25825.03, 0.00, 0.00, 0.00, 0.00
210, 42408.14, 49399.10, 18580.98, 33900.51, 24577.51, 35732.46, 25887.30, 0.00, 0.15, 0.97, 0.24
211, 42461.18, 49365.75, 18573.65, 33919.46, 24812.36, 36324.96, 25919.89, 0.00, 0.00, 0.00, 0.00
212, 42426.76, 49373.93, 18492.04, 33773.84, 24411.10, 35590.12, 25814.34, 0.00, 0.00, 0.00, 0.00
213, 42387.15, 49410.70, 18545.13, 33825.86, 24331.57, 35203.35, 25815.82, 0.00, 0.00, 0.00, 0.00
214, 42398.75, 49403.63, 18575.57, 33895.01, 24535.58, 35620.21, 25875.81, 0.00, 0.00, 0.00, 0.00
215, 42455.62, 49375.83, 18587.22, 33898.66, 24799.33, 36271.49, 25917.92, 0.00, 0.00, 0.00, 0.00
216, 42455.19, 49373.39, 18508.43, 33780.39, 24493.46, 35766.79, 25821.40, 0.00, 0.00, 0.00, 0.00
217, 42398.22, 49417.65, 18535.21, 33784.82, 24297.31, 35163.38, 25797.67, 0.00, 0.00, 0.00, 0.00
218, 42404.21, 49413.20, 18579.62, 33849.55, 24497.04, 35527.58, 25866.71, 0.00, 0.00, 0.00, 0.00
219, 42451.62, 49383.92, 18590.97, 33899.75, 24772.19, 36186.20, 25920.38, 0.00, 0.00, 0.00, 0.00
220, 42458.95, 49364.14, 18514.51, 33800.44, 24590.36, 35967.33, 25853.95, 0.00, 0.16, 0.97, 0.23
221, 42396.25, 49396.86, 18519.16, 33764.90, 24276.88, 35175.74, 25795.77, 0.00, 0.00, 0.00, 0.00
222, 42393.41, 49398.05, 18566.39, 33832.58, 24462.38, 35445.46, 25857.62, 0.00, 0.00, 0.00, 0.00
223, 42433.76, 49376.81, 18581.90, 33891.64, 24722.66, 36064.00, 25916.49, 0.00, 0.00, 0.00, 0.00
224, 42468.98, 49356.94, 18522.91, 33828.49, 24676.57, 36136.02, 25878.78, 0.00, 0.00, 0.00, 0.00
225, 42398.75, 49397.98, 18501.97, 33765.73, 24277.68, 35237.64, 25805.40, 0.00, 0.00, 0.00, 0.00
226, 42388.70, 49406.32, 18566.83, 33838.15, 24430.10, 35378.61, 25860.59, 0.00, 0.00, 0.00, 0.00
227, 42414.89, 49378.71, 18585.72, 33882.14, 24667.23, 35936.66, 25915.53, 0.00, 0.00, 0.00, 0.00
228, 42460.49, 49352.89, 18544.33, 33850.57, 24752.39, 36259.91, 25910.77, 0.00, 0.00, 0.00, 0.00
229, 42403.45, 49379.76, 18488.96, 33752.52, 24305.67, 35332.95, 25813.31, 0.00, 0.00, 0.00, 0.00
230, 42379.49, 49391.72, 18549.09, 33804.93, 24393.42, 35298.30, 25846.46, 0.00, 0.15, 0.96, 0.23
231, 42405.19, 49382.36, 18581.47, 33870.02, 24619.75, 35812.84, 25911.30, 0.00, 0.00, 0.00, 0.00
232, 42462.01, 49357.43, 18561.96, 33871.72, 24798.88, 36327.86, 25926.44, 0.00, 0.00, 0.00, 0.00
233, 42415.85, 49379.25, 18492.80, 33757.30, 24358.17, 35479.32, 25811.26, 0.00, 0.00, 0.00, 0.00
234, 42382.84, 49406.72, 18549.53, 33799.70, 24358.35, 35247.67, 25823.80, 0.00, 0.00, 0.00, 0.00
235, 42401.46, 49398.43, 18583.22, 33856.12, 24573.35, 35699.63, 25881.96, 0.00, 0.00, 0.00, 0.00
236, 42455.04, 49364.30, 18577.94, 33879.79, 24817.57, 36316.98, 25927.35, 0.00, 0.00, 0.00, 0.00
237, 42432.13, 49372.27, 18497.28, 33754.11, 24439.64, 35642.45, 25835.15, 0.00, 0.00, 0.00, 0.00
238, 42386.46, 49408.53, 18546.45, 33778.09, 24326.50, 35192.78, 25820.76, 0.00, 0.00, 0.00, 0.00
239, 42401.01, 49403.37, 18586.55, 33843.58, 24531.44, 35596.09, 25885.08, 0.00, 0.00, 0.00, 0.00
240, 42448.29, 49369.82, 18591.04, 33881.55, 24802.93, 36255.22, 25935.80, 0.00, 0.15, 0.96, 0.23
241, 42448.55, 49370.66, 18512.12, 33773.53, 24529.03, 35834.61, 25856.25, 0.00, 0.00, 0.00, 0.00
242, 42389.14, 49405.47, 18538.83, 33762.96, 24298.65, 35171.23, 25815.71, 0.00, 0.00, 0.00, 0.00
243, 42389.93, 49397.60, 18579.39, 33823.38, 24494.02, 35497.34, 25874.24, 0.00, 0.00, 0.00, 0.00
244, 42432.26, 49368.18, 18595.94, 33878.74, 24764.79, 36152.67, 25928.31, 0.00, 0.00, 0.00, 0.00
245, 42450.01, 49356.58, 18525.30, 33792.91, 24621.54, 36029.42, 25874.69, 0.00, 0.00, 0.00, 0.00
246, 42381.27, 49394.58, 18519.20, 33762.71, 24281.95, 35205.36, 25810.01, 0.00, 0.00, 0.00, 0.00
247, 42374.73, 49394.96, 18570.74, 33831.22, 24456.52, 35434.40, 25864.63, 0.00, 0.00, 0.00, 0.00
248, 42415.12, 49376.12, 18595.27, 33863.96, 24713.79, 36036.00, 25923.55, 0.00, 0.00, 0.00, 0.00
249, 42454.25, 49357.34, 18535.63, 33812.18, 24703.35, 36173.84, 25891.43, 0.00, 0.00, 0.00, 0.00
250, 42383.67, 49383.45, 18499.82, 33721.36, 24283.36, 35251.05, 25798.90, 0.00, 0.15, 0.95, 0.23
251, 42366.77, 49391.16, 18557.94, 33786.07, 24418.59, 35348.59, 25847.91, 0.00, 0.00, 0.00, 0.00
252, 42393.95, 49372.52, 18581.61, 33848.88, 24652.59, 35896.70, 25910.52, 0.00, 0.00, 0.00, 0.00
253, 42449.25, 49351.64, 18550.90, 33830.71, 24769.33, 36269.26, 25911.95, 0.00, 0.00, 0.00, 0.00
254, 42390.95, 49377.89, 18493.77, 33726.30, 24319.44, 35352.14, 25805.85, 0.00, 0.00, 0.00, 0.00
255, 42365.25, 49397.35, 18556.28, 33779.56, 24382.38, 35273.31, 25835.51, 0.00, 0.00, 0.00, 0.00
0, 42387.46, 49380.90, 18581.52, 33836.11, 24598.54, 35765.05, 25892.08, 0.00, 0.00, 0.00, 0.00
1, 42441.45, 49349.90, 18563.10, 33846.60, 24800.36, 36309.76, 25919.24, 0.00, 0.00, 0.00, 0.00
2, 42399.11, 49369.82, 18485.47, 33732.71, 24374.44, 35502.68, 25811.79, 0.00, 0.00, 0.00, 0.00
3, 42362.79, 49396.86, 18541.02, 33768.66, 24344.71, 35225.59, 25826.08, 0.00, 0.15, 0.95, 0.23
4, 42376.47, 49382.71, 18573.18, 33826.52, 24557.37, 35670.75, 25895.75, 0.00, 0.00, 0.00, 0.00
5, 42431.72, 49353.25, 18573.25, 33859.56, 24813.52, 36306.90, 25942.35, 0.00, 0.00, 0.00, 0.00
6, 42410.89, 49360.90, 18489.34, 33740.72, 24455.96, 35693.25, 25834.68, 0.00, 0.00, 0.00, 0.00
7, 42362.66, 49395.81, 18532.66, 33758.69, 24312.84, 35185.51, 25822.25, 0.00, 0.00, 0.00, 0.00
8, 42377.21, 49389.22, 18574.21, 33818.81, 24514.72, 35564.39, 25884.77, 0.00, 0.00, 0.00, 0.00
9, 42424.91, 49357.59, 18584.54, 33862.40, 24790.50, 36222.30, 25930.57, 0.00, 0.00, 0.00, 0.00
10, 42430.41, 49355.13, 18503.80, 33756.61, 24547.58, 35877.19, 25852.94, 0.00, 0.00, 0.00, 0.00
11, 42369.61, 49394.22, 18520.56, 33739.27, 24284.83, 35172.61, 25810.03, 0.00, 0.00, 0.00, 0.00
12, 42375.69, 49394.36, 18568.44, 33808.13, 24477.62, 35479.19, 25870.27, 0.00, 0.00, 0.00, 0.00
13, 42417.30, 49366.82, 18585.88, 33865.93, 24748.52, 36118.36, 25924.65, 0.00, 0.15, 0.96, 0.23
14, 42441.51, 49351.04, 18514.04, 33779.00, 24634.66, 36050.97, 25872.21, 0.00, 0.00, 0.00, 0.00
15, 42384.54, 49394.34, 18505.88, 33735.51, 24269.26, 35193.71, 25794.87, 0.00, 0.00, 0.00, 0.00
16, 42387.85, 49408.46, 18566.65, 33816.13, 24446.10, 35406.44, 25862.51, 0.00, 0.00, 0.00, 0.00
17, 42420.97, 49386.69, 18588.20, 33860.39, 24698.39, 36002.80, 25934.24, 0.00, 0.00, 0.00, 0.00
18, 42465.43, 49362.11, 18537.11, 33813.47, 24717.74, 36212.69, 25909.34, 0.00, 0.00, 0.00, 0.00
19, 42401.64, 49392.50, 18498.62, 33728.76, 24287.49, 35285.49, 25809.09, 0.00, 0.00, 0.00, 0.00
20, 42388.50, 49409.82, 18561.47, 33794.05, 24410.07, 35337.91, 25850.75, 0.00, 0.00, 0.00, 0.00
21, 42416.08, 49394.36, 18584.42, 33858.13, 24643.31, 35873.32, 25909.61, 0.00, 0.00, 0.00, 0.00
22, 42468.85, 49369.14, 18556.98, 33845.64, 24782.70, 36297.91, 25914.92, 0.00, 0.00, 0.00, 0.00
23, 42411.41, 49388.88, 18493.45, 33733.68, 24335.37, 35397.03, 25806.25, 0.00, 0.16, 0.95, 0.24
24, 42383.38, 49411.48, 18556.91, 33785.75, 24377.66, 35265.66, 25836.51, 0.00, 0.00, 0.00, 0.00
25, 42393.14, 49390.40, 18579.24, 33830.95, 24588.01, 35736.84, 25896.24, 0.00, 0.00, 0.00, 0.00
26, 42448.22, 49357.21, 18568.71, 33842.77, 24806.99, 36315.82, 25925.36, 0.00, 0.00, 0.00, 0.00
27, 42415.83, 49373.50, 18488.16, 33726.21, 24390.96, 35553.33, 25811.86, 0.00, 0.00, 0.00, 0.00
28, 42379.98, 49411.12, 18540.06, 33765.15, 24335.15, 35211.21, 25819.46, 0.00, 0.00, 0.00, 0.00
29, 42393.75, 49400.68, 18572.02, 33825.65, 24542.57, 35635.54, 25891.41, 0.00, 0.00, 0.00, 0.00
30, 42442.30, 49367.63, 18571.59, 33859.88, 24804.82, 36280.08, 25931.69, 0.00, 0.00, 0.00, 0.00
31, 42427.16, 49372.88, 18488.49, 33744.14, 24474.47, 35729.73, 25826.97, 0.00, 0.00, 0.00, 0.00
32, 42377.86, 49411.52, 18527.52, 33759.11, 24302.47, 35173.00, 25804.35, 0.00, 0.00, 0.00, 0.00
33, 42391.16, 49413.49, 18574.59, 33827.11, 24508.57, 35550.92, 25870.71, 0.00, 0.15, 0.95, 0.24
34, 42436.86, 49384.59, 18587.78, 33873.57, 24786.05, 36210.23, 25925.27, 0.00, 0.00, 0.00, 0.00
35, 42445.54, 49371.71, 18504.49, 33771.12, 24572.46, 35926.74, 25852.50, 0.00, 0.00, 0.00, 0.00
36, 42382.17, 49404.48, 18512.79, 33736.56, 24282.38, 35161.44, 25792.75, 0.00, 0.00, 0.00, 0.00
37, 42383.15, 49403.30, 18563.50, 33797.58, 24470.11, 35448.46, 25859.27, 0.00, 0.00, 0.00, 0.00
38, 42422.25, 49380.23, 18583.87, 33853.19, 24732.94, 36077.30, 25919.71, 0.00, 0.00, 0.00, 0.00
39, 42447.77, 49356.85, 18519.94, 33775.59, 24657.21, 36084.16, 25871.21, 0.00, 0.00, 0.00, 0.00
40, 42376.25, 49387.45, 18498.41, 33712.55, 24268.43, 35194.74, 25789.22, 0.00, 0.00, 0.00, 0.00
41, 42370.34, 49397.44, 18555.81, 33780.88, 24424.62, 35363.43, 25844.76, 0.00, 0.00, 0.00, 0.00
42, 42408.37, 49383.09, 18579.31, 33843.58, 24668.46, 35943.17, 25907.75, 0.00, 0.00, 0.00, 0.00
43, 42458.84, 49361.52, 18534.96, 33807.08, 24725.16, 36221.47, 25890.76, 0.00, 0.15, 0.96, 0.24
44, 42389.43, 49384.75, 18483.08, 33711.57, 24283.45, 35295.26, 25784.66, 0.00, 0.00, 0.00, 0.00
45, 42373.63, 49402.25, 18544.66, 33788.50, 24385.51, 35309.81, 25824.80, 0.00, 0.00, 0.00, 0.00
46, 42405.08, 49393.40, 18573.81, 33836.47, 24612.15, 35827.32, 25888.42, 0.00, 0.00, 0.00, 0.00
47, 42462.97, 49365.37, 18553.69, 33819.29, 24778.21, 36293.75, 25900.73, 0.00, 0.00, 0.00, 0.00
48, 42409.26, 49383.36, 18485.74, 33701.38, 24334.99, 35425.91, 25795.66, 0.00, 0.00, 0.00, 0.00
49, 42374.79, 49405.20, 18545.00, 33748.90, 24351.17, 35237.12, 25814.79, 0.00, 0.00, 0.00, 0.00
50, 42391.73, 49388.93, 18573.47, 33808.11, 24561.66, 35697.61, 25875.18, 0.00, 0.00, 0.00, 0.00
51, 42450.61, 49360.99, 18567.79, 33833.14, 24797.16, 36299.05, 25906.79, 0.00, 0.00, 0.00, 0.00
52, 42422.52, 49377.39, 18491.26, 33715.62, 24405.02, 35588.83, 25806.43, 0.00, 0.14, 0.96, 0.24
53, 42376.31, 49406.09, 18537.42, 33738.79, 24316.69, 35186.59, 25811.10, 0.00, 0.00, 0.00, 0.00
54, 42387.94, 49396.66, 18567.91, 33797.18, 24521.63, 35594.28, 25871.79, 0.00, 0.00, 0.00, 0.00
55, 42441.29, 49369.39, 18572.73, 33841.37, 24788.29, 36253.37, 25919.26, 0.00, 0.00, 0.00, 0.00
56, 42434.52, 49368.59, 18491.66, 33728.16, 24488.08, 35779.24, 25829.52, 0.00, 0.00, 0.00, 0.00
57, 42380.63, 49403.12, 18519.13, 33725.54, 24279.98, 35164.75, 25799.92, 0.00, 0.00, 0.00, 0.00
58, 42387.45, 49397.53, 18561.80, 33789.49, 24476.08, 35511.40, 25861.30, 0.00, 0.00, 0.00, 0.00
59, 42432.53, 49368.05, 18573.20, 33840.79, 24751.70, 36166.64, 25919.98, 0.00, 0.00, 0.00, 0.00
60, 42447.21, 49361.01, 18497.83, 33740.96, 24577.11, 35967.75, 25852.68, 0.00, 0.00, 0.00, 0.00
61, 42388.32, 49402.96, 18506.06, 33708.62, 24259.67, 35175.95, 25791.43, 0.00, 0.00, 0.00, 0.00
62, 42392.52, 49404.35, 18558.72, 33773.39, 24443.44, 35427.31, 25850.98, 0.00, 0.14, 0.96, 0.24
63, 42426.22, 49381.21, 18573.99, 33827.78, 24701.09, 36039.46, 25910.77, 0.00, 0.00, 0.00, 0.00
64, 42456.98, 49367.96, 18512.92, 33765.89, 24664.32, 36131.68, 25877.13, 0.00, 0.00, 0.00, 0.00
65, 42390.46, 49400.89, 18485.54, 33695.86, 24260.54, 35227.09, 25789.87, 0.00, 0.00, 0.00, 0.00
66, 42382.17, 49408.37, 18545.82, 33764.50, 24408.57, 35357.66, 25842.44, 0.00, 0.00, 0.00, 0.00
67, 42408.93, 49386.25, 18563.86, 33824.49, 24646.11, 35912.57, 25898.76, 0.00, 0.00, 0.00, 0.00
68, 42452.49, 49360.32, 18522.67, 33796.17, 24735.96, 36248.76, 25894.16, 0.00, 0.00, 0.00, 0.00
69, 42396.45, 49390.04, 18473.69, 33702.03, 24292.84, 35333.37, 25795.05, 0.00, 0.00, 0.00, 0.00
70, 42375.35, 49405.60, 18535.27, 33759.25, 24370.40, 35292.24, 25830.64, 0.00, 0.00, 0.00, 0.00
71, 42397.55, 49390.63, 18561.42, 33814.12, 24587.57, 35792.56, 25889.40, 0.00, 0.00, 0.00, 0.00
72, 42453.38, 49364.59, 18546.45, 33814.57, 24775.75, 36305.69, 25908.06, 0.00, 0.14, 0.96, 0.24
73, 42408.30, 49385.35, 18475.86, 33694.29, 24344.16, 35471.17, 25803.12, 0.00, 0.00, 0.00, 0.00
74, 42372.34, 49409.85, 18533.11, 33735.04, 24335.37, 35221.57, 25820.91, 0.00, 0.00, 0.00, 0.00
75, 42387.46, 49397.20, 18567.77, 33798.83, 24551.13, 35672.20, 25885.06, 0.00, 0.00, 0.00, 0.00
76, 42439.77, 49367.92, 18566.12, 33828.98, 24799.57, 36304.91, 25930.15, 0.00, 0.00, 0.00, 0.00
77, 42411.88, 49374.87, 18479.17, 33706.63, 24425.85, 35656.62, 25834.17, 0.00, 0.00, 0.00, 0.00
78, 42364.82, 49410.23, 18520.86, 33730.19, 24304.64, 35196.62, 25825.79, 0.00, 0.00, 0.00, 0.00
79, 42389.61, 49414.09, 18562.92, 33800.55, 24510.97, 35595.40, 25886.54, 0.00, 0.00, 0.00, 0.00
80, 42450.57, 49393.73, 18576.62, 33856.81, 24784.71, 36268.74, 25939.89, 0.00, 0.00, 0.00, 0.00
81, 42450.52, 49393.29, 18497.23, 33765.06, 24513.56, 35869.07, 25851.96, 0.00, 0.00, 0.00, 0.00
82, 42392.56, 49434.12, 18520.68, 33746.33, 24272.38, 35197.45, 25804.11, 0.00, 0.14, 0.96, 0.24
83, 42397.66, 49428.38, 18565.16, 33792.21, 24469.33, 35513.55, 25861.46, 0.00, 0.00, 0.00, 0.00
84, 42438.05, 49395.54, 18582.44, 33844.36, 24738.26, 36144.74, 25909.16, 0.00, 0.00, 0.00, 0.00
85, 42451.73, 49376.59, 18507.58, 33758.17, 24601.76, 36022.23, 25857.97, 0.00, 0.00, 0.00, 0.00
86, 42379.29, 49411.91, 18498.19, 33715.28, 24262.66, 35188.44, 25793.91, 0.00, 0.00, 0.00, 0.00
87, 42369.14, 49410.47, 18547.83, 33778.71, 24437.34, 35425.01, 25858.71, 0.00, 0.00, 0.00, 0.00
88, 42401.28, 49383.16, 18565.34, 33831.33, 24690.23, 36021.91, 25917.25, 0.00, 0.00, 0.00, 0.00
89, 42438.61, 49361.90, 18508.56, 33772.95, 24687.30, 36171.71, 25883.34, 0.00, 0.00, 0.00, 0.00
90, 42373.96, 49394.80, 18474.12, 33688.01, 24269.32, 35246.44, 25793.42, 0.00, 0.00, 0.00, 0.00
91, 42364.49, 49408.66, 18539.12, 33756.21, 24403.66, 35348.99, 25852.21, 0.00, 0.14, 0.95, 0.24
92, 42392.61, 49390.04, 18564.87, 33818.72, 24634.46, 35888.21, 25904.53, 0.00, 0.00, 0.00, 0.00
93, 42443.28, 49363.65, 18534.58, 33788.57, 24754.24, 36266.22, 25900.31, 0.00, 0.00, 0.00, 0.00
94, 42387.73, 49388.21, 18474.81, 33676.43, 24308.28, 35352.32, 25798.14, 0.00, 0.00, 0.00, 0.00
95, 42366.39, 49409.18, 18540.06, 33735.96, 24369.55, 35260.32, 25832.09, 0.00, 0.00, 0.00, 0.00
96, 42390.48, 49397.53, 18567.33, 33797.80, 24583.25, 35749.02, 25891.72, 0.00, 0.00, 0.00, 0.00
97, 42445.09, 49365.86, 18551.90, 33806.95, 24787.82, 36299.99, 25913.23, 0.00, 0.00, 0.00, 0.00
98, 42400.72, 49382.22, 18475.26, 33684.55, 24366.02, 35506.77, 25813.16, 0.00, 0.00, 0.00, 0.00
99, 42364.15, 49413.85, 18527.79, 33723.89, 24327.26, 35200.84, 25823.15, 0.00, 0.00, 0.00, 0.00
100, 42379.93, 49402.14, 18555.46, 33786.18, 24532.45, 35640.88, 25877.33, 0.00, 0.00, 0.00, 0.00
101, 42436.44, 49375.00, 18558.07, 33820.87, 24789.43, 36285.57, 25921.21, 0.00, 0.15, 0.95, 0.23
102, 42417.42, 49381.15, 18475.64, 33699.30, 24440.83, 35690.30, 25827.26, 0.00, 0.00, 0.00, 0.00
103, 42369.72, 49418.66, 18518.89, 33718.79, 24290.45, 35169.64, 25812.11, 0.00, 0.00, 0.00, 0.00
104, 42376.56, 49408.77, 18557.33, 33775.96, 24492.37, 35547.09, 25871.27, 0.00, 0.00, 0.00, 0.00
105, 42418.49, 49372.59, 18565.72, 33817.61, 24766.94, 36212.24, 25921.23, 0.00, 0.00, 0.00, 0.00
106, 42419.95, 49363.74, 18482.99, 33711.88, 24530.17, 35882.95, 25841.81, 0.00, 0.00, 0.00, 0.00
107, 42357.85, 49399.10, 18496.60, 33690.96, 24259.00, 35157.75, 25790.47, 0.00, 0.00, 0.00, 0.00
108, 42367.21, 49403.84, 18545.67, 33760.66, 24453.50, 35465.76, 25855.56, 0.00, 0.00, 0.00, 0.00
109, 42417.91, 49382.73, 18569.78, 33818.79, 24725.34, 36106.94, 25913.96, 0.00, 0.00, 0.00, 0.00
110, 42441.96, 49366.38, 18500.61, 33733.59, 24625.50, 36066.73, 25863.31, 0.00, 0.00, 0.00, 0.00
111, 42376.54, 49403.72, 18487.33, 33676.99, 24256.76, 35197.94, 25791.81, 0.00, 0.14, 0.96, 0.24
112, 42374.21, 49411.77, 18548.62, 33746.80, 24422.61, 35387.48, 25846.42, 0.00, 0.00, 0.00, 0.00
113, 42402.40, 49387.72, 18570.12, 33813.65, 24666.85, 35979.73, 25906.25, 0.00, 0.00, 0.00, 0.00
114, 42448.00, 49365.75, 18523.52, 33762.06, 24697.58, 36207.12, 25879.27, 0.00, 0.00, 0.00, 0.00
115, 42381.90, 49392.39, 18477.18, 33663.87, 24264.54, 35273.58, 25786.27, 0.00, 0.00, 0.00, 0.00
116, 42363.55, 49406.27, 18540.50, 33732.54, 24384.52, 35318.35, 25841.39, 0.00, 0.00, 0.00, 0.00
117, 42385.57, 49383.29, 18565.20, 33788.19, 24613.03, 35841.09, 25905.09, 0.00, 0.00, 0.00, 0.00
118, 42440.46, 49350.62, 18539.34, 33772.73, 24756.19, 36279.54, 25909.45, 0.00, 0.00, 0.00, 0.00
119, 42389.10, 49373.26, 18475.33, 33657.73, 24312.66, 35386.74, 25801.15, 0.00, 0.00, 0.00, 0.00
120, 42361.27, 49400.82, 18537.89, 33714.52, 24350.86, 35238.95, 25822.61, 0.00, 0.00, 0.00, 0.00
121, 42386.17, 49393.55, 18567.64, 33780.21, 24564.54, 35714.73, 25881.62, 0.00, 0.14, 0.96, 0.24
122, 42437.49, 49359.64, 18549.73, 33794.09, 24786.50, 36293.44, 25916.09, 0.00, 0.00, 0.00, 0.00
123, 42401.70, 49370.69, 18469.09, 33671.43, 24378.69, 35545.13, 25809.09, 0.00, 0.00, 0.00, 0.00
124, 42364.04, 49400.21, 18524.03, 33707.32, 24315.28, 35198.12, 25817.58, 0.00, 0.00, 0.00, 0.00
125, 42380.00, 49394.63, 18558.07, 33771.18, 24520.40, 35622.33, 25882.71, 0.00, 0.00, 0.00, 0.00
126, 42432.37, 49367.16, 18560.87, 33817.16, 24782.36, 36269.68, 25925.54, 0.00, 0.00, 0.00, 0.00
127, 42424.93, 49372.83, 18481.96, 33704.62, 24467.25, 35748.62, 25836.36, 0.00, 0.00, 0.00, 0.00
128, 42370.61, 49405.64, 18516.01, 33701.76, 24282.15, 35165.86, 25803.63, 0.00, 0.00, 0.00, 0.00
129, 42379.09, 49401.40, 18559.41, 33771.41, 24479.36, 35524.72, 25865.30, 0.00, 0.00, 0.00, 0.00
130, 42426.49, 49374.40, 18575.48, 33828.54, 24757.30, 36181.13, 25920.63, 0.00, 0.00, 0.00, 0.00
131, 42435.66, 49368.14, 18498.82, 33725.94, 24559.78, 35929.38, 25846.21, 0.00, 0.14, 0.96, 0.24
132, 42374.57, 49408.39, 18511.00, 33697.55, 24263.64, 35167.18, 25794.45, 0.00, 0.00, 0.00, 0.00
133, 42379.71, 49406.12, 18565.43, 33765.35, 24450.88, 35449.51, 25857.70, 0.00, 0.00, 0.00, 0.00
134, 42418.00, 49380.23, 18580.31, 33820.63, 24709.49, 36071.42, 25907.12, 0.00, 0.00, 0.00, 0.00
135, 42449.79, 49363.63, 18520.30, 33750.80, 24649.70, 36099.74, 25867.96, 0.00, 0.00, 0.00, 0.00
136, 42384.70, 49393.89, 18502.24, 33682.65, 24264.85, 35213.18, 25788.73, 0.00, 0.00, 0.00, 0.00
137, 42376.67, 49405.04, 18561.38, 33749.95, 24417.25, 35367.05, 25838.86, 0.00, 0.00, 0.00, 0.00
138, 42405.26, 49387.43, 18582.77, 33809.20, 24657.15, 35936.91, 25896.04, 0.00, 0.00, 0.00, 0.00
139, 42452.36, 49363.58, 18539.52, 33775.63, 24722.64, 36230.23, 25884.08, 0.00, 0.00, 0.00, 0.00
140, 42399.61, 49401.36, 18499.00, 33685.22, 24288.66, 35308.78, 25791.97, 0.00, 0.14, 0.95, 0.25
141, 42379.24, 49416.49, 18558.61, 33743.02, 24383.81, 35305.77, 25831.55, 0.00, 0.00, 0.00, 0.00
142, 42405.68, 49402.61, 18585.59, 33808.15, 24608.13, 35812.84, 25897.56, 0.00, 0.00, 0.00, 0.00
143, 42457.90, 49371.56, 18560.15, 33804.91, 24781.98, 36294.16, 25914.25, 0.00, 0.00, 0.00, 0.00
144, 42405.06, 49385.02, 18487.42, 33684.82, 24342.77, 35430.89, 25805.00, 0.00, 0.00, 0.00, 0.00
145, 42374.19, 49410.12, 18550.29, 33714.05, 24347.49, 35231.29, 25826.10, 0.00, 0.00, 0.00, 0.00
146, 42396.34, 49401.94, 18576.02, 33778.49, 24556.81, 35689.39, 25888.95, 0.00, 0.00, 0.00, 0.00
147, 42451.80, 49371.49, 18566.63, 33805.80, 24794.41, 36297.29, 25920.40, 0.00, 0.00, 0.00, 0.00
148, 42419.09, 49380.66, 18484.06, 33685.29, 24405.78, 35607.18, 25816.76, 0.00, 0.00, 0.00, 0.00
149, 42376.25, 49414.95, 18532.03, 33713.22, 24307.61, 35192.78, 25811.57, 0.00, 0.00, 0.00, 0.00
150, 42389.64, 49408.15, 18566.99, 33774.42, 24513.85, 35598.64, 25877.55, 0.00, 0.14, 0.95, 0.24
151, 42440.22, 49373.91, 18572.87, 33815.04, 24788.96, 36253.21, 25930.21, 0.00, 0.00, 0.00, 0.00
152, 42435.75, 49376.03, 18487.11, 33700.59, 24495.95, 35793.70, 25838.08, 0.00, 0.00, 0.00, 0.00
153, 42378.68, 49411.79, 18513.57, 33693.71, 24276.77, 35165.37, 25802.43, 0.00, 0.00, 0.00, 0.00
154, 42386.26, 49409.67, 18561.02, 33761.93, 24472.61, 35502.93, 25868.14, 0.00, 0.00, 0.00, 0.00
155, 42428.77, 49383.12, 18571.93, 33817.88, 24742.44, 36148.04, 25921.27, 0.00, 0.00, 0.00, 0.00
156, 42443.91, 49372.45, 18494.75, 33721.27, 24584.88, 35975.45, 25857.95, 0.00, 0.00, 0.00, 0.00
157, 42381.25, 49409.07, 18496.13, 33677.08, 24261.72, 35167.41, 25793.11, 0.00, 0.00, 0.00, 0.00
158, 42384.49, 49417.29, 18553.02, 33749.52, 24441.92, 35417.95, 25851.00, 0.00, 0.00, 0.00, 0.00
159, 42421.00, 49390.60, 18570.99, 33809.11, 24692.08, 36025.27, 25908.26, 0.00, 0.00, 0.00, 0.00
160, 42455.86, 49369.95, 18508.43, 33744.74, 24664.21, 36125.49, 25869.86, 0.00, 0.14, 0.96, 0.24
161, 42392.52, 49403.81, 18482.48, 33674.15, 24260.43, 35221.16, 25786.42, 0.00, 0.00, 0.00, 0.00
162, 42384.34, 49414.99, 18545.04, 33741.32, 24402.74, 35337.55, 25840.05, 0.00, 0.00, 0.00, 0.00
163, 42408.05, 49391.45, 18564.91, 33801.63, 24637.10, 35883.71, 25901.49, 0.00, 0.00, 0.00, 0.00
164, 42455.86, 49364.00, 18529.26, 33772.39, 24738.15, 36234.93, 25897.87, 0.00, 0.00, 0.00, 0.00
165, 42398.15, 49391.36, 18473.74, 33665.82, 24293.39, 35321.37, 25789.15, 0.00, 0.00, 0.00, 0.00
166, 42372.94, 49409.00, 18536.79, 33723.35, 24369.53, 35265.71, 25824.29, 0.00, 0.00, 0.00, 0.00
167, 42391.16, 49388.86, 18559.93, 33781.93, 24587.92, 35764.71, 25889.91, 0.00, 0.00, 0.00, 0.00
168, 42445.02, 49358.55, 18540.30, 33795.30, 24782.59, 36291.83, 25913.65, 0.00, 0.00, 0.00, 0.00
169, 42400.05, 49374.82, 18467.30, 33673.48, 24351.40, 35467.01, 25807.10, 0.00, 0.00, 0.00, 0.00
170, 42363.62, 49404.19, 18525.75, 33711.17, 24332.02, 35205.81, 25822.99, 0.00, 0.15, 0.96, 0.24
171, 42384.89, 49396.84, 18558.50, 33782.67, 24545.66, 35653.36, 25891.84, 0.00, 0.00, 0.00, 0.00
172, 42440.13, 49362.62, 18553.11, 33814.25, 24797.70, 36284.32, 25926.48, 0.00, 0.00, 0.00, 0.00
173, 42417.11, 49367.13, 18473.04, 33674.02, 24428.87, 35643.27, 25819.01, 0.00, 0.00, 0.00, 0.00
174, 42371.69, 49404.24, 18521.35, 33699.93, 24300.99, 35164.79, 25813.74, 0.00, 0.00, 0.00, 0.00
175, 42383.42, 49395.30, 18561.29, 33759.85, 24503.41, 35546.58, 25869.60, 0.00, 0.00, 0.00, 0.00
176, 42431.07, 49362.55, 18566.07, 33804.51, 24771.61, 36209.58, 25923.02, 0.00, 0.00, 0.00, 0.00
177, 42432.08, 49362.66, 18487.89, 33694.43, 24518.03, 35838.07, 25843.76, 0.00, 0.00, 0.00, 0.00
178, 42372.71, 49400.59, 18510.22, 33677.44, 24273.61, 35151.54, 25803.03, 0.00, 0.00, 0.00, 0.00
179, 42378.79, 49402.36, 18560.42, 33748.90, 24468.03, 35468.33, 25866.64, 0.00, 0.00, 0.00, 0.00
180, 42414.98, 49374.96, 18573.16, 33803.91, 24738.40, 36104.14, 25920.54, 0.00, 0.15, 0.95, 0.25
181, 42436.37, 49360.38, 18502.77, 33711.37, 24616.36, 36012.17, 25866.35, 0.00, 0.00, 0.00, 0.00
182, 42372.49, 49396.66, 18497.03, 33660.95, 24265.52, 35173.82, 25801.89, 0.00, 0.00, 0.00, 0.00
183, 42368.80, 49401.40, 18553.96, 33733.27, 24439.08, 35390.07, 25863.00, 0.00, 0.00, 0.00, 0.00
184, 42404.34, 49380.28, 18575.69, 33793.67, 24691.68, 35986.02, 25917.03, 0.00, 0.00, 0.00, 0.00
185, 42439.66, 49354.19, 18522.76, 33739.84, 24703.77, 36165.79, 25891.54, 0.00, 0.00, 0.00, 0.00
186, 42372.54, 49383.76, 18483.66, 33655.22, 24280.19, 35245.53, 25800.97, 0.00, 0.00, 0.00, 0.00
187, 42361.25, 49398.29, 18545.31, 33720.85, 24405.02, 35324.70, 25849.34, 0.00, 0.00, 0.00, 0.00
188, 42389.64, 49386.11, 18569.70, 33781.55, 24633.81, 35858.52, 25905.85, 0.00, 0.00, 0.00, 0.00
189, 42439.95, 49358.86, 18538.67, 33760.54, 24762.29, 36259.51, 25908.55, 0.00, 0.15, 0.95, 0.24
190, 42383.18, 49375.47, 18475.68, 33646.93, 24314.47, 35352.39, 25804.78, 0.00, 0.00, 0.00, 0.00
191, 42357.34, 49397.93, 18539.90, 33710.03, 24368.94, 35250.58, 25838.59, 0.00, 0.00, 0.00, 0.00
192, 42375.69, 49383.14, 18565.83, 33763.47, 24579.97, 35733.49, 25895.57, 0.00, 0.00, 0.00, 0.00
193, 42433.96, 49357.81, 18552.48, 33777.98, 24791.68, 36301.55, 25925.05, 0.00, 0.00, 0.00, 0.00
194, 42392.79, 49371.74, 18475.88, 33655.00, 24376.48, 35521.57, 25819.08, 0.00, 0.00, 0.00, 0.00
195, 42353.22, 49398.54, 18531.14, 33691.52, 24329.58, 35204.13, 25827.62, 0.00, 0.00, 0.00, 0.00
196, 42369.03, 49390.07, 18564.44, 33753.17, 24531.82, 35629.55, 25890.36, 0.00, 0.00, 0.00, 0.00
197, 42426.49, 49364.41, 18568.49, 33789.93, 24791.30, 36273.10, 25929.19, 0.00, 0.00, 0.00, 0.00
198, 42412.61, 49367.16, 18484.02, 33666.44, 24451.31, 35704.21, 25834.17, 0.00, 0.00, 0.00, 0.00
199, 42362.03, 49403.61, 18519.18, 33675.52, 24283.22, 35160.39, 25812.11, 0.00, 0.14, 0.96, 0.25
200, 42377.36, 49407.66, 18560.20, 33742.75, 24482.27, 35528.84, 25865.93, 0.00, 0.00, 0.00, 0.00
201, 42425.69, 49380.14, 18571.17, 33790.65, 24756.63, 36185.42, 25917.52, 0.00, 0.00, 0.00, 0.00
202, 42423.74, 49363.74, 18497.05, 33689.09, 24542.66, 35887.89, 25855.87, 0.00, 0.00, 0.00, 0.00
203, 42352.29, 49391.50, 18505.97, 33661.93, 24267.47, 35152.61, 25804.87, 0.00, 0.00, 0.00, 0.00
204, 42349.60, 49384.52, 18555.26, 33729.09, 24455.47, 35444.72, 25864.83, 0.00, 0.00, 0.00, 0.00
205, 42384.56, 49358.19, 18574.48, 33800.29, 24716.04, 36075.89, 25920.71, 0.00, 0.00, 0.00, 0.00
206, 42412.19, 49340.98, 18510.91, 33712.33, 24629.19, 36058.21, 25869.97, 0.00, 0.00, 0.00, 0.00
207, 42346.43, 49378.87, 18493.63, 33639.35, 24255.69, 35187.03, 25794.52, 0.00, 0.00, 0.00, 0.00
208, 42336.08, 49381.35, 18548.51, 33709.80, 24417.54, 35363.95, 25849.30, 0.00, 0.00, 0.00, 0.00
209, 42368.00, 49358.13, 18569.18, 33773.64, 24660.88, 35945.25, 25911.84, 0.00, 0.14, 0.95, 0.25
210, 42414.64, 49336.24, 18520.14, 33730.55, 24704.91, 36197.96, 25893.18, 0.00, 0.00, 0.00, 0.00
211, 42351.10, 49363.36, 18476.42, 33636.29, 24272.63, 35267.27, 25792.57, 0.00, 0.00, 0.00, 0.00
212, 42330.00, 49375.54, 18542.36, 33698.41, 24381.08, 35294.72, 25832.78, 0.00, 0.00, 0.00, 0.00
213, 42357.45, 49357.10, 18566.01, 33758.60, 24603.32, 35819.54, 25895.63, 0.00, 0.00, 0.00, 0.00
214, 42414.36, 49329.32, 18539.30, 33744.94, 24754.51, 36265.23, 25897.85, 0.00, 0.00, 0.00, 0.00
215, 42367.91, 49356.96, 18476.35, 33629.14, 24311.90, 35385.96, 25789.08, 0.00, 0.00, 0.00, 0.00
216, 42342.20, 49381.98, 18541.29, 33683.99, 24341.76, 35226.95, 25816.02, 0.00, 0.00, 0.00, 0.00
217, 42360.11, 49367.38, 18565.56, 33743.55, 24555.67, 35692.83, 25881.51, 0.00, 0.00, 0.00, 0.00
218, 42412.79, 49334.57, 18553.76, 33760.70, 24782.79, 36281.42, 25910.86, 0.00, 0.00, 0.00, 0.00
219, 42379.55, 49343.39, 18474.92, 33635.64, 24381.66, 35554.27, 25801.71, 0.00, 0.14, 0.95, 0.24
220, 42338.49, 49376.75, 18526.29, 33668.14, 24302.67, 35178.43, 25802.70, 0.00, 0.00, 0.00, 0.00
221, 42353.07, 49369.70, 18563.08, 33730.91, 24508.75, 35596.34, 25866.06, 0.00, 0.00, 0.00, 0.00
222, 42405.44, 49340.65, 18567.91, 33770.45, 24780.44, 36246.73, 25913.49, 0.00, 0.00, 0.00, 0.00
223, 42391.89, 49340.22, 18483.15, 33648.70, 24472.39, 35745.47, 25823.21, 0.00, 0.00, 0.00, 0.00
224, 42337.69, 49376.77, 18512.07, 33647.29, 24274.73, 35148.03, 25792.21, 0.00, 0.00, 0.00, 0.00
225, 42347.59, 49372.97, 18553.78, 33710.36, 24469.48, 35493.25, 25848.52, 0.00, 0.00, 0.00, 0.00
226, 42394.55, 49344.89, 18567.84, 33764.41, 24745.84, 36147.44, 25905.96, 0.00, 0.00, 0.00, 0.00
227, 42404.19, 49330.84, 18491.62, 33669.79, 24563.11, 35926.85, 25845.08, 0.00, 0.00, 0.00, 0.00
228, 42341.76, 49368.81, 18498.19, 33643.51, 24255.91, 35153.26, 25782.07, 0.00, 0.14, 0.95, 0.25
229, 42344.57, 49373.62, 18553.45, 33711.68, 24440.27, 35421.59, 25844.49, 0.00, 0.00, 0.00, 0.00
230, 42381.12, 49346.37, 18568.31, 33762.51, 24698.95, 36039.71, 25910.28, 0.00, 0.00, 0.00, 0.00
231, 42414.45, 49326.59, 18503.49, 33691.18, 24649.12, 36099.36, 25866.53, 0.00, 0.00, 0.00, 0.00
232, 42343.28, 49355.31, 18476.26, 33620.96, 24250.88, 35202.88, 25777.57, 0.00, 0.00, 0.00, 0.00
233, 42331.39, 49363.67, 18536.81, 33690.20, 24399.39, 35346.80, 25833.14, 0.00, 0.00, 0.00, 0.00
234, 42363.46, 49349.48, 18559.79, 33752.88, 24640.99, 35909.60, 25900.51, 0.00, 0.00, 0.00, 0.00
235, 42414.24, 49329.29, 18518.62, 33722.55, 24721.56, 36221.74, 25889.38, 0.00, 0.00, 0.00, 0.00
236, 42354.45, 49357.88, 18466.61, 33622.03, 24280.05, 35297.29, 25786.58, 0.00, 0.00, 0.00, 0.00
237, 42332.26, 49377.97, 18528.79, 33681.69, 24370.33, 35274.16, 25831.44, 0.00, 0.00, 0.00, 0.00
238, 42354.32, 49357.41, 18552.77, 33737.81, 24586.74, 35780.76, 25891.43, 0.00, 0.14, 0.95, 0.25
239, 42413.39, 49332.22, 18536.50, 33740.65, 24765.02, 36280.55, 25909.22, 0.00, 0.00, 0.00, 0.00
240, 42374.14, 49355.67, 18471.21, 33630.43, 24351.29, 35464.86, 25810.63, 0.00, 0.00, 0.00, 0.00
241, 42335.16, 49376.12, 18523.40, 33670.58, 24341.36, 35220.49, 25826.99, 0.00, 0.00, 0.00, 0.00
242, 42353.36, 49362.04, 18552.48, 33724.16, 24543.91, 35662.50, 25887.54, 0.00, 0.00, 0.00, 0.00
243, 42409.71, 49335.06, 18549.33, 33749.77, 24782.00, 36273.26, 25923.13, 0.00, 0.00, 0.00, 0.00
244, 42381.75, 49342.88, 18470.79, 33629.74, 24418.97, 35628.46, 25826.77, 0.00, 0.00, 0.00, 0.00
245, 42330.20, 49369.13, 18511.40, 33646.80, 24299.27, 35168.55, 25813.29, 0.00, 0.00, 0.00, 0.00
246, 42342.72, 49364.16, 18549.80, 33711.97, 24498.94, 35559.23, 25873.42, 0.00, 0.00, 0.00, 0.00
247, 42396.09, 49334.28, 18560.40, 33758.44, 24770.31, 36218.79, 25925.36, 0.00, 0.00, 0.00, 0.00
248, 42393.68, 49331.39, 18479.39, 33648.65, 24506.43, 35814.78, 25845.77, 0.00, 0.14, 0.95, 0.25
249, 42335.68, 49367.25, 18502.79, 33638.41, 24274.17, 35161.59, 25810.43, 0.00, 0.00, 0.00, 0.00
250, 42337.98, 49363.29, 18548.19, 33703.21, 24465.71, 35479.21, 25871.88, 0.00, 0.00, 0.00, 0.00
251, 42379.11, 49336.02, 18564.08, 33760.72, 24736.96, 36121.07, 25925.86, 0.00, 0.00, 0.00, 0.00
252, 42400.57, 49324.91, 18494.64, 33672.39, 24600.40, 35990.33, 25863.38, 0.00, 0.00, 0.00, 0.00
253, 42335.36, 49359.45, 18489.29, 33622.23, 24266.06, 35176.30, 25796.13, 0.00, 0.00, 0.00, 0.00
254, 42331.32, 49360.68, 18540.91, 33689.62, 24433.00, 35400.40, 25850.44, 0.00, 0.00, 0.00, 0.00
255, 42366.88, 49337.79, 18560.40, 33746.48, 24679.19, 35999.00, 25908.78, 0.00, 0.00, 0.00, 0.00
0, 42411.54, 49322.99, 18508.43, 33686.76, 24672.95, 36138.75, 25879.27, 0.00, 0.00, 0.00, 0.00
1, 42360.96, 49363.38, 18481.79, 33608.62, 24271.60, 35232.92, 25793.78, 0.00, 0.00, 0.00, 0.00
2, 42345.76, 49378.55, 18541.24, 33682.34, 24400.66, 35325.37, 25848.47, 0.00, 0.14, 0.95, 0.25
3, 42365.70, 49356.92, 18560.46, 33745.01, 24630.06, 35872.56, 25907.12, 0.00, 0.00, 0.00, 0.00
4, 42414.09, 49329.80, 18523.49, 33719.53, 24739.78, 36242.12, 25897.65, 0.00, 0.00, 0.00, 0.00
5, 42354.23, 49347.82, 18465.09, 33610.34, 24303.79, 35346.09, 25789.46, 0.00, 0.00, 0.00, 0.00
6, 42330.00, 49365.70, 18530.71, 33663.94, 24359.98, 35253.15, 25825.12, 0.00, 0.00, 0.00, 0.00
7, 42353.05, 49352.72, 18559.37, 33727.29, 24577.26, 35744.44, 25888.97, 0.00, 0.00, 0.00, 0.00
8, 42412.50, 49329.32, 18545.71, 33740.85, 24778.58, 36279.79, 25902.54, 0.00, 0.00, 0.00, 0.00
9, 42372.40, 49344.56, 18472.46, 33620.18, 24365.48, 35495.53, 25802.67, 0.00, 0.00, 0.00, 0.00
10, 42337.98, 49376.86, 18529.95, 33661.35, 24329.56, 35201.36, 25827.06, 0.00, 0.00, 0.00, 0.00
11, 42357.96, 49370.82, 18561.02, 33722.68, 24535.49, 35637.84, 25887.50, 0.00, 0.00, 0.00, 0.00
12, 42420.61, 49345.50, 18565.96, 33761.10, 24790.45, 36273.59, 25924.63, 0.00, 0.14, 0.95, 0.25
13, 42408.93, 49358.73, 18490.17, 33651.04, 24449.81, 35694.30, 25830.86, 0.00, 0.00, 0.00, 0.00
14, 42361.74, 49403.97, 18532.26, 33686.52, 24302.69, 35189.87, 25817.05, 0.00, 0.00, 0.00, 0.00
15, 42369.16, 49396.44, 18573.03, 33742.37, 24503.52, 35565.13, 25877.60, 0.00, 0.00, 0.00, 0.00
16, 42417.26, 49361.41, 18581.54, 33770.94, 24765.31, 36208.15, 25918.54, 0.00, 0.00, 0.00, 0.00
17, 42419.39, 49355.80, 18499.80, 33664.83, 24529.38, 35870.73, 25838.59, 0.00, 0.00, 0.00, 0.00
18, 42354.12, 49386.36, 18506.82, 33637.27, 24264.11, 35161.57, 25785.55, 0.00, 0.00, 0.00, 0.00
19, 42348.08, 49374.58, 18548.28, 33693.87, 24444.47, 35454.83, 25840.56, 0.00, 0.00, 0.00, 0.00
20, 42390.15, 49348.71, 18565.20, 33746.24, 24707.97, 36080.52, 25896.08, 0.00, 0.00, 0.00, 0.00
21, 42416.86, 49336.98, 18498.37, 33664.83, 24607.48, 36020.35, 25844.27, 0.00, 0.15, 0.95, 0.25
22, 42347.37, 49366.96, 18483.08, 33602.72, 24251.93, 35173.44, 25770.67, 0.00, 0.00, 0.00, 0.00
23, 42340.37, 49373.41, 18536.70, 33669.04, 24408.64, 35359.59, 25822.39, 0.00, 0.00, 0.00, 0.00
24, 42372.18, 49350.21, 18556.11, 33728.13, 24652.10, 35943.75, 25887.86, 0.00, 0.00, 0.00, 0.00
25, 42416.48, 49331.39, 18510.98, 33680.95, 24684.91, 36152.02, 25868.23, 0.00, 0.00, 0.00, 0.00
26, 42358.27, 49368.50, 18477.58, 33598.76, 24271.96, 35244.81, 25775.25, 0.00, 0.00, 0.00, 0.00
27, 42339.01, 49381.44, 18539.72, 33666.91, 24385.17, 35297.56, 25818.70, 0.00, 0.00, 0.00, 0.00
28, 42364.40, 49362.91, 18562.41, 33722.03, 24607.39, 35821.46, 25874.02, 0.00, 0.00, 0.00, 0.00
29, 42414.78, 49329.14, 18525.37, 33698.81, 24739.54, 36240.58, 25875.18, 0.00, 0.00, 0.00, 0.00
30, 42365.05, 49353.81, 18463.57, 33593.60, 24301.98, 35362.65, 25773.44, 0.00, 0.00, 0.00, 0.00
31, 42334.79, 49375.29, 18523.83, 33648.83, 24337.67, 35228.83, 25807.90, 0.00, 0.15, 0.94, 0.25
32, 42352.48, 49359.96, 18546.67, 33701.87, 24545.01, 35697.50, 25866.64, 0.00, 0.00, 0.00, 0.00
33, 42409.06, 49333.83, 18535.32, 33717.74, 24764.84, 36266.44, 25894.29, 0.00, 0.00, 0.00, 0.00
34, 42374.41, 49352.00, 18458.25, 33600.35, 24361.88, 35522.20, 25791.10, 0.00, 0.00, 0.00, 0.00
35, 42333.84, 49381.39, 18509.30, 33633.32, 24298.09, 35180.46, 25793.22, 0.00, 0.00, 0.00, 0.00
36, 42351.26, 49376.57, 18543.43, 33698.34, 24500.17, 35602.46, 25850.87, 0.00, 0.00, 0.00, 0.00
37, 42402.31, 49345.16, 18542.16, 33732.00, 24758.09, 36245.32, 25894.90, 0.00, 0.00, 0.00, 0.00
38, 42388.50, 49345.27, 18458.05, 33610.36, 24438.03, 35707.80, 25803.17, 0.00, 0.00, 0.00, 0.00
39, 42337.80, 49384.10, 18495.55, 33619.23, 24266.30, 35147.96, 25786.29, 0.00, 0.00, 0.00, 0.00
40, 42348.15, 49382.47, 18538.45, 33685.29, 24466.64, 35513.14, 25852.94, 0.00, 0.00, 0.00, 0.00
41, 42395.16, 49355.45, 18549.55, 33739.31, 24737.77, 36170.29, 25905.29, 0.00, 0.15, 0.95, 0.25
42, 42404.75, 49349.75, 18467.75, 33638.73, 24533.41, 35904.34, 25829.47, 0.00, 0.00, 0.00, 0.00
43, 42353.16, 49394.36, 18477.14, 33609.24, 24239.01, 35148.25, 25771.40, 0.00, 0.00, 0.00, 0.00
44, 42346.63, 49389.15, 18531.58, 33682.94, 24426.59, 35436.92, 25833.43, 0.00, 0.00, 0.00, 0.00
45, 42351.41, 49329.49, 18548.91, 33744.45, 24693.96, 36061.72, 25897.91, 0.00, 0.00, 0.00, 0.00
46, 42367.93, 49293.71, 18484.18, 33653.48, 24625.18, 36069.88, 25860.16, 0.00, 0.00, 0.00, 0.00
47, 42296.74, 49320.64, 18465.18, 33584.70, 24240.15, 35188.08, 25775.72, 0.00, 0.00, 0.00, 0.00
48, 42280.20, 49321.31, 18528.12, 33658.24, 24395.77, 35355.23, 25833.65, 0.00, 0.00, 0.00, 0.00
49, 42300.36, 49290.71, 18545.09, 33712.11, 24636.79, 35929.02, 25895.52, 0.00, 0.00, 0.00, 0.00
50, 42333.44, 49255.78, 18495.13, 33671.76, 24697.98, 36201.96, 25881.02, 0.00, 0.00, 0.00, 0.00
51, 42272.47, 49284.90, 18447.34, 33575.92, 24263.89, 35281.91, 25775.45, 0.00, 0.15, 0.95, 0.25
52, 42260.17, 49299.63, 18512.81, 33639.24, 24364.14, 35283.81, 25818.41, 0.00, 0.00, 0.00, 0.00
53, 42285.63, 49283.34, 18541.46, 33701.20, 24590.18, 35797.12, 25880.37, 0.00, 0.00, 0.00, 0.00
54, 42339.97, 49257.75, 18520.30, 33693.33, 24754.67, 36270.71, 25891.08, 0.00, 0.00, 0.00, 0.00
55, 42296.63, 49280.32, 18451.72, 33575.54, 24316.55, 35413.63, 25782.87, 0.00, 0.00, 0.00, 0.00
56, 42269.92, 49307.97, 18513.19, 33624.84, 24327.26, 35218.97, 25802.34, 0.00, 0.00, 0.00, 0.00
57, 42290.30, 49297.87, 18543.39, 33687.90, 24539.22, 35679.33, 25865.01, 0.00, 0.00, 0.00, 0.00
58, 42349.76, 49270.91, 18539.72, 33712.49, 24773.38, 36279.83, 25898.74, 0.00, 0.00, 0.00, 0.00
59, 42328.46, 49289.91, 18462.59, 33595.43, 24390.29, 35582.97, 25797.49, 0.00, 0.00, 0.00, 0.00
60, 42286.91, 49323.32, 18508.23, 33621.70, 24296.41, 35173.66, 25795.23, 0.00, 0.15, 0.95, 0.25
61, 42300.29, 49313.85, 18541.91, 33679.41, 24495.77, 35575.32, 25854.62, 0.00, 0.00, 0.00, 0.00
62, 42361.92, 49290.29, 18550.49, 33726.64, 24764.35, 36228.27, 25900.20, 0.00, 0.00, 0.00, 0.00
63, 42357.92, 49290.47, 18469.27, 33614.83, 24474.31, 35764.22, 25808.80, 0.00, 0.00, 0.00, 0.00
64, 42300.56, 49327.04, 18495.04, 33610.05, 24264.56, 35145.19, 25779.81, 0.00, 0.00, 0.00, 0.00
65, 42308.09, 49326.92, 18538.76, 33675.43, 24461.41, 35489.05, 25841.30, 0.00, 0.00, 0.00, 0.00
66, 42354.90, 49299.45, 18552.30, 33730.48, 24734.28, 36137.88, 25888.19, 0.00, 0.00, 0.00, 0.00
67, 42369.32, 49288.16, 18477.47, 33636.29, 24566.42, 35944.46, 25826.97, 0.00, 0.00, 0.00, 0.00
68, 42309.26, 49328.80, 18479.68, 33602.85, 24250.55, 35159.47, 25781.66, 0.00, 0.00, 0.00, 0.00
69, 42312.97, 49333.83, 18536.93, 33676.81, 24431.89, 35419.11, 25839.24, 0.00, 0.00, 0.00, 0.00
70, 42347.41, 49305.73, 18557.27, 33731.87, 24689.02, 36020.82, 25887.90, 0.00, 0.15, 0.95, 0.26
71, 42375.96, 49284.05, 18494.64, 33668.30, 24653.41, 36104.79, 25845.34, 0.00, 0.00, 0.00, 0.00
72, 42314.38, 49322.36, 18472.51, 33600.08, 24253.54, 35209.90, 25762.02, 0.00, 0.00, 0.00, 0.00
73, 42306.02, 49333.18, 18532.90, 33665.37, 24394.65, 35338.71, 25811.64, 0.00, 0.00, 0.00, 0.00
74, 42336.48, 49314.68, 18551.03, 33721.16, 24628.96, 35883.15, 25867.81, 0.00, 0.00, 0.00, 0.00
75, 42386.46, 49290.49, 18514.13, 33695.95, 24721.95, 36219.75, 25868.25, 0.00, 0.00, 0.00, 0.00
76, 42329.46, 49316.51, 18460.04, 33599.70, 24280.14, 35310.30, 25768.41, 0.00, 0.00, 0.00, 0.00
77, 42309.88, 49338.97, 18524.25, 33655.49, 24360.14, 35267.12, 25810.88, 0.00, 0.00, 0.00, 0.00
78, 42331.81, 49326.03, 18549.91, 33712.29, 24577.57, 35760.18, 25868.10, 0.00, 0.00, 0.00, 0.00
79, 42383.22, 49292.95, 18530.91, 33714.61, 24761.89, 36266.66, 25881.60, 0.00, 0.00, 0.00, 0.00
80, 42334.40, 49306.79, 18456.46, 33592.21, 24329.61, 35433.53, 25775.47, 0.00, 0.14, 0.94, 0.25
81, 42303.29, 49337.72, 18514.17, 33638.10, 24320.66, 35189.07, 25789.51, 0.00, 0.00, 0.00, 0.00
82, 42321.86, 49324.42, 18545.94, 33700.71, 24532.80, 35635.09, 25854.62, 0.00, 0.00, 0.00, 0.00
83, 42380.89, 49296.37, 18546.16, 33733.81, 24778.54, 36256.41, 25892.93, 0.00, 0.00, 0.00, 0.00
84, 42357.94, 49307.70, 18465.11, 33612.95, 24412.53, 35614.42, 25795.34, 0.00, 0.00, 0.00, 0.00
85, 42307.96, 49338.03, 18508.05, 33629.45, 24292.90, 35154.35, 25788.99, 0.00, 0.00, 0.00, 0.00
86, 42310.04, 49321.34, 18538.04, 33686.25, 24490.65, 35541.53, 25845.72, 0.00, 0.00, 0.00, 0.00
87, 42359.59, 49290.29, 18547.32, 33733.18, 24761.11, 36192.88, 25890.27, 0.00, 0.00, 0.00, 0.00
88, 42360.20, 49292.19, 18470.38, 33623.71, 24499.14, 35796.68, 25813.00, 0.00, 0.00, 0.00, 0.00
89, 42302.44, 49330.81, 18494.55, 33608.44, 24261.72, 35133.41, 25773.73, 0.00, 0.00, 0.00, 0.00
90, 42312.28, 49334.01, 18545.91, 33678.18, 24462.35, 35461.60, 25845.16, 0.00, 0.14, 0.95, 0.25
91, 42359.82, 49310.47, 18561.36, 33734.13, 24732.12, 36107.10, 25906.72, 0.00, 0.00, 0.00, 0.00
92, 42376.18, 49291.50, 18484.51, 33639.53, 24592.97, 35981.73, 25839.53, 0.00, 0.00, 0.00, 0.00
93, 42309.37, 49323.21, 18478.05, 33591.12, 24249.65, 35158.22, 25772.77, 0.00, 0.00, 0.00, 0.00
94, 42306.64, 49326.68, 18535.09, 33659.96, 24423.06, 35384.40, 25833.94, 0.00, 0.00, 0.00, 0.00
95, 42339.95, 49300.82, 18554.67, 33716.24, 24675.01, 35973.19, 25889.67, 0.00, 0.00, 0.00, 0.00
96, 42376.54, 49279.22, 18500.29, 33659.34, 24674.94, 36127.10, 25862.24, 0.00, 0.00, 0.00, 0.00
97, 42313.28, 49315.30, 18469.16, 33581.28, 24261.03, 35215.89, 25772.86, 0.00, 0.00, 0.00, 0.00
98, 42303.54, 49332.04, 18533.06, 33645.99, 24389.57, 35300.62, 25814.05, 0.00, 0.00, 0.00, 0.00
99, 42334.47, 49316.21, 18554.16, 33700.57, 24617.56, 35834.25, 25871.67, 0.00, 0.00, 0.00, 0.00
100, 42384.63, 49285.84, 18525.10, 33681.46, 24741.95, 36219.64, 25879.54, 0.00, 0.14, 0.95, 0.25
101, 42326.38, 49305.46, 18467.08, 33575.89, 24299.34, 35316.89, 25775.72, 0.00, 0.00, 0.00, 0.00
102, 42305.05, 49329.43, 18533.69, 33631.20, 24361.57, 35230.66, 25808.87, 0.00, 0.00, 0.00, 0.00
103, 42323.16, 49314.90, 18557.74, 33684.28, 24575.79, 35714.49, 25871.38, 0.00, 0.00, 0.00, 0.00
104, 42379.87, 49287.11, 18539.50, 33696.62, 24776.86, 36258.42, 25894.36, 0.00, 0.00, 0.00, 0.00
105, 42341.78, 49303.61, 18461.51, 33576.43, 24356.25, 35470.61, 25784.10, 0.00, 0.00, 0.00, 0.00
106, 42302.89, 49328.09, 18513.57, 33609.20, 24315.08, 35166.38, 25787.59, 0.00, 0.00, 0.00, 0.00
107, 42318.69, 49314.29, 18542.43, 33667.61, 24513.25, 35594.21, 25841.83, 0.00, 0.00, 0.00, 0.00
108, 42376.74, 49285.75, 18545.38, 33705.51, 24770.40, 36228.45, 25886.02, 0.00, 0.00, 0.00, 0.00
109, 42359.68, 49293.13, 18463.95, 33590.94, 24427.37, 35642.02, 25797.78, 0.00, 0.15, 0.95, 0.25
110, 42304.90, 49324.96, 18500.18, 33602.32, 24276.38, 35127.00, 25784.81, 0.00, 0.00, 0.00, 0.00
111, 42312.90, 49317.91, 18539.18, 33661.59, 24475.52, 35498.14, 25842.66, 0.00, 0.00, 0.00, 0.00
112, 42364.33, 49293.26, 18550.85, 33713.98, 24749.66, 36156.32, 25887.37, 0.00, 0.00, 0.00, 0.00
113, 42368.56, 49292.19, 18472.71, 33609.98, 24519.08, 35833.49, 25807.59, 0.00, 0.00, 0.00, 0.00
114, 42310.93, 49333.67, 18491.33, 33590.58, 24250.84, 35117.65, 25764.92, 0.00, 0.00, 0.00, 0.00
115, 42312.16, 49332.62, 18536.55, 33649.05, 24439.64, 35412.18, 25821.99, 0.00, 0.00, 0.00, 0.00
116, 42354.27, 49310.14, 18554.88, 33706.07, 24706.03, 36044.00, 25876.52, 0.00, 0.00, 0.00, 0.00
117, 42384.58, 49301.31, 18489.94, 33633.99, 24612.11, 36013.00, 25836.04, 0.00, 0.00, 0.00, 0.00
118, 42319.94, 49337.43, 18475.19, 33574.80, 24245.61, 35152.97, 25758.71, 0.00, 0.00, 0.00, 0.00
119, 42312.32, 49342.66, 18530.85, 33637.23, 24404.39, 35336.70, 25806.63, 0.00, 0.15, 0.95, 0.25
120, 42347.41, 49322.32, 18554.00, 33699.66, 24651.63, 35911.90, 25864.01, 0.00, 0.00, 0.00, 0.00
121, 42390.21, 49301.98, 18507.36, 33657.93, 24693.67, 36137.47, 25855.71, 0.00, 0.00, 0.00, 0.00
122, 42324.50, 49331.48, 18468.20, 33567.91, 24266.39, 35219.17, 25767.11, 0.00, 0.00, 0.00, 0.00
123, 42307.80, 49343.22, 18532.21, 33631.98, 24378.06, 35265.04, 25814.68, 0.00, 0.00, 0.00, 0.00
124, 42333.71, 49325.11, 18554.83, 33698.74, 24606.97, 35791.11, 25874.85, 0.00, 0.00, 0.00, 0.00
125, 42390.28, 49301.71, 18530.20, 33690.76, 24755.88, 36232.36, 25883.63, 0.00, 0.00, 0.00, 0.00
126, 42334.79, 49321.94, 18465.42, 33575.52, 24311.59, 35353.51, 25775.88, 0.00, 0.00, 0.00, 0.00
127, 42303.09, 49343.55, 18524.32, 33628.67, 24344.83, 35202.86, 25799.37, 0.00, 0.00, 0.00, 0.00
128, 42326.40, 49334.59, 18554.94, 33690.58, 24560.59, 35674.97, 25862.29, 0.00, 0.00, 0.00, 0.00
129, 42377.92, 49300.59, 18542.63, 33703.57, 24781.98, 36260.36, 25893.60, 0.00, 0.15, 0.95, 0.24
130, 42344.28, 49314.65, 18465.18, 33582.76, 24377.95, 35520.14, 25788.68, 0.00, 0.00, 0.00, 0.00
131, 42302.75, 49347.29, 18515.63, 33615.57, 24308.77, 35162.33, 25790.74, 0.00, 0.00, 0.00, 0.00
132, 42314.78, 49336.31, 18546.78, 33677.06, 24512.24, 35580.63, 25850.82, 0.00, 0.00, 0.00, 0.00
133, 42366.37, 49306.34, 18551.12, 33715.62, 24769.15, 36227.04, 25890.16, 0.00, 0.00, 0.00, 0.00
134, 42355.35, 49313.04, 18468.49, 33596.39, 24449.46, 35707.43, 25801.53, 0.00, 0.00, 0.00, 0.00
135, 42300.77, 49349.07, 18503.09, 33599.68, 24267.56, 35138.26, 25786.63, 0.00, 0.00, 0.00, 0.00
136, 42309.19, 49342.26, 18543.70, 33662.96, 24466.15, 35498.68, 25849.88, 0.00, 0.00, 0.00, 0.00
137, 42353.29, 49309.18, 18552.84, 33711.48, 24731.67, 36152.25, 25902.29, 0.00, 0.00, 0.00, 0.00
138, 42363.98, 49299.54, 18475.62, 33610.88, 24537.07, 35896.92, 25836.67, 0.00, 0.00, 0.00, 0.00
139, 42302.64, 49334.48, 18482.61, 33577.17, 24242.54, 35140.81, 25785.04, 0.00, 0.15, 0.96, 0.24
140, 42307.85, 49335.62, 18537.66, 33642.35, 24427.19, 35410.75, 25837.12, 0.00, 0.00, 0.00, 0.00
141, 42345.85, 49308.93, 18555.28, 33700.82, 24692.26, 36035.08, 25892.17, 0.00, 0.00, 0.00, 0.00
142, 42376.20, 49295.39, 18495.20, 33635.84, 24633.48, 36073.66, 25856.70, 0.00, 0.00, 0.00, 0.00
143, 42314.09, 49333.45, 18475.68, 33574.13, 24247.71, 35185.63, 25782.04, 0.00, 0.00, 0.00, 0.00
144, 42309.01, 49343.46, 18537.08, 33643.80, 24403.59, 35347.70, 25833.90, 0.00, 0.00, 0.00, 0.00
145, 42339.19, 49318.86, 18558.88, 33697.46, 24646.35, 35916.19, 25891.95, 0.00, 0.00, 0.00, 0.00
146, 42389.10, 49299.70, 18521.71, 33667.80, 24721.56, 36201.15, 25882.94, 0.00, 0.00, 0.00, 0.00
147, 42332.35, 49331.44, 18476.76, 33574.02, 24282.85, 35274.32, 25782.67, 0.00, 0.00, 0.00, 0.00
148, 42309.08, 49341.34, 18529.77, 33630.57, 24366.44, 35263.14, 25812.80, 0.00, 0.00, 0.00, 0.00
149, 42340.89, 49334.70, 18558.38, 33698.32, 24590.20, 35776.27, 25870.33, 0.00, 0.15, 0.95, 0.24
150, 42398.91, 49309.98, 18538.07, 33700.39, 24766.02, 36272.12, 25898.74, 0.00, 0.00, 0.00, 0.00
151, 42351.95, 49330.19, 18469.76, 33583.83, 24326.86, 35424.41, 25798.72, 0.00, 0.00, 0.00, 0.00
152, 42318.98, 49352.98, 18527.20, 33628.49, 24335.71, 35218.01, 25817.47, 0.00, 0.00, 0.00, 0.00
153, 42336.17, 49335.15, 18554.00, 33686.34, 24545.14, 35676.47, 25879.90, 0.00, 0.00, 0.00, 0.00
154, 42395.02, 49304.88, 18547.79, 33710.48, 24780.02, 36276.30, 25910.14, 0.00, 0.00, 0.00, 0.00
155, 42364.15, 49317.25, 18465.09, 33587.21, 24393.55, 35581.81, 25803.77, 0.00, 0.00, 0.00, 0.00
156, 42315.67, 49349.90, 18509.48, 33609.91, 24293.66, 35162.67, 25797.80, 0.00, 0.00, 0.00, 0.00
157, 42328.95, 49342.05, 18546.09, 33670.42, 24496.93, 35563.88, 25863.72, 0.00, 0.00, 0.00, 0.00
158, 42380.20, 49310.36, 18555.68, 33714.59, 24767.54, 36217.49, 25914.25, 0.00, 0.14, 0.95, 0.24
159, 42374.68, 49310.18, 18474.70, 33602.92, 24478.31, 35761.00, 25829.54, 0.00, 0.00, 0.00, 0.00
160, 42315.89, 49346.75, 18502.86, 33593.69, 24265.16, 35130.70, 25797.06, 0.00, 0.00, 0.00, 0.00
161, 42320.77, 49340.89, 18545.60, 33653.32, 24463.45, 35469.82, 25858.75, 0.00, 0.00, 0.00, 0.00
162, 42367.98, 49317.85, 18565.25, 33712.49, 24739.98, 36121.54, 25912.47, 0.00, 0.00, 0.00, 0.00
163, 42381.52, 49305.22, 18490.88, 33616.26, 24574.63, 35944.98, 25841.01, 0.00, 0.00, 0.00, 0.00
164, 42314.82, 49339.86, 18489.72, 33574.91, 24248.49, 35142.71, 25775.92, 0.00, 0.00, 0.00, 0.00
165, 42312.81, 49340.91, 18544.19, 33644.14, 24427.57, 35385.98, 25833.21, 0.00, 0.00, 0.00, 0.00
166, 42351.55, 49320.08, 18565.85, 33707.19, 24687.14, 36002.58, 25901.47, 0.00, 0.00, 0.00, 0.00
167, 42383.00, 49298.09, 18506.37, 33646.37, 24663.25, 36113.54, 25873.44, 0.00, 0.00, 0.00, 0.00
168, 42312.81, 49325.00, 18473.58, 33569.37, 24253.32, 35208.20, 25779.67, 0.00, 0.15, 0.95, 0.24
169, 42302.46, 49336.85, 18533.84, 33636.34, 24388.95, 35321.88, 25821.20, 0.00, 0.00, 0.00, 0.00
170, 42334.25, 49319.52, 18555.43, 33696.50, 24626.79, 35876.07, 25885.04, 0.00, 0.00, 0.00, 0.00
171, 42383.42, 49293.44, 18515.65, 33671.40, 24729.05, 36226.12, 25888.19, 0.00, 0.00, 0.00, 0.00
172, 42321.20, 49313.85, 18462.99, 33568.47, 24290.73, 35313.99, 25790.94, 0.00, 0.00, 0.00, 0.00
173, 42293.32, 49323.23, 18524.23, 33624.18, 24359.49, 35253.01, 25822.16, 0.00, 0.00, 0.00, 0.00
174, 42314.76, 49303.27, 18548.68, 33680.30, 24575.99, 35745.27, 25879.50, 0.00, 0.00, 0.00, 0.00
175, 42370.61, 49275.43, 18530.51, 33683.70, 24767.10, 36267.71, 25897.27, 0.00, 0.00, 0.00, 0.00
176, 42326.56, 49296.35, 18458.70, 33565.73, 24338.41, 35449.26, 25790.87, 0.00, 0.00, 0.00, 0.00
177, 42293.48, 49323.91, 18514.02, 33610.77, 24319.39, 35190.16, 25813.87, 0.00, 0.00, 0.00, 0.00
178, 42314.76, 49312.71, 18543.92, 33673.75, 24530.88, 35636.03, 25878.98, 0.00, 0.15, 0.95, 0.24
179, 42367.24, 49279.16, 18542.04, 33695.07, 24780.46, 36253.84, 25906.83, 0.00, 0.00, 0.00, 0.00
180, 42343.12, 49285.33, 18459.14, 33572.41, 24419.64, 35624.63, 25811.97, 0.00, 0.00, 0.00, 0.00
181, 42293.50, 49317.63, 18501.63, 33593.69, 24290.02, 35160.05, 25809.42, 0.00, 0.00, 0.00, 0.00
182, 42301.84, 49306.80, 18536.66, 33656.05, 24490.43, 35551.54, 25873.60, 0.00, 0.00, 0.00, 0.00
183, 42349.54, 49277.97, 18545.31, 33702.61, 24761.40, 36209.54, 25922.05, 0.00, 0.00, 0.00, 0.00
184, 42352.13, 49276.88, 18469.11, 33597.31, 24510.27, 35832.10, 25839.85, 0.00, 0.00, 0.00, 0.00
185, 42290.53, 49311.16, 18485.50, 33582.29, 24262.77, 35151.16, 25798.45, 0.00, 0.00, 0.00, 0.00
186, 42294.84, 49312.59, 18528.61, 33649.79, 24450.55, 35463.34, 25860.86, 0.00, 0.00, 0.00, 0.00
187, 42343.01, 49290.58, 18546.00, 33707.73, 24720.83, 36098.34, 25912.15, 0.00, 0.00, 0.00, 0.00
188, 42364.73, 49274.71, 18475.08, 33618.61, 24597.49, 35999.43, 25859.98, 0.00, 0.15, 0.95, 0.24
189, 42296.96, 49309.76, 18467.44, 33566.82, 24247.89, 35164.93, 25794.00, 0.00, 0.00, 0.00, 0.00
190, 42294.77, 49316.57, 18525.21, 33636.71, 24417.02, 35379.75, 25852.68, 0.00, 0.00, 0.00, 0.00
191, 42328.57, 49293.29, 18544.53, 33694.98, 24669.13, 35971.51, 25908.42, 0.00, 0.00, 0.00, 0.00
192, 42366.12, 49269.64, 18489.45, 33645.95, 24678.25, 36145.47, 25876.95, 0.00, 0.00, 0.00, 0.00
193, 42305.86, 49308.30, 18456.01, 33573.77, 24260.63, 35239.27, 25791.54, 0.00, 0.00, 0.00, 0.00
194, 42292.36, 49320.57, 18525.04, 33637.81, 24388.46, 35311.57, 25845.19, 0.00, 0.00, 0.00, 0.00
195, 42316.77, 49299.39, 18545.51, 33693.38, 24614.46, 35847.70, 25899.84, 0.00, 0.00, 0.00, 0.00
196, 42369.81, 49280.25, 18513.64, 33678.47, 24736.96, 36243.57, 25896.75, 0.00, 0.00, 0.00, 0.00
197, 42314.45, 49305.84, 18452.46, 33566.42, 24294.15, 35343.16, 25784.90, 0.00, 0.00, 0.00, 0.00
198, 42293.84, 49330.54, 18514.75, 33617.78, 24343.55, 35227.55, 25813.16, 0.00, 0.15, 0.95, 0.25
199, 42316.41, 49317.65, 18542.47, 33676.66, 24556.68, 35712.52, 25870.98, 0.00, 0.00, 0.00, 0.00
200, 42374.28, 49287.25, 18532.21, 33685.11, 24764.03, 36266.02, 25897.78, 0.00, 0.00, 0.00, 0.00
201, 42339.41, 49303.57, 18456.86, 33562.73, 24352.40, 35497.12, 25800.15, 0.00, 0.00, 0.00, 0.00
202, 42299.65, 49330.81, 18507.54, 33594.20, 24302.78, 35177.98, 25806.85, 0.00, 0.00, 0.00, 0.00
203, 42315.05, 49320.84, 18539.79, 33656.90, 24509.54, 35607.67, 25872.10, 0.00, 0.00, 0.00, 0.00
204, 42367.37, 49288.48, 18541.75, 33691.57, 24773.20, 36249.43, 25919.06, 0.00, 0.00, 0.00, 0.00
205, 42347.97, 49286.18, 18456.86, 33565.08, 24435.28, 35675.39, 25822.14, 0.00, 0.00, 0.00, 0.00
206, 42294.50, 49322.88, 18493.68, 33575.89, 24273.23, 35141.77, 25801.04, 0.00, 0.00, 0.00, 0.00
207, 42305.68, 49321.58, 18539.23, 33645.88, 24476.77, 35518.35, 25865.46, 0.00, 0.15, 0.95, 0.24
208, 42352.62, 49290.71, 18552.04, 33697.91, 24753.97, 36176.61, 25919.24, 0.00, 0.00, 0.00, 0.00
209, 42353.74, 49280.32, 18470.72, 33588.95, 24531.98, 35866.86, 25840.45, 0.00, 0.00, 0.00, 0.00
210, 42287.44, 49312.64, 18477.70, 33558.33, 24252.58, 35135.85, 25789.67, 0.00, 0.00, 0.00, 0.00
211, 42295.27, 49317.02, 18530.22, 33631.91, 24446.77, 35430.62, 25856.07, 0.00, 0.00, 0.00, 0.00
212, 42334.34, 49287.52, 18547.50, 33685.89, 24712.78, 36061.05, 25910.74, 0.00, 0.00, 0.00, 0.00
213, 42356.49, 49265.01, 18478.28, 33605.02, 24623.08, 36031.35, 25857.95, 0.00, 0.00, 0.00, 0.00
214, 42291.02, 49300.82, 18466.88, 33546.68, 24252.74, 35157.44, 25779.14, 0.00, 0.00, 0.00, 0.00
215, 42286.91, 49309.13, 18527.18, 33610.56, 24415.08, 35336.21, 25832.96, 0.00, 0.00, 0.00, 0.00
216, 42317.48, 49283.94, 18550.83, 33664.36, 24656.61, 35911.90, 25890.07, 0.00, 0.00, 0.00, 0.00
217, 42367.20, 49267.22, 18508.18, 33624.15, 24697.83, 36155.04, 25872.05, 0.00, 0.15, 0.96, 0.24
218, 42313.46, 49306.18, 18473.58, 33539.33, 24267.69, 35238.66, 25782.94, 0.00, 0.00, 0.00, 0.00
219, 42305.26, 49325.11, 18538.07, 33604.64, 24375.43, 35274.74, 25827.98, 0.00, 0.00, 0.00, 0.00
220, 42336.68, 49314.56, 18559.79, 33672.79, 24602.65, 35806.06, 25896.46, 0.00, 0.00, 0.00, 0.00
221, 42399.54, 49297.96, 18535.03, 33673.26, 24755.72, 36263.54, 25909.02, 0.00, 0.00, 0.00, 0.00
222, 42350.72, 49328.09, 18470.77, 33567.51, 24312.71, 35391.55, 25798.36, 0.00, 0.00, 0.00, 0.00
223, 42319.70, 49354.73, 18529.15, 33618.12, 24335.28, 35221.63, 25816.98, 0.00, 0.00, 0.00, 0.00
224, 42335.81, 49337.92, 18555.72, 33675.67, 24543.40, 35683.51, 25871.16, 0.00, 0.00, 0.00, 0.00
225, 42386.68, 49302.07, 18543.30, 33690.54, 24766.80, 36271.88, 25896.57, 0.00, 0.00, 0.00, 0.00
226, 42346.79, 49308.64, 18460.21, 33563.18, 24372.30, 35543.59, 25795.25, 0.00, 0.00, 0.00, 0.00
227, 42299.20, 49336.69, 18509.39, 33590.09, 24295.83, 35157.04, 25795.32, 0.00, 0.15, 0.95, 0.25
228, 42304.23, 49318.41, 18539.54, 33641.92, 24496.17, 35567.73, 25859.54, 0.00, 0.00, 0.00, 0.00
229, 42355.28, 49284.32, 18542.80, 33678.67, 24762.47, 36216.44, 25900.33, 0.00, 0.00, 0.00, 0.00
230, 42344.33, 49281.75, 18462.96, 33557.30, 24460.54, 35709.91, 25809.96, 0.00, 0.00, 0.00, 0.00
231, 42286.55, 49309.20, 18495.80, 33552.29, 24270.57, 35116.71, 25788.01, 0.00, 0.00, 0.00, 0.00
232, 42292.63, 49301.60, 18536.32, 33611.73, 24465.99, 35467.48, 25847.91, 0.00, 0.00, 0.00, 0.00
233, 42339.63, 49272.39, 18552.15, 33667.61, 24741.84, 36131.17, 25906.97, 0.00, 0.00, 0.00, 0.00
234, 42354.03, 49265.05, 18476.46, 33572.92, 24558.82, 35904.23, 25841.12, 0.00, 0.00, 0.00, 0.00
235, 42287.04, 49297.98, 18477.18, 33535.30, 24249.12, 35127.04, 25778.13, 0.00, 0.00, 0.00, 0.00
236, 42288.14, 49301.91, 18532.26, 33598.89, 24428.98, 35382.32, 25833.10, 0.00, 0.00, 0.00, 0.00
237, 42327.72, 49282.04, 18556.91, 33652.54, 24687.68, 35992.10, 25887.52, 0.00, 0.14, 0.95, 0.24
238, 42358.52, 49263.18, 18495.71, 33582.55, 24632.29, 36043.39, 25845.43, 0.00, 0.00, 0.00, 0.00
239, 42294.44, 49294.87, 18468.55, 33508.64, 24237.96, 35150.00, 25761.03, 0.00, 0.00, 0.00, 0.00
240, 42285.88, 49301.91, 18527.32, 33571.18, 24381.15, 35286.05, 25809.80, 0.00, 0.00, 0.00, 0.00
241, 42316.19, 49284.30, 18550.63, 33636.22, 24623.46, 35847.46, 25870.91, 0.00, 0.00, 0.00, 0.00
242, 42367.26, 49268.29, 18511.69, 33610.79, 24705.45, 36160.14, 25870.87, 0.00, 0.00, 0.00, 0.00
243, 42305.48, 49296.70, 18459.54, 33507.99, 24267.27, 35244.21, 25771.76, 0.00, 0.00, 0.00, 0.00
244, 42284.49, 49313.18, 18517.10, 33567.20, 24356.49, 35225.90, 25811.84, 0.00, 0.00, 0.00, 0.00
245, 42308.90, 49298.92, 18539.43, 33629.43, 24578.40, 35733.75, 25874.96, 0.00, 0.00, 0.00, 0.00
246, 42360.76, 49271.65, 18516.23, 33632.24, 24756.70, 36237.00, 25891.84, 0.00, 0.14, 0.96, 0.24
247, 42309.88, 49286.76, 18443.34, 33511.54, 24318.09, 35390.95, 25773.62, 0.00, 0.00, 0.00, 0.00
248, 42276.11, 49310.09, 18502.17, 33553.75, 24314.61, 35163.83, 25787.18, 0.00, 0.00, 0.00, 0.00
249, 42295.58, 49298.58, 18533.46, 33615.10, 24526.30, 35617.91, 25854.66, 0.00, 0.00, 0.00, 0.00
250, 42350.81, 49268.03, 18530.40, 33642.39, 24770.96, 36239.02, 25903.97, 0.00, 0.00, 0.00, 0.00
251, 42323.65, 49275.67, 18452.77, 33518.43, 24392.03, 35562.85, 25799.81, 0.00, 0.00, 0.00, 0.00
252, 42271.59, 49300.30, 18497.54, 33537.25, 24283.78, 35120.47, 25787.74, 0.00, 0.00, 0.00, 0.00
253, 42281.43, 49289.42, 18534.96, 33600.21, 24489.93, 35522.91, 25846.53, 0.00, 0.00, 0.00, 0.00
254, 42332.37, 49260.85, 18545.29, 33649.03, 24764.68, 36183.29, 25896.44, 0.00, 0.00, 0.00, 0.00
255, 42328.28, 49259.78, 18465.02, 33536.42, 24489.89, 35752.29, 25814.52, 0.00, 0.00, 0.00, 0.00
0, 42274.46, 49300.19, 18487.57, 33523.46, 24267.36, 35098.50, 25779.00, 0.00, 0.15, 0.95, 0.23
1, 42277.90, 49299.41, 18535.25, 33585.46, 24464.54, 35432.66, 25834.59, 0.00, 0.00, 0.00, 0.00
2, 42318.76, 49271.76, 18556.37, 33644.02, 24743.65, 36086.02, 25895.63, 0.00, 0.00, 0.00, 0.00
3, 42332.84, 49259.64, 18479.21, 33556.83, 24592.10, 35931.88, 25832.85, 0.00, 0.00, 0.00, 0.00
4, 42264.55, 49292.70, 18474.19, 33513.73, 24253.65, 35112.87, 25757.72, 0.00, 0.00, 0.00, 0.00
5, 42270.12, 49303.10, 18536.99, 33586.96, 24433.56, 35352.97, 25816.71, 0.00, 0.00, 0.00, 0.00
6, 42310.49, 49283.36, 18562.21, 33652.56, 24690.05, 35966.41, 25875.09, 0.00, 0.00, 0.00, 0.00
7, 42350.09, 49265.46, 18503.56, 33594.13, 24671.21, 36088.75, 25843.85, 0.00, 0.00, 0.00, 0.00
8, 42286.59, 49299.61, 18473.52, 33514.54, 24266.71, 35176.28, 25768.95, 0.00, 0.00, 0.00, 0.00
9, 42276.82, 49309.13, 18532.66, 33585.04, 24401.76, 35285.82, 25824.94, 0.00, 0.00, 0.00, 0.00
10, 42306.69, 49290.89, 18551.43, 33649.16, 24634.01, 35843.01, 25881.82, 0.00, 0.15, 0.95, 0.24
11, 42358.10, 49264.54, 18511.07, 33625.54, 24741.23, 36206.18, 25874.76, 0.00, 0.00, 0.00, 0.00
12, 42304.34, 49291.14, 18456.30, 33523.50, 24300.23, 35296.18, 25777.82, 0.00, 0.00, 0.00, 0.00
13, 42282.59, 49312.39, 18519.78, 33587.29, 24368.47, 35232.67, 25811.77, 0.00, 0.00, 0.00, 0.00
14, 42306.15, 49296.10, 18545.69, 33648.29, 24583.43, 35724.08, 25869.39, 0.00, 0.00, 0.00, 0.00
15, 42367.51, 49268.79, 18530.40, 33659.22, 24779.12, 36255.33, 25896.02, 0.00, 0.00, 0.00, 0.00
16, 42329.82, 49289.98, 18456.48, 33540.45, 24355.00, 35450.56, 25795.10, 0.00, 0.00, 0.00, 0.00
17, 42293.57, 49318.83, 18512.36, 33583.41, 24327.15, 35173.24, 25802.90, 0.00, 0.00, 0.00, 0.00
18, 42314.96, 49310.56, 18546.67, 33647.40, 24536.54, 35616.07, 25869.17, 0.00, 0.00, 0.00, 0.00
19, 42372.13, 49282.09, 18549.47, 33683.16, 24789.45, 36245.52, 25912.80, 0.00, 0.00, 0.00, 0.00
20, 42349.71, 49288.97, 18465.78, 33558.26, 24430.63, 35627.74, 25806.45, 0.00, 0.15, 0.95, 0.24
21, 42299.51, 49327.82, 18506.21, 33570.17, 24288.01, 35126.91, 25786.16, 0.00, 0.00, 0.00, 0.00
22, 42308.45, 49318.14, 18546.14, 33629.99, 24491.05, 35509.19, 25852.43, 0.00, 0.00, 0.00, 0.00
23, 42359.57, 49287.23, 18558.45, 33675.38, 24764.79, 36165.81, 25902.94, 0.00, 0.00, 0.00, 0.00
24, 42359.91, 49276.86, 18478.23, 33562.62, 24514.99, 35804.66, 25818.57, 0.00, 0.00, 0.00, 0.00
25, 42303.63, 49317.04, 18500.00, 33548.49, 24260.45, 35108.80, 25777.13, 0.00, 0.00, 0.00, 0.00
26, 42306.73, 49316.21, 18549.40, 33616.17, 24451.44, 35412.54, 25834.68, 0.00, 0.00, 0.00, 0.00
27, 42345.65, 49289.57, 18561.67, 33670.51, 24715.48, 36044.51, 25882.74, 0.00, 0.00, 0.00, 0.00
28, 42366.84, 49273.43, 18490.35, 33588.64, 24599.77, 35971.31, 25832.00, 0.00, 0.00, 0.00, 0.00
29, 42297.99, 49304.28, 18482.43, 33531.95, 24245.72, 35128.92, 25761.68, 0.00, 0.00, 0.00, 0.00
30, 42293.72, 49310.14, 18540.28, 33598.47, 24415.88, 35336.68, 25821.09, 0.00, 0.16, 0.94, 0.25
31, 42327.68, 49289.42, 18561.74, 33663.36, 24671.92, 35930.32, 25884.62, 0.00, 0.00, 0.00, 0.00
32, 42372.22, 49271.98, 18508.85, 33617.83, 24690.14, 36128.44, 25862.78, 0.00, 0.00, 0.00, 0.00
33, 42309.82, 49307.75, 18464.87, 33534.97, 24265.41, 35211.84, 25772.90, 0.00, 0.00, 0.00, 0.00
34, 42291.02, 49315.90, 18520.10, 33595.32, 24380.97, 35269.58, 25821.38, 0.00, 0.00, 0.00, 0.00
35, 42319.74, 49298.52, 18544.55, 33660.18, 24611.19, 35806.60, 25884.06, 0.00, 0.00, 0.00, 0.00
36, 42373.90, 49275.74, 18512.25, 33649.75, 24746.55, 36224.91, 25889.31, 0.00, 0.00, 0.00, 0.00
37, 42322.51, 49303.21, 18448.73, 33536.69, 24304.21, 35327.36, 25785.02, 0.00, 0.00, 0.00, 0.00
38, 42293.25, 49326.30, 18511.92, 33589.62, 24349.65, 35199.70, 25814.10, 0.00, 0.00, 0.00, 0.00
39, 42310.78, 49310.16, 18537.93, 33647.51, 24563.16, 35674.25, 25876.23, 0.00, 0.15, 0.94, 0.24
40, 42365.34, 49278.02, 18525.17, 33663.04, 24777.85, 36241.96, 25906.70, 0.00, 0.00, 0.00, 0.00
41, 42328.52, 49293.33, 18450.76, 33540.27, 24370.40, 35480.84, 25799.12, 0.00, 0.00, 0.00, 0.00
42, 42286.32, 49317.80, 18503.38, 33568.95, 24313.04, 35145.30, 25797.27, 0.00, 0.00, 0.00, 0.00
43, 42293.77, 49300.08, 18533.39, 33623.44, 24513.69, 35567.01, 25849.21, 0.00, 0.00, 0.00, 0.00
44, 42350.65, 49275.52, 18539.21, 33665.50, 24775.34, 36213.63, 25890.27, 0.00, 0.00, 0.00, 0.00
45, 42337.04, 49276.95, 18457.69, 33548.00, 24452.88, 35665.87, 25806.03, 0.00, 0.00, 0.00, 0.00
46, 42278.50, 49305.84, 18490.73, 33548.47, 24281.01, 35110.99, 25790.43, 0.00, 0.00, 0.00, 0.00
47, 42283.31, 49299.34, 18531.14, 33609.29, 24483.07, 35472.60, 25853.66, 0.00, 0.00, 0.00, 0.00
48, 42331.61, 49272.70, 18545.44, 33662.93, 24760.46, 36134.30, 25907.93, 0.00, 0.00, 0.00, 0.00
49, 42336.71, 49264.29, 18467.08, 33559.73, 24547.38, 35848.46, 25829.14, 0.00, 0.15, 0.95, 0.24
50, 42273.81, 49300.41, 18480.73, 33533.25, 24264.20, 35102.54, 25779.34, 0.00, 0.00, 0.00, 0.00
51, 42277.45, 49304.10, 18537.96, 33605.13, 24453.90, 35394.21, 25842.66, 0.00, 0.00, 0.00, 0.00
52, 42317.55, 49278.49, 18554.36, 33665.73, 24716.76, 36031.95, 25896.91, 0.00, 0.00, 0.00, 0.00
53, 42349.63, 49265.01, 18487.39, 33595.99, 24639.27, 36029.07, 25853.08, 0.00, 0.00, 0.00, 0.00
54, 42282.59, 49298.16, 18468.42, 33534.03, 24260.05, 35152.27, 25780.79, 0.00, 0.00, 0.00, 0.00
55, 42279.80, 49308.53, 18523.87, 33600.23, 24412.91, 35325.77, 25831.66, 0.00, 0.00, 0.00, 0.00
56, 42317.55, 49292.14, 18544.91, 33664.16, 24654.60, 35902.38, 25888.48, 0.00, 0.00, 0.00, 0.00
57, 42364.58, 49271.25, 18499.29, 33628.40, 24711.10, 36167.54, 25879.21, 0.00, 0.00, 0.00, 0.00
58, 42302.38, 49301.00, 18456.26, 33537.20, 24278.60, 35250.24, 25784.81, 0.00, 0.00, 0.00, 0.00
59, 42287.38, 49318.09, 18519.36, 33598.27, 24379.11, 35265.93, 25828.15, 0.00, 0.15, 0.95, 0.25
60, 42315.07, 49304.39, 18543.99, 33655.67, 24603.86, 35783.31, 25886.65, 0.00, 0.00, 0.00, 0.00
61, 42368.98, 49276.63, 18520.12, 33650.64, 24765.04, 36242.86, 25898.67, 0.00, 0.00, 0.00, 0.00
62, 42317.42, 49295.43, 18450.74, 33531.82, 24321.36, 35365.35, 25785.60, 0.00, 0.00, 0.00, 0.00
63, 42285.95, 49317.13, 18511.45, 33579.36, 24339.64, 35182.83, 25807.39, 0.00, 0.00, 0.00, 0.00
64, 42304.21, 49303.05, 18540.48, 33639.82, 24550.08, 35649.60, 25871.36, 0.00, 0.00, 0.00, 0.00
65, 42363.06, 49274.64, 18532.14, 33662.24, 24783.90, 36250.41, 25905.47, 0.00, 0.00, 0.00, 0.00
66, 42327.50, 49283.20, 18450.43, 33532.78, 24384.25, 35524.99, 25800.86, 0.00, 0.00, 0.00, 0.00
67, 42279.39, 49311.32, 18498.95, 33559.51, 24295.14, 35130.04, 25800.37, 0.00, 0.00, 0.00, 0.00
68, 42293.10, 49299.21, 18531.00, 33615.70, 24501.82, 35541.53, 25855.74, 0.00, 0.00, 0.00, 0.00
69, 42350.88, 49272.83, 18538.83, 33658.48, 24776.97, 36196.55, 25899.61, 0.00, 0.14, 0.95, 0.24
70, 42339.03, 49272.00, 18456.19, 33541.21, 24475.81, 35705.05, 25812.98, 0.00, 0.00, 0.00, 0.00
71, 42279.38, 49305.42, 18486.55, 33539.06, 24271.78, 35092.35, 25778.58, 0.00, 0.00, 0.00, 0.00
72, 42288.45, 49304.10, 18531.52, 33607.77, 24472.90, 35446.22, 25840.43, 0.00, 0.00, 0.00, 0.00
73, 42337.62, 49278.13, 18546.14, 33664.70, 24746.29, 36107.45, 25898.09, 0.00, 0.00, 0.00, 0.00
74, 42358.19, 49271.82, 18472.98, 33570.31, 24568.16, 35895.58, 25834.08, 0.00, 0.00, 0.00, 0.00
75, 42289.72, 49303.27, 18473.25, 33529.49, 24249.59, 35102.45, 25769.15, 0.00, 0.00, 0.00, 0.00
76, 42289.99, 49307.07, 18525.44, 33598.49, 24431.35, 35364.10, 25831.64, 0.00, 0.00, 0.00, 0.00
77, 42333.73, 49286.80, 18545.89, 33658.51, 24693.83, 35985.28, 25896.26, 0.00, 0.00, 0.00, 0.00
78, 42370.95, 49269.39, 18484.96, 33591.90, 24651.36, 36059.31, 25860.41, 0.00, 0.15, 0.96, 0.23
79, 42304.65, 49305.29, 18460.13, 33523.39, 24252.13, 35156.14, 25777.89, 0.00, 0.00, 0.00, 0.00
80, 42295.38, 49314.92, 18522.40, 33593.13, 24400.46, 35289.38, 25831.44, 0.00, 0.00, 0.00, 0.00
81, 42323.34, 49292.19, 18540.10, 33653.99, 24639.02, 35853.36, 25889.27, 0.00, 0.00, 0.00, 0.00
82, 42369.21, 49266.42, 18497.86, 33622.52, 24719.46, 36170.95, 25880.01, 0.00, 0.00, 0.00, 0.00
83, 42309.75, 49295.16, 18448.41, 33518.52, 24272.85, 35245.37, 25778.47, 0.00, 0.00, 0.00, 0.00
84, 42289.14, 49310.92, 18513.93, 33574.06, 24354.84, 35214.75, 25808.35, 0.00, 0.00, 0.00, 0.00
85, 42310.75, 49291.03, 18539.70, 33626.52, 24575.18, 35721.55, 25877.84, 0.00, 0.00, 0.00, 0.00
86, 42368.91, 49264.32, 18520.83, 33629.47, 24761.31, 36231.35, 25893.27, 0.00, 0.00, 0.00, 0.00
87, 42326.58, 49289.46, 18451.65, 33514.34, 24327.48, 35390.59, 25783.43, 0.00, 0.00, 0.00, 0.00
88, 42288.79, 49314.56, 18506.89, 33556.94, 24320.11, 35150.62, 25802.03, 0.00, 0.15, 0.97, 0.23
89, 42308.68, 49306.52, 18538.04, 33619.50, 24532.94, 35606.42, 25863.56, 0.00, 0.00, 0.00, 0.00
90, 42367.20, 49277.19, 18534.54, 33651.51, 24778.81, 36233.92, 25896.22, 0.00, 0.00, 0.00, 0.00
92, 42286.35, 49318.88, 18492.02, 33547.38, 24286.15, 35105.78, 25786.78, 0.00, 0.00, 0.00, 0.00
93, 42291.64, 49304.53, 18525.59, 33603.81, 24487.72, 35503.46, 25844.88, 0.00, 0.00, 0.00, 0.00
94, 42346.92, 49275.92, 18538.51, 33655.82, 24764.73, 36174.55, 25900.73, 0.00, 0.00, 0.00, 0.00
95, 42345.45, 49272.14, 18455.14, 33541.14, 24490.29, 35759.62, 25820.04, 0.00, 0.00, 0.00, 0.00
96, 42289.07, 49312.48, 18476.60, 33531.77, 24253.52, 35095.21, 25778.80, 0.00, 0.00, 0.00, 0.00
97, 42296.45, 49313.58, 18523.98, 33600.53, 24450.68, 35424.81, 25842.88, 0.00, 0.00, 0.00, 0.00
98, 42340.26, 49288.90, 18537.64, 33659.67, 24727.00, 36081.28, 25903.30, 0.00, 0.15, 0.96, 0.23
99, 42361.16, 49277.77, 18462.79, 33571.76, 24583.59, 35942.81, 25842.21, 0.00, 0.00, 0.00, 0.00
100, 42298.71, 49316.57, 18461.60, 33528.15, 24245.58, 35112.82, 25776.95, 0.00, 0.00, 0.00, 0.00
101, 42297.55, 49320.98, 18519.89, 33598.09, 24424.64, 35352.03, 25837.19, 0.00, 0.00, 0.00, 0.00
102, 42328.73, 49294.54, 18537.26, 33658.55, 24679.21, 35959.06, 25893.65, 0.00, 0.00, 0.00, 0.00
103, 42367.42, 49276.74, 18483.78, 33603.12, 24672.55, 36101.31, 25866.20, 0.00, 0.00, 0.00, 0.00
104, 42307.65, 49314.72, 18452.33, 33523.66, 24254.44, 35184.30, 25783.36, 0.00, 0.00, 0.00, 0.00
105, 42293.05, 49325.67, 18512.68, 33585.68, 24384.79, 35278.90, 25829.52, 0.00, 0.00, 0.00, 0.00
106, 42319.83, 49307.70, 18537.11, 33647.11, 24621.56, 35828.46, 25882.18, 0.00, 0.00, 0.00, 0.00
107, 42369.18, 49278.64, 18499.04, 33623.82, 24733.52, 36205.67, 25879.83, 0.00, 0.00, 0.00, 0.00
108, 42306.48, 49297.35, 18438.04, 33521.67, 24282.11, 35291.57, 25783.56, 0.00, 0.14, 0.96, 0.22
109, 42278.08, 49313.49, 18501.95, 33568.68, 24340.09, 35207.28, 25809.18, 0.00, 0.00, 0.00, 0.00
110, 42303.04, 49303.27, 18527.58, 33618.79, 24557.39, 35694.28, 25865.04, 0.00, 0.00, 0.00, 0.00
111, 42358.01, 49274.71, 18509.72, 33638.39, 24765.26, 36241.03, 25890.31, 0.00, 0.00, 0.00, 0.00
112, 42317.66, 49294.58, 18434.29, 33521.89, 24339.19, 35435.36, 25786.31, 0.00, 0.00, 0.00, 0.00
113, 42273.36, 49310.76, 18487.51, 33555.36, 24303.59, 35139.91, 25793.55, 0.00, 0.00, 0.00, 0.00
114, 42284.94, 49293.71, 18517.71, 33612.06, 24508.29, 35577.25, 25842.64, 0.00, 0.00, 0.00, 0.00
115, 42340.02, 49263.49, 18518.29, 33648.16, 24770.04, 36223.82, 25888.64, 0.00, 0.00, 0.00, 0.00
116, 42320.79, 49273.50, 18435.12, 33525.38, 24414.68, 35623.45, 25796.62, 0.00, 0.00, 0.00, 0.00
117, 42266.79, 49305.36, 18471.50, 33536.29, 24260.07, 35106.39, 25777.33, 0.00, 0.00, 0.00, 0.00
118, 42279.62, 49302.79, 18512.88, 33603.79, 24465.84, 35493.03, 25843.04, 0.00, 0.15, 0.96, 0.22
119, 42335.68, 49283.56, 18528.66, 33662.17, 24752.63, 36161.84, 25903.64, 0.00, 0.00, 0.00, 0.00
120, 42339.81, 49282.31, 18446.85, 33558.28, 24516.00, 35823.95, 25829.03, 0.00, 0.00, 0.00, 0.00
121, 42277.52, 49319.10, 18458.40, 33535.84, 24250.35, 35105.07, 25782.63, 0.00, 0.00, 0.00, 0.00
122, 42283.11, 49319.55, 18508.45, 33606.54, 24445.03, 35415.06, 25848.43, 0.00, 0.00, 0.00, 0.00
123, 42322.25, 49290.60, 18524.48, 33661.55, 24714.26, 36054.35, 25907.21, 0.00, 0.00, 0.00, 0.00
124, 42348.64, 49275.45, 18452.71, 33574.91, 24606.81, 35994.76, 25848.36, 0.00, 0.00, 0.00, 0.00
125, 42282.52, 49309.02, 18440.39, 33518.41, 24236.64, 35128.65, 25771.74, 0.00, 0.00, 0.00, 0.00
126, 42279.87, 49313.45, 18502.42, 33587.99, 24406.23, 35330.93, 25829.07, 0.00, 0.00, 0.00, 0.00
127, 42314.33, 49290.58, 18527.92, 33650.75, 24660.63, 35932.33, 25891.10, 0.00, 0.15, 0.96, 0.22
128, 42353.00, 49266.55, 18479.10, 33600.10, 24692.22, 36144.91, 25878.38, 0.00, 0.00, 0.00, 0.00
129, 42284.49, 49293.48, 18437.86, 33503.16, 24259.04, 35206.10, 25780.41, 0.00, 0.00, 0.00, 0.00
130, 42271.26, 49309.96, 18505.30, 33566.35, 24376.77, 35254.18, 25825.00, 0.00, 0.00, 0.00, 0.00
131, 42293.05, 49288.34, 18525.53, 33623.50, 24605.45, 35786.50, 25885.93, 0.00, 0.00, 0.00, 0.00
132, 42349.80, 49262.77, 18497.30, 33612.11, 24749.10, 36217.47, 25894.81, 0.00, 0.00, 0.00, 0.00
133, 42293.93, 49285.98, 18432.32, 33498.80, 24300.37, 35317.90, 25787.86, 0.00, 0.00, 0.00, 0.00
134, 42263.79, 49307.48, 18492.85, 33550.62, 24337.14, 35178.70, 25808.20, 0.00, 0.00, 0.00, 0.00
135, 42288.70, 49296.88, 18521.62, 33616.15, 24554.49, 35670.79, 25875.70, 0.00, 0.00, 0.00, 0.00
136, 42348.08, 49267.94, 18512.70, 33641.30, 24778.14, 36258.24, 25910.54, 0.00, 0.00, 0.00, 0.00
137, 42307.31, 49277.26, 18428.97, 33514.50, 24363.49, 35492.73, 25797.91, 0.00, 0.14, 0.96, 0.22
138, 42266.03, 49308.98, 18476.18, 33551.06, 24294.91, 35143.56, 25799.46, 0.00, 0.00, 0.00, 0.00
139, 42288.11, 49308.48, 18513.93, 33620.51, 24508.49, 35577.00, 25869.30, 0.00, 0.00, 0.00, 0.00
140, 42344.20, 49278.73, 18518.87, 33656.38, 24775.52, 36227.59, 25912.24, 0.00, 0.00, 0.00, 0.00
141, 42328.35, 49277.39, 18431.94, 33525.80, 24440.38, 35675.77, 25814.68, 0.00, 0.00, 0.00, 0.00
162, 42311.43, 49290.09, 18415.36, 33488.05, 24363.02, 35527.94, 25791.61, 0.00, 0.00, 0.00, 0.00
163, 42266.10, 49322.50, 18467.03, 33519.19, 24276.63, 35120.38, 25802.88, 0.00, 0.00, 0.00, 0.00
164, 42281.41, 49311.79, 18503.33, 33585.15, 24487.36, 35541.26, 25865.97, 0.00, 0.00, 0.00, 0.00
165, 42337.51, 49283.76, 18511.56, 33631.86, 24762.49, 36207.99, 25912.29, 0.00, 0.00, 0.00, 0.00
166, 42324.66, 49283.23, 18425.21, 33512.04, 24460.59, 35730.22, 25816.22, 0.00, 0.00, 0.00, 0.00
167, 42267.19, 49317.85, 18453.85, 33509.24, 24248.71, 35105.16, 25787.70, 0.00, 0.15, 0.96, 0.23
168, 42278.90, 49315.17, 18504.16, 33578.00, 24454.82, 35459.07, 25857.30, 0.00, 0.00, 0.00, 0.00
169, 42323.86, 49286.24, 18518.93, 33628.33, 24729.50, 36113.04, 25906.14, 0.00, 0.00, 0.00, 0.00
170, 42342.16, 49279.52, 18447.34, 33533.02, 24555.25, 35916.88, 25839.71, 0.00, 0.00, 0.00, 0.00
171, 42282.32, 49320.24, 18453.40, 33494.87, 24234.12, 35111.37, 25778.73, 0.00, 0.00, 0.00, 0.00
172, 42285.01, 49322.97, 18509.68, 33561.57, 24418.01, 35367.45, 25834.10, 0.00, 0.00, 0.00, 0.00
173, 42323.56, 49297.69, 18533.35, 33619.13, 24682.54, 35987.25, 25895.79, 0.00, 0.00, 0.00, 0.00
174, 42353.76, 49276.07, 18470.77, 33549.48, 24641.95, 36069.03, 25849.81, 0.00, 0.00, 0.00, 0.00
175, 42285.32, 49309.20, 18444.73, 33475.74, 24234.68, 35151.45, 25766.89, 0.00, 0.00, 0.00, 0.00
176, 42275.73, 49320.87, 18506.10, 33547.93, 24383.85, 35288.57, 25825.07, 0.00, 0.15, 0.96, 0.23
177, 42304.79, 49307.75, 18531.21, 33612.53, 24627.38, 35859.59, 25890.31, 0.00, 0.00, 0.00, 0.00
178, 42358.03, 49288.05, 18496.31, 33589.62, 24720.54, 36201.24, 25886.52, 0.00, 0.00, 0.00, 0.00
179, 42303.43, 49318.54, 18442.22, 33491.00, 24274.31, 35268.68, 25786.11, 0.00, 0.00, 0.00, 0.00
180, 42284.67, 49338.95, 18500.61, 33548.49, 24355.33, 35223.84, 25821.99, 0.00, 0.00, 0.00, 0.00
181, 42315.49, 49330.48, 18527.27, 33617.83, 24579.12, 35738.45, 25882.76, 0.00, 0.00, 0.00, 0.00
182, 42379.80, 49312.28, 18511.94, 33633.38, 24769.13, 36269.95, 25904.71, 0.00, 0.00, 0.00, 0.00
183, 42331.61, 49327.30, 18434.91, 33507.52, 24323.30, 35421.95, 25787.59, 0.00, 0.00, 0.00, 0.00
184, 42291.33, 49345.68, 18487.89, 33544.25, 24301.29, 35158.38, 25793.55, 0.00, 0.00, 0.00, 0.00
185, 42305.44, 49328.58, 18513.14, 33603.90, 24515.19, 35614.13, 25857.37, 0.00, 0.00, 0.00, 0.00
186, 42359.86, 49295.12, 18508.16, 33633.70, 24769.26, 36250.97, 25898.99, 0.00, 0.16, 0.96, 0.23
187, 42330.69, 49301.73, 18422.13, 33504.97, 24394.42, 35593.97, 25797.24, 0.00, 0.00, 0.00, 0.00
188, 42277.05, 49328.87, 18463.63, 33517.56, 24269.03, 35118.23, 25781.26, 0.00, 0.00, 0.00, 0.00
189, 42286.79, 49317.25, 18501.88, 33576.97, 24473.04, 35513.70, 25846.60, 0.00, 0.00, 0.00, 0.00
190, 42336.35, 49287.63, 18510.51, 33623.04, 24749.95, 36178.80, 25896.46, 0.00, 0.00, 0.00, 0.00
191, 42334.40, 49284.12, 18428.59, 33512.37, 24483.63, 35775.60, 25823.26, 0.00, 0.00, 0.00, 0.00
192, 42270.95, 49318.36, 18452.08, 33497.46, 24240.80, 35099.28, 25793.91, 0.00, 0.00, 0.00, 0.00
193, 42272.91, 49312.39, 18494.48, 33558.04, 24432.96, 35424.45, 25849.77, 0.00, 0.00, 0.00, 0.00
194, 42314.85, 49285.91, 18512.25, 33617.98, 24709.25, 36084.45, 25906.07, 0.00, 0.00, 0.00, 0.00
195, 42335.10, 49273.43, 18442.65, 33529.34, 24572.26, 35972.45, 25855.63, 0.00, 0.00, 0.00, 0.00
196, 42268.38, 49308.91, 18437.91, 33476.45, 24224.62, 35127.11, 25786.00, 0.00, 0.15, 0.95, 0.23
197, 42266.84, 49314.52, 18492.13, 33544.89, 24398.76, 35355.56, 25838.06, 0.00, 0.00, 0.00, 0.00
198, 42302.20, 49292.84, 18511.76, 33606.16, 24657.30, 35962.77, 25899.57, 0.00, 0.00, 0.00, 0.00
199, 42342.90, 49276.83, 18457.80, 33555.36, 24659.27, 36128.60, 25882.00, 0.00, 0.00, 0.00, 0.00
200, 42278.57, 49311.72, 18422.08, 33469.99, 24235.10, 35196.96, 25790.29, 0.00, 0.00, 0.00, 0.00
201, 42266.79, 49319.93, 18486.48, 33535.28, 24368.01, 35280.82, 25834.23, 0.00, 0.00, 0.00, 0.00
202, 42294.84, 49302.22, 18510.82, 33595.90, 24604.11, 35824.21, 25891.23, 0.00, 0.00, 0.00, 0.00
203, 42351.04, 49278.18, 18477.29, 33577.88, 24723.78, 36224.00, 25892.88, 0.00, 0.00, 0.00, 0.00
204, 42295.78, 49307.25, 18420.50, 33470.53, 24272.27, 35312.87, 25792.46, 0.00, 0.00, 0.00, 0.00
205, 42274.55, 49331.39, 18487.98, 33529.98, 24333.43, 35220.49, 25824.42, 0.00, 0.00, 0.00, 0.00
206, 42296.14, 49315.97, 18517.28, 33594.69, 24552.16, 35712.57, 25883.83, 0.00, 0.15, 0.95, 0.24
207, 42350.39, 49284.37, 18502.91, 33603.54, 24758.94, 36267.80, 25904.98, 0.00, 0.00, 0.00, 0.00
208, 42307.98, 49303.27, 18427.31, 33479.98, 24330.07, 35466.65, 25799.92, 0.00, 0.00, 0.00, 0.00
209, 42268.69, 49332.11, 18481.65, 33519.10, 24289.62, 35161.80, 25811.08, 0.00, 0.00, 0.00, 0.00
210, 42287.09, 49319.99, 18511.38, 33582.73, 24494.61, 35598.17, 25869.04, 0.00, 0.00, 0.00, 0.00
211, 42340.84, 49288.70, 18510.51, 33617.22, 24756.86, 36245.79, 25908.15, 0.00, 0.00, 0.00, 0.00
212, 42317.57, 49295.86, 18421.23, 33488.48, 24401.76, 35644.50, 25807.05, 0.00, 0.00, 0.00, 0.00
213, 42267.77, 49339.20, 18463.48, 33502.45, 24250.59, 35114.07, 25789.78, 0.00, 0.00, 0.00, 0.00
214, 42277.18, 49330.05, 18501.70, 33564.50, 24455.51, 35495.53, 25848.38, 0.00, 0.00, 0.00, 0.00
215, 42325.84, 49296.95, 18513.37, 33609.63, 24733.05, 36160.61, 25900.73, 0.00, 0.15, 0.96, 0.23
216, 42331.92, 49289.64, 18434.85, 33498.60, 24501.42, 35833.13, 25824.36, 0.00, 0.00, 0.00, 0.00
217, 42271.98, 49328.91, 18451.83, 33478.24, 24231.21, 35102.39, 25775.27, 0.00, 0.00, 0.00, 0.00
218, 42276.56, 49329.38, 18500.70, 33546.64, 24419.39, 35407.02, 25841.43, 0.00, 0.00, 0.00, 0.00
219, 42319.92, 49302.79, 18518.96, 33606.76, 24684.75, 36051.20, 25903.30, 0.00, 0.00, 0.00, 0.00
220, 42344.28, 49285.21, 18452.21, 33527.48, 24594.94, 36009.73, 25850.19, 0.00, 0.00, 0.00, 0.00
221, 42274.59, 49319.03, 18441.17, 33465.57, 24226.36, 35132.63, 25776.14, 0.00, 0.00, 0.00, 0.00
222, 42269.81, 49327.41, 18500.96, 33535.64, 24394.67, 35328.25, 25832.25, 0.00, 0.00, 0.00, 0.00
223, 42304.52, 49303.99, 18520.90, 33597.04, 24646.57, 35919.16, 25889.58, 0.00, 0.00, 0.00, 0.00
224, 42349.98, 49280.81, 18470.36, 33553.50, 24685.09, 36153.12, 25870.69, 0.00, 0.00, 0.00, 0.00
