%OpenBCI Raw EEG Data
%
%Sample Rate = 250.0 Hz
%First Column = SampleIndex
%Other Columns = EEG data in microvolts followed by Accel Data (in G) interleaved with Aux Data
0, -5915.46, 42519.88, -14520.14, -22823.61, -34968.21, -11047.19, -21391.13, -28234.88, 0.05, 0.92, 0.35
1, -5922.94, 42429.67, -14349.04, -22800.25, -34987.86, -11052.31, -21341.15, -28253.52, 0.00, 0.00, 0.00
2, -5887.31, 42528.21, -14291.82, -22875.15, -35046.17, -11070.19, -21408.54, -28353.59, 0.00, 0.00, 0.00
3, -5869.37, 42649.54, -14424.50, -22900.57, -35031.04, -11068.87, -21463.35, -28337.23, 0.00, 0.00, 0.00
4, -5915.75, 42548.96, -14527.69, -22838.43, -34976.43, -11047.57, -21423.61, -28243.73, 0.00, 0.00, 0.00
5, -5942.81, 42418.83, -14394.05, -22812.26, -34986.13, -11044.38, -21396.36, -28241.07, 0.00, 0.00, 0.00
6, -5897.26, 42493.08, -14285.74, -22865.81, -35045.90, -11064.38, -21394.98, -28310.38, 0.00, 0.00, 0.00
7, -5861.10, 42632.04, -14384.62, -22886.08, -35033.16, -11045.99, -21412.10, -28325.72, 0.05, 0.90, 0.41
8, -5891.56, 42583.56, -14507.31, -22828.26, -34976.77, -11030.50, -21391.74, -28249.72, 0.00, 0.00, 0.00
9, -5939.01, 42427.50, -14412.34, -22785.46, -34978.29, -11030.41, -21340.35, -28226.38, 0.00, 0.00, 0.00
10, -5899.65, 42472.85, -14275.30, -22834.68, -35037.05, -11051.46, -21364.85, -28305.18, 0.00, 0.00, 0.00
11, -5858.64, 42615.81, -14348.57, -22880.81, -35040.85, -11038.45, -21423.01, -28327.10, 0.00, 0.00, 0.00
12, -5884.52, 42615.03, -14495.84, -22854.37, -35002.41, -11028.69, -21437.91, -28293.17, 0.00, 0.00, 0.00
13, -5937.27, 42443.61, -14457.20, -22794.60, -34984.82, -11034.27, -21377.68, -28235.37, 0.00, 0.00, 0.00
14, -5907.19, 42454.45, -14293.56, -22825.87, -35031.42, -11033.22, -21378.77, -28264.16, 0.00, 0.00, 0.00
15, -5872.92, 42583.78, -14343.56, -22887.74, -35060.39, -11033.04, -21447.41, -28354.04, 0.00, 0.00, 0.00
16, -5882.91, 42626.56, -14495.44, -22865.54, -35028.67, -11042.37, -21434.03, -28342.77, 0.00, 0.00, 0.00
17, -5938.10, 42463.60, -14487.53, -22789.97, -34987.88, -11024.26, -21331.28, -28213.31, 0.04, 0.90, 0.40
18, -5928.29, 42432.73, -14315.87, -22819.65, -35034.05, -11019.70, -21347.75, -28228.38, 0.00, 0.00, 0.00
19, -5882.84, 42554.34, -14318.57, -22874.57, -35059.16, -11031.37, -21388.36, -28304.17, 0.00, 0.00, 0.00
20, -5877.26, 42646.61, -14460.50, -22867.73, -35025.96, -11017.00, -21386.57, -28276.07, 0.00, 0.00, 0.00
21, -5932.96, 42498.24, -14507.89, -22807.92, -34988.44, -11021.35, -21359.19, -28217.11, 0.00, 0.00, 0.00
22, -5937.27, 42421.51, -14338.84, -22815.07, -35028.58, -11041.74, -21354.68, -28270.96, 0.00, 0.00, 0.00
23, -5891.18, 42527.41, -14299.91, -22874.19, -35070.54, -11047.73, -21411.50, -28351.31, 0.00, 0.00, 0.00
24, -5869.84, 42648.51, -14430.00, -22887.83, -35044.67, -11032.73, -21426.72, -28322.30, 0.00, 0.00, 0.00
25, -5914.18, 42539.39, -14512.72, -22822.67, -34992.35, -11031.64, -21369.63, -28219.12, 0.00, 0.00, 0.00
26, -5928.22, 42433.02, -14354.83, -22801.10, -35007.14, -11032.02, -21327.95, -28218.76, 0.00, 0.00, 0.00
27, -5892.17, 42511.54, -14285.11, -22870.68, -35069.91, -11040.22, -21390.64, -28309.71, 0.04, 0.89, 0.41
28, -5867.69, 42639.04, -14407.24, -22896.43, -35061.21, -11037.94, -21457.61, -28335.13, 0.00, 0.00, 0.00
29, -5902.42, 42566.32, -14519.47, -22832.24, -35006.54, -11034.54, -21408.72, -28250.44, 0.00, 0.00, 0.00
30, -5938.97, 42424.14, -14399.13, -22798.87, -35012.55, -11037.85, -21346.68, -28234.25, 0.00, 0.00, 0.00
31, -5890.20, 42487.11, -14269.69, -22846.61, -35060.48, -11049.16, -21368.24, -28303.59, 0.00, 0.00, 0.00
32, -5852.74, 42631.57, -14355.41, -22881.59, -35057.41, -11031.12, -21414.98, -28340.47, 0.00, 0.00, 0.00
33, -5885.08, 42604.26, -14497.61, -22842.43, -35015.95, -11029.40, -21406.22, -28272.32, 0.00, 0.00, 0.00
34, -5931.73, 42438.99, -14426.96, -22789.70, -35001.96, -11040.46, -21353.49, -28224.35, 0.00, 0.00, 0.00
35, -5897.53, 42465.03, -14280.39, -22833.47, -35053.68, -11053.34, -21367.02, -28285.97, 0.00, 0.00, 0.00
36, -5857.99, 42601.04, -14347.65, -22880.23, -35064.07, -11034.77, -21420.59, -28326.46, 0.00, 0.00, 0.00
37, -5871.94, 42620.02, -14490.90, -22849.27, -35024.36, -11036.02, -21415.99, -28285.39, 0.04, 0.89, 0.40
38, -5927.64, 42449.36, -14466.05, -22784.34, -34998.38, -11036.89, -21353.45, -28228.51, 0.00, 0.00, 0.00
39, -5907.70, 42444.84, -14293.92, -22804.39, -35038.26, -11026.32, -21337.00, -28259.82, 0.00, 0.00, 0.00
40, -5872.63, 42575.40, -14321.50, -22863.71, -35070.64, -11020.73, -21374.68, -28332.18, 0.00, 0.00, 0.00
41, -5873.26, 42638.84, -14462.41, -22844.18, -35036.83, -11017.98, -21372.78, -28291.72, 0.00, 0.00, 0.00
42, -5926.54, 42481.63, -14481.56, -22780.47, -34993.75, -11011.90, -21327.43, -28205.58, 0.00, 0.00, 0.00
43, -5922.03, 42433.91, -14312.87, -22790.33, -35033.45, -11027.84, -21312.70, -28257.25, 0.00, 0.00, 0.00
44, -5880.21, 42552.47, -14308.87, -22859.24, -35072.16, -11035.17, -21379.96, -28327.28, 0.00, 0.00, 0.00
45, -5861.79, 42653.25, -14443.74, -22855.13, -35034.93, -11013.75, -21412.01, -28291.76, 0.00, 0.00, 0.00
46, -5919.17, 42515.16, -14510.66, -22796.70, -34994.25, -11006.69, -21385.10, -28234.66, 0.00, 0.00, 0.00
47, -5926.59, 42424.91, -14346.87, -22786.98, -35019.13, -11015.68, -21342.54, -28246.61, 0.04, 0.90, 0.41
48, -5879.83, 42522.23, -14289.83, -22849.18, -35066.11, -11020.91, -21380.96, -28314.76, 0.00, 0.00, 0.00
49, -5861.97, 42642.86, -14423.80, -22873.34, -35057.55, -11011.61, -21430.94, -28323.82, 0.00, 0.00, 0.00
50, -5898.51, 42545.23, -14515.25, -22794.49, -34997.40, -11005.22, -21360.82, -28227.97, 0.00, 0.00, 0.00
51, -5919.66, 42428.08, -14366.96, -22763.31, -35001.40, -11005.06, -21305.06, -28215.86, 0.00, 0.00, 0.00
52, -5877.28, 42503.65, -14268.48, -22828.10, -35050.35, -11014.67, -21353.40, -28295.05, 0.00, 0.00, 0.00
53, -5854.48, 42632.31, -14383.59, -22871.60, -35061.48, -11013.29, -21415.29, -28346.08, 0.00, 0.00, 0.00
54, -5894.80, 42575.89, -14521.57, -22830.38, -35024.80, -11021.11, -21404.79, -28298.18, 0.00, 0.00, 0.00
55, -5934.28, 42431.05, -14426.75, -22775.89, -35008.22, -11012.64, -21328.48, -28212.82, 0.00, 0.00, 0.00
56, -5877.79, 42488.45, -14282.79, -22798.64, -35037.45, -10996.63, -21307.29, -28233.29, 0.00, 0.00, 0.00
57, -5822.67, 42639.10, -14353.17, -22838.27, -35030.70, -10978.71, -21363.13, -28272.05, 0.04, 0.89, 0.42
58, -5838.12, 42643.95, -14491.26, -22816.53, -34983.03, -10980.94, -21405.17, -28241.34, 0.00, 0.00, 0.00
59, -5891.63, 42487.96, -14443.85, -22776.36, -34966.22, -10989.48, -21344.73, -28193.57, 0.00, 0.00, 0.00
60, -5858.08, 42513.33, -14285.94, -22803.54, -35014.52, -10999.81, -21286.77, -28237.81, 0.00, 0.00, 0.00
61, -5808.50, 42658.39, -14327.40, -22851.10, -35026.99, -10987.11, -21360.13, -28285.66, 0.00, 0.00, 0.00
62, -5809.33, 42701.87, -14464.86, -22823.10, -34985.80, -10976.79, -21383.44, -28248.83, 0.00, 0.00, 0.00
63, -5859.71, 42542.52, -14449.89, -22752.15, -34946.86, -10975.44, -21321.37, -28187.29, 0.00, 0.00, 0.00
64, -5840.47, 42521.98, -14273.38, -22762.93, -34987.65, -10987.87, -21296.25, -28234.21, 0.00, 0.00, 0.00
65, -5808.46, 42640.51, -14291.24, -22832.66, -35032.09, -10998.98, -21366.97, -28326.54, 0.00, 0.00, 0.00
66, -5814.72, 42713.09, -14453.55, -22842.70, -35015.57, -11007.47, -21413.11, -28316.75, 0.00, 0.00, 0.00
67, -5856.54, 42567.69, -14491.15, -22767.87, -34955.36, -11002.22, -21362.66, -28183.69, 0.04, 0.89, 0.42
68, -5851.19, 42511.74, -14311.51, -22772.61, -34983.43, -11003.90, -21312.14, -28203.90, 0.00, 0.00, 0.00
69, -5808.17, 42622.14, -14282.90, -22832.91, -35022.59, -11007.81, -21331.86, -28271.16, 0.00, 0.00, 0.00
70, -5786.08, 42738.79, -14408.65, -22836.64, -34989.00, -10995.49, -21363.42, -28256.67, 0.00, 0.00, 0.00
71, -5836.53, 42618.72, -14490.10, -22776.85, -34951.73, -11008.28, -21329.75, -28198.04, 0.00, 0.00, 0.00
72, -5853.61, 42513.33, -14345.84, -22759.35, -34979.72, -11025.27, -21280.42, -28209.11, 0.00, 0.00, 0.00
73, -5807.32, 42605.84, -14269.51, -22818.92, -35020.78, -11017.22, -21329.60, -28257.50, 0.00, 0.00, 0.00
74, -5777.52, 42737.41, -14386.74, -22839.77, -35002.05, -10991.63, -21370.84, -28251.49, 0.00, 0.00, 0.00
75, -5821.31, 42650.17, -14500.63, -22792.47, -34961.75, -10997.64, -21368.20, -28210.85, 0.00, 0.00, 0.00
76, -5853.07, 42514.49, -14386.97, -22772.78, -34966.84, -11000.72, -21340.24, -28203.79, 0.00, 0.00, 0.00
77, -5812.10, 42582.39, -14274.94, -22824.13, -35012.73, -10995.65, -21320.63, -28259.89, 0.04, 0.90, 0.41
78, -5777.17, 42720.39, -14361.98, -22842.74, -35000.46, -10984.36, -21348.02, -28274.75, 0.00, 0.00, 0.00
79, -5809.98, 42681.97, -14493.38, -22802.56, -34954.19, -10976.79, -21370.79, -28210.94, 0.00, 0.00, 0.00
80, -5855.31, 42527.34, -14413.77, -22758.48, -34944.61, -10975.58, -21306.17, -28176.83, 0.00, 0.00, 0.00
81, -5812.71, 42574.55, -14262.67, -22788.52, -34993.67, -10982.13, -21279.22, -28231.62, 0.00, 0.00, 0.00
82, -5777.05, 42709.76, -14333.61, -22843.08, -35008.38, -10984.76, -21369.29, -28315.81, 0.00, 0.00, 0.00
83, -5797.22, 42715.86, -14481.16, -22815.23, -34974.89, -10997.93, -21402.04, -28309.27, 0.00, 0.00, 0.00
84, -5846.08, 42551.24, -14442.22, -22751.26, -34951.58, -10994.51, -21327.54, -28194.96, 0.00, 0.00, 0.00
85, -5819.92, 42560.36, -14272.35, -22782.71, -34989.44, -10971.13, -21306.31, -28182.13, 0.00, 0.00, 0.00
86, -5780.94, 42688.90, -14308.16, -22841.45, -35007.17, -10959.44, -21366.46, -28254.01, 0.00, 0.00, 0.00
87, -5785.91, 42737.50, -14456.97, -22833.89, -34981.84, -10965.18, -21386.53, -28239.51, 0.04, 0.89, 0.42
88, -5833.47, 42577.05, -14464.93, -22754.59, -34935.20, -10973.12, -21297.48, -28172.00, 0.00, 0.00, 0.00
89, -5824.35, 42549.56, -14288.62, -22771.53, -34976.21, -10971.06, -21269.99, -28214.65, 0.00, 0.00, 0.00
90, -5782.26, 42671.18, -14289.78, -22841.20, -35015.77, -10973.30, -21339.59, -28287.63, 0.00, 0.00, 0.00
91, -5772.34, 42753.14, -14436.03, -22844.20, -34988.44, -10981.84, -21385.52, -28287.76, 0.00, 0.00, 0.00
92, -5831.88, 42604.68, -14496.31, -22787.09, -34950.28, -10993.84, -21351.97, -28216.86, 0.00, 0.00, 0.00
93, -5838.41, 42530.34, -14326.82, -22772.58, -34971.67, -10992.41, -21280.34, -28202.76, 0.00, 0.00, 0.00
94, -5793.48, 42639.77, -14279.77, -22835.08, -35012.64, -10982.71, -21333.51, -28253.23, 0.00, 0.00, 0.00
95, -5777.75, 42750.59, -14417.43, -22846.48, -34997.29, -10978.44, -21380.09, -28266.04, 0.00, 0.00, 0.00
96, -5824.84, 42633.25, -14505.41, -22780.05, -34948.45, -10990.62, -21353.04, -28200.05, 0.00, 0.00, 0.00
97, -5845.07, 42524.77, -14356.10, -22765.63, -34959.36, -10999.34, -21322.54, -28211.21, 0.04, 0.88, 0.42
98, -5801.17, 42618.94, -14267.70, -22829.98, -35011.55, -11001.35, -21363.93, -28281.68, 0.00, 0.00, 0.00
99, -5775.78, 42747.35, -14381.80, -22857.05, -35007.84, -10989.15, -21395.45, -28283.72, 0.00, 0.00, 0.00
100, -5814.74, 42668.47, -14504.58, -22798.29, -34958.80, -10997.62, -21359.08, -28215.88, 0.00, 0.00, 0.00
101, -5853.45, 42520.77, -14397.81, -22757.05, -34959.60, -10994.04, -21300.85, -28203.47, 0.00, 0.00, 0.00
102, -5814.14, 42588.25, -14268.26, -22811.94, -35018.45, -10994.82, -21328.03, -28282.85, 0.00, 0.00, 0.00
103, -5789.17, 42723.30, -14364.55, -22855.35, -35029.45, -10984.29, -21374.50, -28297.24, 0.00, 0.00, 0.00
104, -5809.31, 42694.38, -14503.76, -22807.16, -34975.34, -10984.97, -21368.24, -28234.03, 0.00, 0.00, 0.00
105, -5859.44, 42528.62, -14434.62, -22751.17, -34961.68, -10983.13, -21314.87, -28192.08, 0.00, 0.00, 0.00
106, -5825.74, 42570.08, -14273.47, -22794.91, -35015.62, -10981.14, -21320.03, -28241.99, 0.00, 0.00, 0.00
107, -5791.47, 42704.82, -14333.99, -22858.37, -35039.64, -10979.60, -21403.54, -28299.23, 0.04, 0.89, 0.43
108, -5811.19, 42714.03, -14489.47, -22834.32, -35005.80, -10978.01, -21383.94, -28239.21, 0.00, 0.00, 0.00
109, -5861.28, 42541.09, -14471.23, -22756.67, -34969.35, -10983.78, -21279.40, -28184.36, 0.00, 0.00, 0.00
110, -5823.99, 42549.85, -14276.39, -22767.02, -34998.34, -10972.05, -21261.49, -28205.84, 0.00, 0.00, 0.00
111, -5781.37, 42683.96, -14292.53, -22834.03, -35031.44, -10966.48, -21343.21, -28282.22, 0.00, 0.00, 0.00
112, -5789.66, 42741.09, -14451.01, -22836.13, -35006.16, -10969.77, -21368.80, -28259.11, 0.00, 0.00, 0.00
113, -5849.61, 42571.96, -14488.36, -22767.93, -34969.10, -10974.86, -21305.01, -28183.25, 0.00, 0.00, 0.00
114, -5846.68, 42525.96, -14320.29, -22782.15, -35009.56, -10987.60, -21303.47, -28224.04, 0.00, 0.00, 0.00
115, -5799.70, 42644.69, -14298.03, -22832.51, -35044.34, -10992.90, -21354.88, -28288.46, 0.00, 0.00, 0.00
116, -5792.54, 42735.66, -14434.80, -22842.57, -35022.50, -10979.38, -21395.58, -28262.82, 0.00, 0.00, 0.00
117, -5847.98, 42590.73, -14507.49, -22781.66, -34974.00, -10995.25, -21363.82, -28207.07, 0.04, 0.88, 0.43
118, -5854.01, 42507.56, -14340.59, -22768.78, -34987.90, -11007.88, -21321.17, -28243.17, 0.00, 0.00, 0.00
119, -5803.94, 42620.89, -14274.54, -22832.69, -35031.02, -11005.57, -21350.94, -28284.90, 0.00, 0.00, 0.00
120, -5777.90, 42740.98, -14404.40, -22851.10, -35009.49, -10991.20, -21398.78, -28256.61, 0.00, 0.00, 0.00
121, -5829.25, 42632.42, -14517.21, -22793.73, -34967.96, -10991.45, -21354.81, -28202.69, 0.00, 0.00, 0.00
122, -5860.34, 42502.02, -14390.19, -22762.66, -34977.64, -11001.66, -21298.44, -28211.70, 0.00, 0.00, 0.00
123, -5812.84, 42588.10, -14282.27, -22813.66, -35028.04, -11000.32, -21331.59, -28272.47, 0.00, 0.00, 0.00
124, -5788.30, 42718.07, -14398.37, -22855.64, -35036.13, -10991.42, -21399.76, -28298.04, 0.00, 0.00, 0.00
125, -5817.44, 42659.51, -14524.41, -22800.37, -34980.50, -11000.77, -21378.59, -28236.82, 0.00, 0.00, 0.00
126, -5857.39, 42509.15, -14433.44, -22754.37, -34969.14, -11002.82, -21331.99, -28197.64, 0.00, 0.00, 0.00
127, -5813.06, 42572.72, -14287.93, -22805.04, -35021.38, -11012.12, -21346.72, -28279.63, 0.03, 0.88, 0.42
128, -5774.37, 42715.77, -14369.24, -22861.86, -35033.65, -11003.12, -21375.64, -28322.36, 0.00, 0.00, 0.00
129, -5778.17, 42719.34, -14505.25, -22813.02, -34978.80, -10987.40, -21331.30, -28219.39, 0.00, 0.00, 0.00
130, -5839.84, 42538.88, -14455.81, -22747.28, -34960.38, -10983.22, -21282.46, -28178.40, 0.00, 0.00, 0.00
131, -5836.80, 42537.63, -14291.30, -22791.94, -35022.97, -10988.12, -21328.39, -28244.60, 0.00, 0.00, 0.00
132, -5803.65, 42660.79, -14329.70, -22852.18, -35048.81, -10995.92, -21388.38, -28281.04, 0.00, 0.00, 0.00
133, -5820.75, 42692.19, -14480.06, -22839.37, -35015.88, -11003.23, -21366.81, -28244.71, 0.00, 0.00, 0.00
134, -5884.99, 42507.79, -14481.16, -22771.31, -34982.11, -11002.24, -21295.15, -28175.07, 0.00, 0.00, 0.00
135, -5875.31, 42477.12, -14293.45, -22779.96, -35027.29, -11005.89, -21280.25, -28224.42, 0.00, 0.00, 0.00
136, -5838.32, 42594.11, -14296.82, -22836.31, -35063.85, -11007.27, -21326.89, -28284.03, 0.00, 0.00, 0.00
137, -5839.64, 42660.54, -14442.02, -22832.78, -35041.41, -10997.15, -21362.57, -28257.66, 0.03, 0.89, 0.43
138, -5902.78, 42497.50, -14493.41, -22764.29, -35004.11, -11004.10, -21319.81, -28192.93, 0.00, 0.00, 0.00
139, -5911.59, 42427.36, -14323.67, -22769.25, -35038.62, -11012.77, -21297.55, -28225.47, 0.00, 0.00, 0.00
140, -5869.70, 42537.65, -14294.23, -22842.37, -35086.07, -11026.25, -21354.56, -28308.24, 0.00, 0.00, 0.00
141, -5855.71, 42646.05, -14438.65, -22859.04, -35066.45, -11024.93, -21392.23, -28307.05, 0.00, 0.00, 0.00
142, -5905.51, 42523.54, -14528.34, -22798.15, -35015.86, -11028.40, -21360.51, -28228.75, 0.00, 0.00, 0.00
143, -5916.31, 42424.57, -14372.01, -22775.85, -35020.80, -11024.71, -21305.64, -28224.91, 0.00, 0.00, 0.00
144, -5867.42, 42521.60, -14290.16, -22843.62, -35068.57, -11033.65, -21367.39, -28305.55, 0.00, 0.00, 0.00
145, -5841.34, 42647.46, -14403.78, -22865.65, -35062.40, -11024.37, -21411.85, -28301.26, 0.00, 0.00, 0.00
146, -5877.88, 42568.63, -14517.59, -22796.61, -35017.00, -11027.12, -21350.18, -28228.49, 0.00, 0.00, 0.00
147, -5906.00, 42437.87, -14403.24, -22761.29, -35017.85, -11037.34, -21304.27, -28223.81, 0.02, 0.89, 0.43
148, -5861.32, 42513.78, -14277.65, -22822.00, -35074.40, -11043.93, -21323.00, -28278.82, 0.00, 0.00, 0.00
149, -5830.68, 42647.86, -14376.62, -22874.75, -35083.39, -11050.63, -21404.07, -28322.83, 0.00, 0.00, 0.00
150, -5857.07, 42614.14, -14519.45, -22833.78, -35035.17, -11053.43, -21378.53, -28237.72, 0.00, 0.00, 0.00
151, -5894.98, 42455.71, -14438.33, -22761.16, -35005.45, -11045.34, -21279.31, -28170.19, 0.00, 0.00, 0.00
152, -5863.96, 42498.40, -14278.79, -22813.02, -35062.00, -11050.08, -21317.19, -28258.95, 0.00, 0.00, 0.00
153, -5829.18, 42631.17, -14339.22, -22865.23, -35079.96, -11045.27, -21375.58, -28306.18, 0.00, 0.00, 0.00
154, -5847.60, 42636.75, -14487.04, -22829.18, -35042.35, -11040.71, -21358.68, -28264.94, 0.00, 0.00, 0.00
155, -5902.34, 42467.04, -14466.76, -22767.58, -35010.48, -11038.72, -21323.83, -28213.35, 0.00, 0.00, 0.00
156, -5881.44, 42469.92, -14302.23, -22811.61, -35062.42, -11044.04, -21335.66, -28261.10, 0.00, 0.00, 0.00
157, -5836.40, 42601.37, -14335.07, -22866.97, -35085.98, -11037.67, -21366.68, -28311.54, 0.03, 0.89, 0.42
158, -5828.98, 42667.22, -14476.15, -22843.24, -35042.97, -11032.04, -21371.15, -28272.59, 0.00, 0.00, 0.00
159, -5885.64, 42510.25, -14500.05, -22780.38, -35006.81, -11028.37, -21313.42, -28195.38, 0.00, 0.00, 0.00
160, -5868.56, 42474.26, -14316.94, -22783.83, -35037.90, -11030.05, -21287.94, -28232.76, 0.00, 0.00, 0.00
161, -5830.27, 42590.69, -14306.59, -22857.50, -35083.27, -11034.54, -21349.20, -28312.82, 0.00, 0.00, 0.00
162, -5821.69, 42679.56, -14451.36, -22859.55, -35058.11, -11027.79, -21385.50, -28291.70, 0.00, 0.00, 0.00
163, -5869.66, 42541.16, -14509.81, -22782.10, -35006.70, -11019.10, -21321.22, -28192.54, 0.00, 0.00, 0.00
164, -5875.87, 42464.13, -14334.80, -22773.10, -35027.35, -11007.88, -21275.48, -28191.79, 0.00, 0.00, 0.00
165, -5833.29, 42565.70, -14285.29, -22852.00, -35083.57, -11016.53, -21341.54, -28282.76, 0.00, 0.00, 0.00
166, -5813.62, 42680.45, -14418.33, -22872.94, -35073.55, -11026.54, -21392.00, -28296.90, 0.00, 0.00, 0.00
167, -5862.21, 42574.15, -14524.83, -22820.04, -35028.56, -11038.10, -21365.61, -28235.75, 0.03, 0.88, 0.42
168, -5882.46, 42458.50, -14382.32, -22783.29, -35031.53, -11030.36, -21315.16, -28225.98, 0.00, 0.00, 0.00
169, -5841.49, 42541.92, -14283.35, -22841.72, -35085.35, -11032.87, -21322.16, -28300.97, 0.00, 0.00, 0.00
170, -5817.20, 42666.80, -14397.43, -22878.22, -35081.87, -11031.39, -21369.41, -28311.54, 0.00, 0.00, 0.00
171, -5850.93, 42607.63, -14527.99, -22826.79, -35031.93, -11033.09, -21351.86, -28235.62, 0.00, 0.00, 0.00
172, -5889.84, 42459.11, -14430.51, -22786.64, -35026.61, -11026.16, -21310.02, -28202.94, 0.00, 0.00, 0.00
173, -5847.51, 42515.43, -14286.54, -22840.73, -35078.18, -11038.50, -21359.04, -28283.54, 0.00, 0.00, 0.00
174, -5816.06, 42651.60, -14371.10, -22894.02, -35090.65, -11038.50, -21437.20, -28327.91, 0.00, 0.00, 0.00
175, -5843.51, 42639.41, -14524.19, -22850.77, -35055.45, -11042.90, -21395.80, -28271.87, 0.00, 0.00, 0.00
176, -5886.38, 42474.68, -14465.09, -22774.35, -35024.42, -11046.52, -21315.99, -28206.54, 0.00, 0.00, 0.00
177, -5857.88, 42498.82, -14303.35, -22812.17, -35076.23, -11050.77, -21309.95, -28262.69, 0.03, 0.89, 0.42
178, -5813.89, 42632.15, -14344.92, -22865.14, -35092.24, -11046.12, -21346.38, -28307.03, 0.00, 0.00, 0.00
179, -5827.19, 42666.15, -14488.51, -22847.10, -35055.94, -11038.43, -21379.89, -28268.07, 0.00, 0.00, 0.00
180, -5885.04, 42498.27, -14483.13, -22777.23, -35023.48, -11043.97, -21324.93, -28206.02, 0.00, 0.00, 0.00
181, -5858.53, 42483.27, -14297.38, -22793.50, -35057.95, -11049.65, -21314.33, -28250.44, 0.00, 0.00, 0.00
182, -5814.52, 42605.55, -14312.72, -22858.55, -35086.74, -11045.16, -21365.61, -28309.76, 0.00, 0.00, 0.00
183, -5815.75, 42673.59, -14462.20, -22850.68, -35060.30, -11046.54, -21374.41, -28282.80, 0.00, 0.00, 0.00
184, -5878.26, 42513.42, -14512.67, -22792.05, -35025.43, -11052.31, -21349.22, -28208.73, 0.00, 0.00, 0.00
185, -5880.92, 42445.98, -14344.10, -22797.75, -35057.41, -11055.22, -21336.77, -28231.57, 0.00, 0.00, 0.00
186, -5831.03, 42556.54, -14311.42, -22845.99, -35091.61, -11044.60, -21348.20, -28279.07, 0.00, 0.00, 0.00
187, -5806.54, 42671.33, -14440.39, -22846.83, -35061.41, -11037.56, -21346.18, -28270.42, 0.03, 0.88, 0.42
188, -5854.48, 42555.69, -14517.88, -22787.31, -35014.25, -11042.41, -21316.72, -28205.62, 0.00, 0.00, 0.00
189, -5865.72, 42458.95, -14360.08, -22773.01, -35025.94, -11039.57, -21290.75, -28205.04, 0.00, 0.00, 0.00
190, -5810.85, 42555.77, -14273.29, -22828.21, -35060.90, -11036.69, -21339.12, -28282.58, 0.00, 0.00, 0.00
191, -5789.79, 42685.30, -14392.22, -22864.09, -35058.91, -11038.48, -21401.06, -28310.88, 0.00, 0.00, 0.00
192, -5834.34, 42605.11, -14512.74, -22821.46, -35016.80, -11049.74, -21381.30, -28245.94, 0.00, 0.00, 0.00
193, -5859.89, 42467.57, -14387.26, -22783.18, -35018.01, -11058.84, -21338.12, -28224.20, 0.00, 0.00, 0.00
194, -5825.24, 42525.60, -14263.79, -22836.60, -35080.44, -11062.37, -21342.41, -28282.02, 0.00, 0.00, 0.00
195, -5797.62, 42660.16, -14359.50, -22856.49, -35079.36, -11040.78, -21366.61, -28294.49, 0.00, 0.00, 0.00
196, -5821.98, 42629.31, -14487.80, -22801.64, -35029.74, -11042.05, -21372.31, -28245.61, 0.00, 0.00, 0.00
197, -5869.88, 42469.57, -14406.15, -22766.73, -35024.40, -11045.92, -21339.12, -28245.92, 0.03, 0.88, 0.42
198, -5841.83, 42497.39, -14256.63, -22803.03, -35078.13, -11049.41, -21298.02, -28262.01, 0.00, 0.00, 0.00
199, -5800.81, 42634.88, -14324.74, -22836.46, -35085.91, -11039.66, -21310.42, -28277.86, 0.00, 0.00, 0.00
200, -5820.93, 42651.98, -14473.65, -22818.65, -35053.08, -11044.15, -21349.49, -28262.82, 0.00, 0.00, 0.00
201, -5877.46, 42484.99, -14446.65, -22765.16, -35029.14, -11041.58, -21312.46, -28195.36, 0.00, 0.00, 0.00
202, -5847.60, 42475.49, -14275.63, -22784.03, -35066.49, -11048.65, -21293.77, -28239.66, 0.00, 0.00, 0.00
203, -5806.51, 42600.97, -14305.76, -22844.96, -35084.88, -11044.24, -21361.49, -28299.32, 0.00, 0.00, 0.00
204, -5803.88, 42673.57, -14455.01, -22824.77, -35045.59, -11022.23, -21370.23, -28239.62, 0.00, 0.00, 0.00
205, -5856.83, 42522.02, -14478.54, -22757.61, -35009.89, -11025.94, -21317.55, -28184.39, 0.00, 0.00, 0.00
206, -5852.16, 42474.35, -14300.56, -22767.53, -35057.39, -11038.01, -21296.16, -28226.10, 0.00, 0.00, 0.00
207, -5817.13, 42582.22, -14297.54, -22828.33, -35095.23, -11034.59, -21336.77, -28280.72, 0.01, 0.89, 0.43
208, -5811.10, 42679.63, -14449.06, -22832.24, -35066.73, -11019.45, -21367.87, -28267.31, 0.00, 0.00, 0.00
209, -5858.93, 42551.80, -14511.11, -22757.41, -35019.17, -11015.41, -21302.22, -28189.66, 0.00, 0.00, 0.00
210, -5863.33, 42467.91, -14344.77, -22743.73, -35046.33, -11020.80, -21265.02, -28203.12, 0.00, 0.00, 0.00
211, -5822.32, 42562.73, -14302.08, -22812.32, -35096.75, -11030.14, -21338.88, -28282.15, 0.00, 0.00, 0.00
212, -5807.79, 42687.09, -14438.85, -22833.51, -35087.79, -11026.88, -21384.12, -28292.72, 0.00, 0.00, 0.00
213, -5852.60, 42598.04, -14538.36, -22777.05, -35046.44, -11027.63, -21338.32, -28217.94, 0.00, 0.00, 0.00
214, -5872.72, 42477.57, -14395.53, -22749.02, -35056.83, -11028.82, -21290.30, -28201.69, 0.00, 0.00, 0.00
215, -5839.04, 42537.38, -14305.99, -22817.67, -35112.40, -11041.56, -21336.44, -28277.97, 0.00, 0.00, 0.00
216, -5807.81, 42668.16, -14415.85, -22850.99, -35110.43, -11035.37, -21383.27, -28299.68, 0.00, 0.00, 0.00
217, -5832.24, 42622.41, -14542.02, -22805.42, -35066.80, -11043.19, -21371.20, -28242.14, 0.00, 0.00, 0.00
218, -5871.00, 42476.00, -14427.38, -22749.74, -35058.84, -11047.55, -21298.73, -28204.64, 0.01, 0.87, 0.43
219, -5848.94, 42506.45, -14288.44, -22795.29, -35102.95, -11044.20, -21305.95, -28259.55, 0.00, 0.00, 0.00
220, -5820.60, 42642.57, -14384.42, -22844.94, -35100.87, -11029.78, -21374.84, -28292.95, 0.00, 0.00, 0.00
221, -5833.60, 42648.04, -14525.28, -22802.49, -35043.46, -11028.51, -21376.96, -28237.81, 0.00, 0.00, 0.00
222, -5883.27, 42487.13, -14466.90, -22751.97, -35029.52, -11037.60, -21338.52, -28227.53, 0.00, 0.00, 0.00
223, -5866.98, 42487.34, -14314.44, -22800.66, -35090.25, -11065.50, -21356.69, -28307.61, 0.00, 0.00, 0.00
224, -5832.62, 42620.46, -14366.11, -22843.91, -35100.06, -11044.40, -21367.46, -28293.53, 0.00, 0.00, 0.00
225, -5830.94, 42673.70, -14506.04, -22808.37, -35047.58, -11016.93, -21341.71, -28218.56, 0.00, 0.00, 0.00
226, -5877.03, 42519.23, -14486.77, -22744.17, -35017.07, -11016.03, -21271.86, -28163.62, 0.00, 0.00, 0.00
227, -5866.66, 42483.04, -14317.30, -22778.39, -35074.56, -11043.15, -21287.44, -28236.04, 0.00, 0.00, 0.00
228, -5816.01, 42606.89, -14328.52, -22831.28, -35093.89, -11041.36, -21346.47, -28292.26, 0.02, 0.88, 0.43
229, -5800.81, 42704.82, -14468.48, -22821.51, -35052.05, -11020.37, -21358.23, -28258.24, 0.00, 0.00, 0.00
230, -5854.66, 42565.54, -14508.27, -22761.59, -35012.46, -11028.64, -21310.98, -28200.39, 0.00, 0.00, 0.00
231, -5860.49, 42488.23, -14336.65, -22763.57, -35052.83, -11032.55, -21287.67, -28233.98, 0.00, 0.00, 0.00
232, -5820.42, 42583.94, -14310.01, -22822.52, -35096.02, -11032.42, -21342.76, -28305.06, 0.00, 0.00, 0.00
233, -5803.70, 42701.13, -14444.88, -22832.15, -35071.29, -11025.44, -21389.59, -28299.97, 0.00, 0.00, 0.00
234, -5851.28, 42589.01, -14524.81, -22774.39, -35021.29, -11014.98, -21350.63, -28192.59, 0.00, 0.00, 0.00
235, -5865.99, 42480.47, -14364.73, -22759.35, -35042.82, -11024.17, -21298.55, -28178.71, 0.00, 0.00, 0.00
236, -5829.87, 42552.18, -14296.58, -22818.27, -35094.50, -11037.96, -21321.19, -28258.17, 0.00, 0.00, 0.00
237, -5801.89, 42681.93, -14418.75, -22833.13, -35075.12, -11033.87, -21355.28, -28271.38, 0.00, 0.00, 0.00
238, -5835.41, 42617.71, -14520.39, -22771.42, -35021.50, -11031.35, -21328.64, -28200.70, 0.02, 0.90, 0.43
239, -5872.90, 42478.89, -14394.30, -22738.00, -35033.70, -11040.40, -21279.84, -28191.70, 0.00, 0.00, 0.00
240, -5844.87, 42519.88, -14290.36, -22800.10, -35089.29, -11061.83, -21330.54, -28280.12, 0.00, 0.00, 0.00
241, -5812.68, 42657.68, -14391.51, -22836.91, -35075.90, -11045.27, -21401.04, -28298.11, 0.00, 0.00, 0.00
242, -5837.69, 42641.23, -14520.01, -22788.59, -35026.28, -11027.93, -21356.33, -28219.23, 0.00, 0.00, 0.00
243, -5876.30, 42486.20, -14433.59, -22741.02, -35016.27, -11033.54, -21285.61, -28183.94, 0.00, 0.00, 0.00
244, -5848.83, 42498.24, -14287.03, -22788.16, -35069.48, -11055.24, -21288.81, -28243.19, 0.00, 0.00, 0.00
245, -5819.34, 42629.85, -14361.20, -22843.04, -35085.46, -11048.82, -21347.88, -28294.38, 0.00, 0.00, 0.00
246, -5828.51, 42655.84, -14504.43, -22806.36, -35041.84, -11047.08, -21369.96, -28254.12, 0.00, 0.00, 0.00
247, -5876.74, 42494.15, -14465.87, -22746.39, -35019.89, -11049.23, -21313.91, -28214.14, 0.00, 0.00, 0.00
248, -5857.48, 42471.84, -14299.42, -22779.98, -35070.22, -11061.41, -21304.54, -28258.17, 0.02, 0.88, 0.42
249, -5819.95, 42596.93, -14333.55, -22838.45, -35079.18, -11050.34, -21369.94, -28300.12, 0.00, 0.00, 0.00
250, -5818.90, 42668.56, -14481.07, -22824.33, -35038.88, -11033.40, -21386.17, -28253.39, 0.00, 0.00, 0.00
251, -5867.80, 42517.64, -14489.21, -22754.14, -35002.54, -11032.53, -21313.77, -28181.06, 0.00, 0.00, 0.00
252, -5867.47, 42454.50, -14311.20, -22770.28, -35049.39, -11046.54, -21291.13, -28220.69, 0.00, 0.00, 0.00
253, -5835.59, 42558.21, -14312.78, -22837.87, -35086.63, -11048.29, -21345.63, -28291.99, 0.00, 0.00, 0.00
254, -5821.33, 42666.08, -14453.67, -22829.40, -35051.58, -11026.94, -21358.23, -28264.72, 0.00, 0.00, 0.00
255, -5867.35, 42540.44, -14503.00, -22762.32, -35007.01, -11024.01, -21314.87, -28195.58, 0.00, 0.00, 0.00
0, -5873.50, 42444.08, -14332.99, -22761.47, -35038.41, -11041.58, -21279.87, -28223.57, 0.00, 0.00, 0.00
1, -5843.30, 42522.29, -14293.87, -22831.57, -35088.66, -11046.83, -21325.55, -28296.32, 0.00, 0.00, 0.00
2, -5825.89, 42640.22, -14431.11, -22843.21, -35069.15, -11042.48, -21355.62, -28280.97, 0.01, 0.88, 0.42
3, -5869.48, 42547.17, -14528.23, -22782.33, -35024.87, -11050.97, -21330.11, -28206.31, 0.00, 0.00, 0.00
4, -5895.00, 42415.54, -14386.95, -22759.80, -35047.00, -11070.01, -21272.96, -28197.42, 0.00, 0.00, 0.00
5, -5857.14, 42469.14, -14302.01, -22820.35, -35093.85, -11081.82, -21308.45, -28288.57, 0.00, 0.00, 0.00
6, -5822.58, 42614.92, -14412.45, -22839.71, -35075.83, -11066.59, -21358.68, -28308.57, 0.00, 0.00, 0.00
7, -5846.46, 42582.04, -14523.20, -22767.02, -35020.18, -11046.10, -21292.92, -28175.29, 0.00, 0.00, 0.00
8, -5879.11, 42440.26, -14410.57, -22720.97, -35018.72, -11048.87, -21222.78, -28154.86, 0.00, 0.00, 0.00
9, -5848.92, 42467.66, -14284.66, -22782.71, -35071.50, -11058.50, -21268.71, -28243.69, 0.00, 0.00, 0.00
10, -5812.39, 42611.61, -14375.46, -22830.74, -35069.50, -11041.07, -21340.48, -28278.13, 0.00, 0.00, 0.00
11, -5828.82, 42622.00, -14520.27, -22798.04, -35029.34, -11035.59, -21351.55, -28222.14, 0.00, 0.00, 0.00
12, -5869.99, 42466.37, -14451.16, -22738.81, -35016.93, -11043.59, -21272.40, -28184.97, 0.02, 0.89, 0.42
13, -5846.68, 42461.41, -14296.82, -22773.52, -35072.64, -11055.26, -21247.21, -28239.84, 0.00, 0.00, 0.00
14, -5809.64, 42594.96, -14358.09, -22827.72, -35089.64, -11048.33, -21312.48, -28287.79, 0.00, 0.00, 0.00
15, -5811.25, 42650.19, -14499.67, -22799.81, -35047.36, -11047.62, -21325.78, -28251.67, 0.00, 0.00, 0.00
16, -5860.00, 42496.97, -14478.92, -22735.34, -35018.23, -11047.86, -21276.60, -28187.49, 0.00, 0.00, 0.00
17, -5847.69, 42449.79, -14307.62, -22759.93, -35065.66, -11057.27, -21286.24, -28235.79, 0.00, 0.00, 0.00
18, -5816.86, 42559.82, -14332.18, -22820.08, -35098.65, -11054.43, -21320.97, -28295.94, 0.00, 0.00, 0.00
19, -5806.67, 42651.69, -14478.16, -22804.08, -35059.74, -11051.73, -21337.62, -28270.53, 0.00, 0.00, 0.00
20, -5853.34, 42521.18, -14497.72, -22730.87, -35013.09, -11034.74, -21274.93, -28175.96, 0.00, 0.00, 0.00
21, -5859.00, 42435.75, -14326.62, -22734.27, -35054.35, -11041.18, -21248.28, -28196.01, 0.00, 0.00, 0.00
22, -5819.32, 42529.02, -14303.44, -22793.88, -35084.48, -11042.07, -21292.96, -28255.89, 0.01, 0.90, 0.42
23, -5800.32, 42652.85, -14438.65, -22799.09, -35060.86, -11029.38, -21314.98, -28242.10, 0.00, 0.00, 0.00
24, -5843.55, 42550.66, -14508.45, -22723.52, -35018.92, -11039.48, -21253.89, -28174.17, 0.00, 0.00, 0.00
25, -5864.81, 42431.84, -14360.97, -22715.25, -35049.86, -11065.28, -21224.05, -28197.69, 0.00, 0.00, 0.00
26, -5832.93, 42494.11, -14304.04, -22784.90, -35093.63, -11073.59, -21285.61, -28270.24, 0.00, 0.00, 0.00
27, -5810.92, 42633.47, -14423.67, -22807.50, -35077.38, -11055.53, -21318.29, -28269.08, 0.00, 0.00, 0.00
28, -5837.43, 42575.45, -14517.41, -22744.22, -35020.91, -11051.82, -21287.87, -28200.46, 0.00, 0.00, 0.00
29, -5868.03, 42443.68, -14383.93, -22717.44, -35030.17, -11054.55, -21261.25, -28185.50, 0.00, 0.00, 0.00
30, -5837.74, 42484.54, -14280.22, -22772.40, -35076.75, -11057.38, -21284.56, -28247.87, 0.00, 0.00, 0.00
31, -5806.80, 42632.93, -14381.83, -22807.03, -35071.03, -11034.85, -21323.03, -28275.45, 0.00, 0.00, 0.00
32, -5833.00, 42622.41, -14519.13, -22771.67, -35032.43, -11033.02, -21324.19, -28211.54, 0.02, 0.91, 0.42
33, -5864.14, 42469.54, -14430.89, -22714.15, -35016.98, -11042.48, -21246.61, -28164.47, 0.00, 0.00, 0.00
34, -5830.81, 42476.38, -14285.02, -22747.06, -35057.73, -11045.54, -21237.08, -28216.86, 0.00, 0.00, 0.00
35, -5800.23, 42614.70, -14361.96, -22798.53, -35067.14, -11033.65, -21298.33, -28255.67, 0.00, 0.00, 0.00
36, -5812.93, 42649.79, -14503.51, -22773.32, -35028.85, -11027.59, -21316.23, -28216.26, 0.00, 0.00, 0.00
37, -5862.93, 42490.08, -14456.55, -22720.62, -35011.75, -11032.46, -21269.72, -28180.01, 0.00, 0.00, 0.00
38, -5849.36, 42454.86, -14294.28, -22752.87, -35065.84, -11052.20, -21265.18, -28233.25, 0.00, 0.00, 0.00
39, -5812.26, 42576.63, -14338.24, -22803.45, -35077.80, -11040.55, -21313.51, -28276.83, 0.00, 0.00, 0.00
40, -5803.88, 42658.75, -14475.08, -22778.91, -35026.48, -11015.81, -21314.64, -28218.61, 0.00, 0.00, 0.00
41, -5849.34, 42515.63, -14473.54, -22716.55, -34990.25, -11015.30, -21268.98, -28145.63, 0.00, 0.00, 0.00
42, -5850.28, 42445.83, -14300.60, -22743.62, -35040.07, -11028.06, -21281.25, -28195.47, 0.02, 0.90, 0.43
43, -5826.12, 42542.18, -14319.51, -22822.00, -35079.92, -11035.37, -21345.89, -28264.05, 0.00, 0.00, 0.00
44, -5810.74, 42651.78, -14459.30, -22807.88, -35047.78, -11040.64, -21326.40, -28252.71, 0.00, 0.00, 0.00
45, -5850.77, 42532.53, -14490.21, -22730.81, -35002.65, -11050.14, -21265.72, -28180.32, 0.00, 0.00, 0.00
46, -5855.20, 42435.79, -14323.33, -22733.91, -35021.29, -11041.65, -21243.25, -28178.66, 0.00, 0.00, 0.00
47, -5815.95, 42518.87, -14292.08, -22800.25, -35055.85, -11033.29, -21291.82, -28244.07, 0.00, 0.00, 0.00
48, -5788.43, 42658.91, -14418.86, -22806.27, -35031.38, -11013.53, -21327.38, -28235.68, 0.00, 0.00, 0.00
49, -5830.83, 42576.99, -14503.40, -22752.71, -34990.71, -11018.16, -21319.56, -28184.34, 0.00, 0.00, 0.00
50, -5855.51, 42448.00, -14362.02, -22734.83, -35012.66, -11038.54, -21280.65, -28195.58, 0.00, 0.00, 0.00
51, -5822.23, 42497.84, -14277.44, -22780.03, -35057.23, -11039.33, -21250.61, -28252.02, 0.00, 0.00, 0.00
52, -5792.23, 42641.79, -14388.85, -22805.19, -35043.09, -11022.81, -21288.36, -28264.32, 0.02, 0.88, 0.43
53, -5812.37, 42609.22, -14493.70, -22745.38, -34985.60, -11018.05, -21277.50, -28181.93, 0.00, 0.00, 0.00
54, -5844.76, 42461.81, -14381.09, -22707.31, -34992.64, -11026.72, -21233.80, -28144.29, 0.00, 0.00, 0.00
55, -5819.92, 42475.09, -14270.11, -22761.76, -35051.49, -11039.73, -21256.66, -28208.62, 0.00, 0.00, 0.00
56, -5788.10, 42619.68, -14362.20, -22804.10, -35048.63, -11024.04, -21312.05, -28239.44, 0.00, 0.00, 0.00
57, -5804.48, 42637.02, -14496.60, -22764.78, -35004.60, -11026.61, -21297.39, -28187.58, 0.00, 0.00, 0.00
58, -5843.71, 42483.98, -14421.66, -22707.94, -34989.80, -11030.41, -21225.91, -28146.61, 0.00, 0.00, 0.00
59, -5826.47, 42462.17, -14276.30, -22740.60, -35038.64, -11037.69, -21221.77, -28207.30, 0.00, 0.00, 0.00
60, -5793.59, 42593.33, -14332.45, -22794.55, -35049.28, -11026.25, -21291.56, -28258.50, 0.00, 0.00, 0.00
61, -5797.89, 42655.11, -14472.67, -22774.35, -35012.20, -11029.24, -21308.45, -28216.84, 0.00, 0.00, 0.00
62, -5840.15, 42504.25, -14444.43, -22705.13, -34980.64, -11030.83, -21236.95, -28136.91, 0.01, 0.88, 0.44
63, -5834.14, 42448.60, -14284.35, -22737.18, -35035.89, -11038.97, -21229.71, -28193.62, 0.00, 0.00, 0.00
64, -5793.08, 42563.17, -14315.22, -22797.15, -35050.35, -11029.40, -21300.23, -28251.80, 0.00, 0.00, 0.00
65, -5779.42, 42669.21, -14446.54, -22786.31, -35009.18, -11012.97, -21322.27, -28221.87, 0.00, 0.00, 0.00
66, -5831.61, 42538.14, -14463.05, -22719.18, -34980.52, -11015.77, -21253.38, -28147.55, 0.00, 0.00, 0.00
67, -5839.04, 42444.98, -14291.97, -22723.88, -35025.45, -11030.18, -21221.46, -28176.09, 0.00, 0.00, 0.00
68, -5808.03, 42529.18, -14275.70, -22777.95, -35061.08, -11034.99, -21252.69, -28238.68, 0.00, 0.00, 0.00
69, -5794.65, 42658.75, -14413.23, -22786.15, -35038.46, -11026.54, -21292.20, -28231.30, 0.00, 0.00, 0.00
70, -5843.64, 42561.88, -14481.11, -22731.59, -35002.79, -11030.00, -21268.53, -28171.80, 0.00, 0.00, 0.00
71, -5858.21, 42440.95, -14324.16, -22714.31, -35026.86, -11047.21, -21230.22, -28178.04, 0.00, 0.00, 0.00
72, -5820.04, 42500.19, -14260.21, -22764.09, -35053.77, -11039.84, -21268.42, -28231.08, 0.01, 0.87, 0.44
73, -5790.62, 42648.13, -14379.66, -22780.83, -35031.93, -11012.23, -21305.66, -28231.30, 0.00, 0.00, 0.00
74, -5823.01, 42594.29, -14474.56, -22726.05, -34995.30, -11010.29, -21264.24, -28162.95, 0.00, 0.00, 0.00
75, -5850.79, 42447.48, -14346.49, -22701.17, -35010.48, -11029.62, -21233.64, -28161.01, 0.00, 0.00, 0.00
76, -5823.55, 42470.53, -14255.36, -22752.13, -35057.84, -11037.09, -21253.27, -28227.48, 0.00, 0.00, 0.00
77, -5795.05, 42621.38, -14361.80, -22785.08, -35050.48, -11021.26, -21275.71, -28243.19, 0.00, 0.00, 0.00
78, -5816.73, 42615.01, -14490.41, -22743.77, -35003.64, -11026.81, -21287.29, -28194.96, 0.00, 0.00, 0.00
79, -5854.01, 42457.88, -14396.11, -22701.15, -34999.23, -11032.69, -21240.01, -28151.93, 0.00, 0.00, 0.00
80, -5824.57, 42454.21, -14263.90, -22736.46, -35046.84, -11044.24, -21204.70, -28204.03, 0.00, 0.00, 0.00
81, -5793.97, 42597.24, -14340.16, -22784.07, -35059.47, -11035.86, -21267.48, -28261.75, 0.00, 0.00, 0.00
82, -5800.72, 42639.93, -14477.38, -22749.13, -35016.04, -11038.16, -21265.76, -28211.48, -0.00, 0.89, 0.44
83, -5836.20, 42489.50, -14425.28, -22697.68, -34994.00, -11048.89, -21224.14, -28161.77, 0.00, 0.00, 0.00
84, -5825.00, 42448.69, -14269.00, -22744.04, -35054.73, -11070.93, -21243.90, -28218.90, 0.00, 0.00, 0.00
85, -5800.59, 42561.99, -14313.30, -22786.87, -35082.00, -11066.57, -21251.08, -28271.80, 0.00, 0.00, 0.00
86, -5799.65, 42640.51, -14451.41, -22766.57, -35042.75, -11043.84, -21247.43, -28197.48, 0.00, 0.00, 0.00
87, -5839.24, 42501.41, -14438.96, -22706.27, -35008.38, -11030.74, -21212.12, -28127.23, 0.00, 0.00, 0.00
88, -5834.61, 42434.36, -14270.45, -22739.99, -35063.05, -11054.48, -21236.73, -28192.01, 0.00, 0.00, 0.00
89, -5801.75, 42539.88, -14282.34, -22803.16, -35096.73, -11050.48, -21272.04, -28248.07, 0.00, 0.00, 0.00
90, -5782.06, 42656.54, -14410.53, -22777.37, -35059.09, -11037.45, -21260.80, -28219.95, 0.00, 0.00, 0.00
91, -5820.53, 42539.97, -14449.08, -22717.06, -35020.87, -11047.46, -21225.48, -28153.41, 0.00, 0.00, 0.00
92, -5829.42, 42443.21, -14281.40, -22716.01, -35055.00, -11058.28, -21189.21, -28172.56, -0.00, 0.88, 0.44
93, -5795.36, 42523.72, -14260.05, -22772.98, -35088.46, -11051.46, -21238.65, -28232.42, 0.00, 0.00, 0.00
94, -5775.29, 42661.23, -14395.35, -22787.29, -35066.06, -11033.31, -21285.88, -28228.80, 0.00, 0.00, 0.00
95, -5814.87, 42574.73, -14471.41, -22727.72, -35020.13, -11038.79, -21250.07, -28165.97, 0.00, 0.00, 0.00
96, -5837.85, 42446.50, -14315.38, -22715.43, -35044.07, -11051.04, -21218.13, -28183.34, 0.00, 0.00, 0.00
97, -5801.15, 42504.16, -14235.69, -22780.05, -35087.97, -11048.96, -21269.72, -28252.58, 0.00, 0.00, 0.00
98, -5772.16, 42656.65, -14350.47, -22810.76, -35083.48, -11044.13, -21322.67, -28283.49, 0.00, 0.00, 0.00
99, -5799.27, 42615.12, -14458.72, -22749.65, -35032.85, -11051.73, -21272.18, -28210.29, 0.00, 0.00, 0.00
100, -5832.55, 42472.25, -14336.50, -22713.82, -35038.79, -11053.92, -21201.50, -28172.18, 0.00, 0.00, 0.00
101, -5800.48, 42497.53, -14230.44, -22770.66, -35089.73, -11049.32, -21237.11, -28208.93, 0.00, 0.00, 0.00
102, -5763.42, 42646.39, -14331.40, -22808.81, -35074.00, -11020.24, -21307.74, -28218.43, 0.00, 0.89, 0.43
103, -5788.48, 42642.72, -14466.03, -22777.52, -35036.22, -11023.37, -21300.16, -28183.45, 0.00, 0.00, 0.00
104, -5831.17, 42478.21, -14386.97, -22734.79, -35027.73, -11033.85, -21262.97, -28165.79, 0.00, 0.00, 0.00
105, -5807.77, 42469.95, -14234.33, -22766.73, -35076.12, -11037.78, -21264.09, -28214.94, 0.00, 0.00, 0.00
106, -5771.62, 42603.41, -14294.39, -22794.71, -35079.25, -11019.97, -21225.69, -28230.81, 0.00, 0.00, 0.00
107, -5780.52, 42646.41, -14440.84, -22770.30, -35037.57, -11020.95, -21233.42, -28191.99, 0.00, 0.00, 0.00
108, -5834.16, 42487.82, -14411.64, -22722.04, -35024.09, -11042.45, -21213.91, -28152.07, 0.00, 0.00, 0.00
109, -5818.74, 42452.44, -14240.65, -22753.72, -35074.45, -11049.00, -21218.15, -28181.06, 0.00, 0.00, 0.00
110, -5783.76, 42575.73, -14281.47, -22824.28, -35098.88, -11043.62, -21295.09, -28245.88, 0.00, 0.00, 0.00
111, -5778.73, 42656.07, -14429.41, -22814.02, -35062.04, -11050.39, -21316.08, -28240.42, 0.00, 0.00, 0.00
112, -5825.76, 42512.77, -14442.67, -22743.73, -35022.46, -11059.24, -21231.43, -28168.67, 0.02, 0.88, 0.43
113, -5821.27, 42454.77, -14263.12, -22749.67, -35059.47, -11061.77, -21199.64, -28179.71, 0.00, 0.00, 0.00
114, -5785.30, 42560.76, -14261.91, -22818.40, -35093.55, -11055.49, -21275.60, -28244.71, 0.00, 0.00, 0.00
115, -5772.81, 42664.58, -14409.01, -22828.24, -35067.76, -11049.16, -21307.72, -28234.37, 0.00, 0.00, 0.00
116, -5817.24, 42538.30, -14465.42, -22762.03, -35023.66, -11057.61, -21265.02, -28162.39, 0.00, 0.00, 0.00
117, -5819.16, 42449.45, -14289.29, -22742.21, -35043.89, -11052.09, -21214.29, -28170.86, 0.00, 0.00, 0.00
118, -5779.76, 42541.92, -14240.36, -22807.85, -35086.94, -11052.18, -21256.89, -28249.45, 0.00, 0.00, 0.00
119, -5758.35, 42667.64, -14374.61, -22828.21, -35067.79, -11041.85, -21303.83, -28237.74, 0.00, 0.00, 0.00
120, -5805.40, 42572.20, -14473.94, -22773.79, -35026.88, -11052.92, -21280.07, -28178.26, 0.00, 0.00, 0.00
121, -5831.68, 42451.84, -14325.28, -22752.82, -35042.77, -11067.18, -21238.98, -28194.15, 0.00, 0.00, 0.00
122, -5789.93, 42526.61, -14231.06, -22812.41, -35088.19, -11063.98, -21273.07, -28247.37, 0.03, 0.89, 0.43
123, -5762.19, 42665.03, -14348.46, -22841.16, -35079.86, -11054.03, -21313.33, -28243.42, 0.00, 0.00, 0.00
124, -5795.76, 42611.50, -14477.60, -22794.89, -35032.87, -11061.23, -21291.67, -28180.92, 0.00, 0.00, 0.00
125, -5831.95, 42464.04, -14376.33, -22759.30, -35029.81, -11058.66, -21247.72, -28168.88, 0.00, 0.00, 0.00
126, -5793.80, 42510.67, -14243.72, -22814.13, -35078.58, -11056.87, -21278.28, -28240.67, 0.00, 0.00, 0.00
127, -5763.91, 42645.76, -14334.93, -22860.18, -35085.20, -11055.19, -21346.90, -28282.58, 0.00, 0.00, 0.00
128, -5784.47, 42635.30, -14470.12, -22810.76, -35040.47, -11068.87, -21305.71, -28206.92, 0.00, 0.00, 0.00
129, -5821.94, 42477.68, -14395.01, -22747.08, -35012.75, -11055.37, -21218.73, -28147.48, 0.00, 0.00, 0.00
130, -5788.12, 42496.68, -14231.58, -22784.45, -35060.07, -11046.28, -21223.83, -28208.50, 0.00, 0.00, 0.00
131, -5752.87, 42630.45, -14284.42, -22841.96, -35078.69, -11044.71, -21286.37, -28274.22, 0.00, 0.00, 0.00
132, -5764.09, 42660.49, -14432.19, -22827.72, -35035.93, -11055.78, -21314.11, -28227.32, 0.05, 0.89, 0.42
133, -5806.49, 42498.62, -14407.80, -22754.32, -34986.60, -11056.13, -21256.33, -28153.41, 0.00, 0.00, 0.00
134, -5792.54, 42479.45, -14235.29, -22792.01, -35034.08, -11049.88, -21271.55, -28217.56, 0.00, 0.00, 0.00
135, -5758.73, 42598.11, -14268.55, -22858.97, -35070.94, -11038.54, -21306.62, -28222.07, 0.00, 0.00, 0.00
136, -5756.38, 42667.73, -14417.25, -22834.09, -35036.27, -11045.61, -21279.04, -28192.43, 0.00, 0.00, 0.00
137, -5813.91, 42512.30, -14449.33, -22765.18, -34995.86, -11055.42, -21223.52, -28137.54, 0.00, 0.00, 0.00
138, -5813.80, 42455.01, -14277.33, -22768.40, -35038.73, -11059.84, -21193.72, -28174.28, 0.00, 0.00, 0.00
139, -5776.12, 42558.75, -14264.91, -22832.26, -35081.87, -11057.61, -21261.29, -28245.83, 0.00, 0.00, 0.00
140, -5771.91, 42652.02, -14409.43, -22845.76, -35070.47, -11066.84, -21314.04, -28258.24, 0.00, 0.00, 0.00
141, -5822.34, 42522.65, -14479.77, -22776.11, -35021.98, -11078.44, -21282.19, -28191.16, 0.00, 0.00, 0.00
142, -5842.34, 42425.89, -14317.68, -22770.15, -35048.25, -11068.90, -21237.22, -28195.09, 0.05, 0.87, 0.42
143, -5800.93, 42513.08, -14251.99, -22827.28, -35095.14, -11071.13, -21263.46, -28253.99, 0.00, 0.00, 0.00
144, -5781.41, 42635.86, -14384.29, -22851.39, -35079.18, -11069.90, -21323.41, -28274.22, 0.00, 0.00, 0.00
145, -5818.87, 42547.84, -14485.87, -22786.78, -35019.75, -11075.20, -21294.89, -28186.89, 0.00, 0.00, 0.00
146, -5850.59, 42419.18, -14354.27, -22759.75, -35022.46, -11064.60, -21229.62, -28158.97, 0.00, 0.00, 0.00
147, -5807.39, 42485.41, -14247.60, -22811.36, -35071.72, -11065.45, -21252.35, -28236.20, 0.00, 0.00, 0.00
148, -5777.57, 42618.47, -14358.36, -22846.05, -35076.26, -11062.86, -21312.95, -28266.15, 0.00, 0.00, 0.00
149, -5801.37, 42575.45, -14492.38, -22796.97, -35029.41, -11088.37, -21310.13, -28221.15, 0.00, 0.00, 0.00
150, -5842.14, 42422.47, -14409.45, -22766.44, -35034.66, -11104.10, -21287.33, -28214.09, 0.00, 0.00, 0.00
151, -5813.73, 42459.15, -14272.97, -22815.68, -35089.04, -11091.94, -21276.16, -28244.00, 0.00, 0.00, 0.00
152, -5788.41, 42589.26, -14347.92, -22847.86, -35085.40, -11078.06, -21309.24, -28272.23, 0.04, 0.87, 0.42
153, -5816.91, 42588.77, -14498.50, -22821.35, -35046.66, -11088.05, -21321.91, -28227.17, 0.00, 0.00, 0.00
154, -5871.71, 42422.87, -14452.21, -22756.78, -35017.16, -11087.07, -21256.60, -28190.13, 0.00, 0.00, 0.00
155, -5851.75, 42427.66, -14277.56, -22788.03, -35062.13, -11084.88, -21246.49, -28244.89, 0.00, 0.00, 0.00
156, -5818.70, 42554.95, -14322.35, -22844.35, -35079.30, -11075.20, -21283.49, -28256.98, 0.00, 0.00, 0.00
157, -5828.73, 42600.28, -14475.64, -22826.21, -35042.26, -11088.52, -21310.00, -28236.71, 0.00, 0.00, 0.00
158, -5885.26, 42435.75, -14470.63, -22748.73, -34996.71, -11086.15, -21232.35, -28136.98, 0.00, 0.00, 0.00
159, -5873.61, 42399.83, -14290.25, -22763.71, -35036.74, -11074.10, -21205.10, -28170.93, 0.00, 0.00, 0.00
160, -5839.33, 42512.19, -14305.25, -22836.53, -35075.05, -11070.75, -21279.22, -28256.94, 0.00, 0.00, 0.00
161, -5829.98, 42592.95, -14456.86, -22833.33, -35044.85, -11081.23, -21305.71, -28240.02, 0.00, 0.00, 0.00
162, -5877.97, 42449.34, -14502.53, -22758.46, -34997.82, -11084.41, -21241.87, -28171.06, 0.03, 0.88, 0.42
163, -5881.28, 42378.41, -14329.99, -22759.71, -35026.21, -11080.56, -21232.21, -28193.86, 0.00, 0.00, 0.00
164, -5836.13, 42483.56, -14298.28, -22831.10, -35064.86, -11077.12, -21297.97, -28270.73, 0.00, 0.00, 0.00
165, -5816.28, 42597.91, -14438.58, -22838.23, -35048.96, -11075.42, -21323.21, -28261.37, 0.00, 0.00, 0.00
166, -5852.58, 42491.22, -14522.42, -22762.61, -34989.93, -11081.41, -21275.04, -28168.34, 0.00, 0.00, 0.00
167, -5869.21, 42381.99, -14365.44, -22742.68, -35000.24, -11070.08, -21214.02, -28168.32, 0.00, 0.00, 0.00
168, -5835.75, 42454.88, -14282.70, -22809.87, -35060.25, -11071.02, -21238.20, -28247.26, 0.00, 0.00, 0.00
169, -5804.64, 42583.96, -14394.12, -22832.44, -35043.58, -11068.27, -21295.78, -28259.96, 0.00, 0.00, 0.00
170, -5838.23, 42521.20, -14512.36, -22776.52, -34989.62, -11078.28, -21297.03, -28196.52, 0.00, 0.00, 0.00
171, -5869.39, 42380.52, -14388.42, -22732.19, -34980.19, -11076.38, -21267.93, -28171.22, 0.00, 0.00, 0.00
172, -5842.21, 42425.15, -14276.51, -22794.55, -35048.70, -11084.25, -21252.62, -28245.63, 0.01, 0.88, 0.41
173, -5802.80, 42560.87, -14364.21, -22821.98, -35043.38, -11079.63, -21273.38, -28268.45, 0.00, 0.00, 0.00
174, -5820.71, 42553.29, -14486.05, -22778.71, -34990.56, -11081.86, -21297.61, -28226.83, 0.00, 0.00, 0.00
175, -5869.48, 42399.49, -14414.04, -22726.27, -34983.27, -11083.72, -21237.31, -28192.05, 0.00, 0.00, 0.00
176, -5843.75, 42408.95, -14270.60, -22765.63, -35034.21, -11068.56, -21218.60, -28216.37, 0.00, 0.00, 0.00
177, -5796.14, 42549.29, -14330.91, -22808.48, -35033.34, -11040.17, -21271.42, -28222.65, 0.00, 0.00, 0.00
178, -5795.09, 42596.34, -14467.95, -22765.09, -34987.18, -11038.32, -21237.76, -28160.49, 0.00, 0.00, 0.00
179, -5848.80, 42438.43, -14434.06, -22702.62, -34961.97, -11041.47, -21175.21, -28112.06, 0.00, 0.00, 0.00
180, -5840.56, 42409.95, -14268.37, -22739.64, -35010.41, -11035.93, -21193.52, -28171.54, 0.00, 0.00, 0.00
181, -5800.57, 42532.53, -14302.23, -22803.72, -35032.67, -11033.96, -21265.99, -28241.88, 0.00, 0.00, 0.00
182, -5789.08, 42619.23, -14446.94, -22790.35, -34999.72, -11047.04, -21284.13, -28224.15, 0.03, 0.91, 0.41
183, -5838.25, 42480.41, -14470.21, -22728.62, -34965.46, -11052.74, -21220.79, -28135.50, 0.00, 0.00, 0.00
184, -5832.49, 42414.73, -14293.90, -22733.51, -34990.96, -11033.36, -21192.54, -28133.96, 0.00, 0.00, 0.00
185, -5795.34, 42510.96, -14274.14, -22793.53, -35019.97, -11020.01, -21257.67, -28183.98, 0.00, 0.00, 0.00
186, -5780.14, 42627.52, -14412.61, -22801.21, -34997.71, -11012.95, -21296.83, -28175.15, 0.00, 0.00, 0.00
187, -5828.82, 42519.68, -14478.07, -22739.57, -34956.96, -11019.25, -21229.66, -28114.69, 0.00, 0.00, 0.00
188, -5844.18, 42412.43, -14314.91, -22731.41, -34979.27, -11024.98, -21180.89, -28116.62, 0.00, 0.00, 0.00
189, -5804.10, 42486.95, -14250.15, -22788.74, -35016.02, -11020.48, -21211.07, -28173.97, 0.00, 0.00, 0.00
190, -5776.81, 42625.96, -14368.84, -22803.00, -34994.25, -11001.75, -21256.89, -28174.37, 0.00, 0.00, 0.00
191, -5817.96, 42559.78, -14474.81, -22744.87, -34952.85, -11004.84, -21219.76, -28115.32, 0.00, 0.00, 0.00
192, -5845.41, 42425.80, -14345.93, -22718.25, -34956.88, -11007.23, -21174.75, -28106.56, 0.06, 0.93, 0.43
193, -5813.76, 42466.77, -14238.44, -22768.76, -35005.11, -11004.23, -21198.57, -28173.79, 0.00, 0.00, 0.00
194, -5780.27, 42608.88, -14336.30, -22801.57, -34998.96, -10996.75, -21247.66, -28180.81, 0.00, 0.00, 0.00
195, -5799.70, 42590.02, -14456.97, -22752.13, -34951.38, -11007.34, -21229.51, -28125.33, 0.00, 0.00, 0.00
196, -5840.67, 42435.25, -14361.46, -22712.03, -34947.20, -11007.00, -21190.44, -28101.60, 0.00, 0.00, 0.00
197, -5824.24, 42438.92, -14237.08, -22772.67, -35006.88, -11009.28, -21242.87, -28185.26, 0.00, 0.00, 0.00
198, -5789.19, 42579.98, -14315.42, -22817.78, -35008.35, -10996.63, -21281.01, -28204.79, 0.00, 0.00, 0.00
199, -5797.91, 42615.39, -14456.86, -22773.48, -34961.28, -10996.19, -21222.13, -28134.88, 0.00, 0.00, 0.00
200, -5840.22, 42461.45, -14410.26, -22708.90, -34936.54, -11004.86, -21146.85, -28092.63, 0.00, 0.00, 0.00
201, -5820.60, 42439.23, -14244.52, -22741.36, -34975.83, -11003.21, -21158.96, -28144.69, 0.00, 0.00, 0.00
202, -5791.96, 42558.64, -14287.88, -22805.22, -34997.51, -10998.51, -21229.80, -28193.13, 0.07, 0.90, 0.43
203, -5790.24, 42626.52, -14431.38, -22785.50, -34968.52, -11009.73, -21247.46, -28171.98, 0.00, 0.00, 0.00
204, -5836.76, 42479.69, -14428.52, -22718.56, -34937.32, -11018.11, -21194.73, -28109.87, 0.00, 0.00, 0.00
205, -5834.61, 42419.77, -14264.26, -22740.13, -34977.77, -11016.46, -21175.19, -28152.00, 0.00, 0.00, 0.00
206, -5799.18, 42525.15, -14279.28, -22803.07, -35006.47, -11007.16, -21221.28, -28212.42, 0.00, 0.00, 0.00
207, -5787.27, 42632.75, -14419.94, -22796.95, -34973.64, -10999.99, -21231.45, -28161.45, 0.00, 0.00, 0.00
208, -5833.67, 42507.09, -14457.35, -22730.45, -34933.61, -11010.18, -21190.48, -28097.62, 0.00, 0.00, 0.00
209, -5835.30, 42415.05, -14275.75, -22719.29, -34958.11, -11007.67, -21152.35, -28119.81, 0.00, 0.00, 0.00
210, -5804.95, 42496.19, -14249.53, -22790.80, -34999.19, -10988.39, -21217.10, -28189.75, 0.00, 0.00, 0.00
211, -5792.57, 42620.82, -14395.86, -22814.76, -34990.78, -10990.33, -21280.00, -28191.70, 0.00, 0.00, 0.00
212, -5827.70, 42532.48, -14468.06, -22733.94, -34940.34, -11002.09, -21200.54, -28105.78, 0.07, 0.87, 0.44
213, -5852.67, 42413.42, -14317.01, -22722.67, -34958.21, -10993.37, -21156.91, -28118.29, 0.00, 0.00, 0.00
214, -5820.89, 42468.83, -14243.18, -22780.61, -35005.25, -10994.80, -21195.87, -28188.61, 0.00, 0.00, 0.00
215, -5797.30, 42608.05, -14358.33, -22800.14, -35000.73, -10997.26, -21229.82, -28199.70, 0.00, 0.00, 0.00
216, -5826.14, 42558.50, -14469.67, -22748.96, -34953.37, -11016.88, -21220.16, -28139.48, 0.00, 0.00, 0.00
217, -5861.92, 42413.68, -14350.27, -22726.85, -34956.85, -11016.08, -21200.21, -28133.69, 0.00, 0.00, 0.00
218, -5828.89, 42441.34, -14233.75, -22774.30, -35002.20, -11007.36, -21214.38, -28179.80, 0.00, 0.00, 0.00
219, -5795.34, 42587.74, -14329.08, -22812.81, -35003.43, -10994.53, -21241.18, -28197.06, 0.00, 0.00, 0.00
220, -5812.64, 42590.11, -14459.97, -22759.46, -34961.46, -11008.99, -21195.00, -28127.14, 0.00, 0.00, 0.00
221, -5853.39, 42434.70, -14373.33, -22706.29, -34947.82, -11007.90, -21149.64, -28079.80, 0.00, 0.00, 0.00
222, -5834.25, 42430.34, -14235.71, -22754.32, -35002.83, -10997.97, -21167.55, -28153.14, 0.07, 0.87, 0.44
223, -5796.50, 42565.75, -14303.39, -22800.28, -35011.64, -10991.49, -21207.49, -28195.12, 0.00, 0.00, 0.00
224, -5796.81, 42612.46, -14442.33, -22768.07, -34962.48, -10999.23, -21216.59, -28139.04, 0.00, 0.00, 0.00
225, -5845.79, 42454.70, -14414.77, -22711.32, -34939.39, -11021.06, -21194.79, -28095.49, 0.00, 0.00, 0.00
226, -5834.01, 42419.52, -14244.74, -22733.09, -34987.00, -11016.97, -21180.67, -28132.37, 0.00, 0.00, 0.00
227, -5799.36, 42538.52, -14276.30, -22785.30, -35012.96, -11007.94, -21200.85, -28182.53, 0.00, 0.00, 0.00
228, -5798.89, 42617.40, -14422.93, -22777.01, -34984.86, -11023.79, -21227.38, -28159.78, 0.00, 0.00, 0.00
229, -5842.77, 42475.42, -14439.07, -22708.95, -34944.02, -11030.90, -21191.42, -28110.54, 0.00, 0.00, 0.00
230, -5837.11, 42415.23, -14260.37, -22724.28, -34978.31, -11016.15, -21163.12, -28137.18, 0.00, 0.00, 0.00
231, -5805.82, 42512.52, -14259.90, -22793.88, -35025.88, -11022.81, -21204.36, -28194.09, 0.00, 0.00, 0.00
232, -5785.23, 42624.04, -14401.99, -22789.82, -34994.23, -11027.37, -21233.55, -28173.75, 0.06, 0.88, 0.44
233, -5832.17, 42505.44, -14460.95, -22726.76, -34948.58, -11028.62, -21208.32, -28096.48, 0.00, 0.00, 0.00
234, -5845.03, 42406.91, -14289.49, -22719.74, -34974.38, -11018.34, -21165.80, -28107.18, 0.00, 0.00, 0.00
235, -5808.30, 42482.80, -14238.75, -22788.70, -35021.36, -11015.10, -21212.39, -28188.01, 0.00, 0.00, 0.00
236, -5787.40, 42606.47, -14370.18, -22810.33, -35013.61, -11021.85, -21246.27, -28186.82, 0.00, 0.00, 0.00
237, -5825.45, 42522.36, -14467.52, -22740.57, -34960.52, -11028.73, -21188.54, -28101.35, 0.00, 0.00, 0.00
238, -5853.97, 42392.18, -14331.96, -22718.74, -34976.14, -11036.89, -21172.76, -28129.94, 0.00, 0.00, 0.00
239, -5818.70, 42451.80, -14240.25, -22774.66, -35021.23, -11028.66, -21209.14, -28182.40, 0.00, 0.00, 0.00
240, -5788.25, 42593.66, -14343.09, -22792.90, -35001.02, -11015.12, -21217.86, -28182.17, 0.00, 0.00, 0.00
241, -5821.60, 42555.39, -14463.90, -22748.44, -34959.63, -11028.84, -21199.78, -28140.78, 0.00, 0.00, 0.00
242, -5854.44, 42410.60, -14352.84, -22706.96, -34946.97, -11023.54, -21137.91, -28101.93, 0.05, 0.88, 0.43
243, -5825.71, 42440.95, -14230.86, -22767.91, -34998.34, -11019.45, -21181.59, -28158.28, 0.00, 0.00, 0.00
244, -5791.56, 42577.75, -14327.71, -22811.70, -35006.68, -11020.24, -21266.03, -28196.19, 0.00, 0.00, 0.00
245, -5801.71, 42585.13, -14458.72, -22763.57, -34958.62, -11027.81, -21244.84, -28139.01, 0.00, 0.00, 0.00
246, -5846.46, 42430.92, -14396.58, -22706.38, -34937.12, -11021.62, -21145.04, -28105.73, 0.00, 0.00, 0.00
247, -5828.60, 42430.00, -14232.72, -22748.33, -34990.70, -11017.76, -21143.01, -28167.71, 0.00, 0.00, 0.00
248, -5792.77, 42556.80, -14287.82, -22799.18, -35007.73, -11008.05, -21211.31, -28182.87, 0.00, 0.00, 0.00
249, -5793.39, 42606.52, -14430.20, -22773.61, -34965.46, -11007.81, -21244.68, -28129.40, 0.00, 0.00, 0.00
250, -5848.13, 42449.67, -14420.72, -22717.78, -34935.60, -11018.05, -21197.86, -28092.34, 0.00, 0.00, 0.00
251, -5837.25, 42410.60, -14252.34, -22734.65, -34983.59, -11021.51, -21144.77, -28127.48, 0.00, 0.00, 0.00
252, -5798.42, 42523.43, -14272.30, -22790.04, -35012.15, -11008.39, -21191.42, -28173.66, 0.04, 0.89, 0.44
253, -5791.38, 42608.14, -14425.75, -22792.88, -34987.72, -11018.38, -21232.97, -28169.59, 0.00, 0.00, 0.00
254, -5842.16, 42466.68, -14462.61, -22729.85, -34953.75, -11030.85, -21187.75, -28092.86, 0.00, 0.00, 0.00
255, -5845.12, 42394.44, -14284.17, -22731.84, -34988.44, -11034.81, -21166.90, -28128.80, 0.00, 0.00, 0.00
0, -5810.51, 42493.35, -14258.04, -22799.18, -35025.92, -11033.65, -21236.03, -28214.14, 0.00, 0.00, 0.00
1, -5793.15, 42609.64, -14397.18, -22807.43, -34999.01, -11024.80, -21261.22, -28175.71, 0.00, 0.00, 0.00
2, -5833.25, 42504.88, -14464.68, -22723.95, -34945.07, -11015.86, -21176.82, -28069.01, 0.00, 0.00, 0.00
3, -5847.24, 42399.43, -14301.94, -22704.32, -34963.63, -11014.69, -21133.13, -28104.61, 0.00, 0.00, 0.00
4, -5814.78, 42469.52, -14238.62, -22783.45, -35018.66, -11019.83, -21206.91, -28186.09, 0.00, 0.00, 0.00
5, -5792.16, 42596.21, -14366.56, -22811.43, -35014.01, -11022.05, -21262.30, -28191.49, 0.00, 0.00, 0.00
6, -5821.76, 42526.74, -14472.78, -22736.62, -34962.42, -11037.34, -21204.03, -28108.68, 0.04, 0.88, 0.44
7, -5848.58, 42399.76, -14335.56, -22694.78, -34963.09, -11017.33, -21126.60, -28074.57, 0.00, 0.00, 0.00
8, -5811.34, 42454.52, -14225.77, -22753.00, -35011.41, -11003.54, -21166.92, -28149.43, 0.00, 0.00, 0.00
9, -5780.21, 42591.98, -14324.58, -22791.20, -35006.65, -11001.66, -21226.20, -28183.22, 0.00, 0.00, 0.00
10, -5814.07, 42559.57, -14469.60, -22756.56, -34970.87, -11021.80, -21234.29, -28137.67, 0.00, 0.00, 0.00
11, -5850.75, 42406.15, -14380.40, -22707.23, -34952.79, -11009.51, -21162.65, -28087.85, 0.00, 0.00, 0.00
12, -5822.38, 42430.79, -14236.25, -22760.60, -35011.04, -11007.21, -21174.52, -28188.21, 0.00, 0.00, 0.00
13, -5787.07, 42566.19, -14317.75, -22808.75, -35020.80, -10998.29, -21241.13, -28214.79, 0.00, 0.00, 0.00
14, -5800.41, 42583.96, -14455.52, -22766.01, -34976.75, -11000.97, -21202.33, -28111.83, 0.00, 0.00, 0.00
15, -5847.04, 42422.40, -14397.21, -22694.98, -34949.57, -11007.92, -21123.94, -28063.20, 0.00, 0.00, 0.00
16, -5827.70, 42417.30, -14227.98, -22738.45, -35002.74, -11005.69, -21147.19, -28119.01, 0.04, 0.88, 0.44
17, -5786.24, 42544.93, -14273.87, -22798.53, -35024.71, -11004.46, -21213.84, -28177.21, 0.00, 0.00, 0.00
18, -5789.28, 42601.24, -14426.46, -22784.47, -34989.17, -11014.18, -21229.33, -28141.87, 0.00, 0.00, 0.00
19, -5838.97, 42446.16, -14426.26, -22720.97, -34946.41, -11018.74, -21187.73, -28064.00, 0.00, 0.00, 0.00
20, -5827.48, 42408.61, -14243.74, -22740.15, -34986.43, -11011.74, -21177.99, -28118.92, 0.00, 0.00, 0.00
21, -5781.21, 42527.01, -14246.93, -22789.99, -35017.43, -11004.23, -21213.86, -28176.52, 0.00, 0.00, 0.00
22, -5774.15, 42617.09, -14399.46, -22793.86, -34996.84, -11012.23, -21250.67, -28164.34, 0.00, 0.00, 0.00
23, -5831.88, 42474.50, -14459.28, -22739.32, -34960.63, -11029.16, -21225.26, -28107.65, 0.00, 0.00, 0.00
24, -5842.43, 42397.75, -14286.77, -22741.54, -34992.37, -11031.10, -21152.82, -28127.41, 0.00, 0.00, 0.00
25, -5793.86, 42501.30, -14237.39, -22789.41, -35029.18, -11030.23, -21160.48, -28177.88, 0.00, 0.00, 0.00
26, -5775.94, 42614.67, -14374.12, -22799.34, -35013.67, -11027.72, -21215.36, -28174.19, 0.00, 0.00, 0.00
27, -5822.29, 42506.96, -14466.74, -22740.31, -34967.65, -11044.60, -21205.32, -28123.84, 0.05, 0.88, 0.44
28, -5838.07, 42398.89, -14309.38, -22717.37, -34971.70, -11044.09, -21169.63, -28139.84, 0.00, 0.00, 0.00
29, -5798.51, 42479.24, -14220.54, -22784.18, -35023.53, -11029.98, -21207.24, -28178.26, 0.00, 0.00, 0.00
30, -5774.86, 42606.07, -14343.61, -22811.50, -35021.76, -11024.60, -21254.70, -28172.45, 0.00, 0.00, 0.00
31, -5806.69, 42540.38, -14466.81, -22749.58, -34968.70, -11037.83, -21221.77, -28104.37, 0.00, 0.00, 0.00
32, -5837.25, 42402.58, -14344.83, -22705.13, -34961.08, -11037.40, -21138.58, -28087.09, 0.00, 0.00, 0.00
33, -5803.81, 42458.77, -14220.51, -22768.92, -35019.08, -11039.21, -21170.61, -28181.44, 0.00, 0.00, 0.00
34, -5781.37, 42590.11, -14331.09, -22826.12, -35036.40, -11048.47, -21241.76, -28221.96, 0.00, 0.00, 0.00
35, -5803.25, 42570.48, -14478.61, -22786.13, -34991.12, -11065.88, -21257.49, -28158.03, 0.00, 0.00, 0.00
36, -5851.73, 42409.44, -14417.19, -22739.64, -34968.32, -11058.68, -21210.93, -28110.38, 0.00, 0.00, 0.00
37, -5820.15, 42437.13, -14264.48, -22784.47, -35016.49, -11043.37, -21187.40, -28160.63, 0.05, 0.88, 0.43
38, -5780.54, 42570.84, -14326.37, -22834.47, -35029.92, -11037.18, -21233.69, -28192.52, 0.00, 0.00, 0.00
39, -5791.14, 42594.54, -14472.11, -22799.05, -34989.73, -11051.46, -21237.00, -28132.82, 0.00, 0.00, 0.00
40, -5841.67, 42430.94, -14447.29, -22735.50, -34959.67, -11055.15, -21181.54, -28087.13, 0.00, 0.00, 0.00
41, -5818.52, 42421.40, -14277.31, -22762.03, -35000.95, -11048.22, -21182.12, -28153.72, 0.00, 0.00, 0.00
42, -5777.12, 42547.73, -14296.00, -22822.47, -35027.82, -11029.85, -21247.17, -28180.86, 0.00, 0.00, 0.00
43, -5778.44, 42613.20, -14447.97, -22816.64, -35002.96, -11036.84, -21260.44, -28150.43, 0.00, 0.00, 0.00
44, -5830.74, 42460.16, -14473.92, -22743.48, -34961.55, -11049.18, -21206.93, -28101.30, 0.00, 0.00, 0.00
45, -5828.69, 42413.33, -14292.76, -22754.01, -34996.37, -11035.32, -21191.17, -28133.42, 0.00, 0.00, 0.00
46, -5788.01, 42523.93, -14279.23, -22817.20, -35039.84, -11033.92, -21215.07, -28188.25, 0.00, 0.00, 0.00
47, -5773.46, 42622.74, -14418.80, -22822.94, -35018.07, -11039.86, -21247.25, -28173.32, 0.06, 0.88, 0.43
48, -5822.16, 42491.98, -14488.11, -22749.98, -34971.47, -11059.69, -21194.64, -28095.31, 0.00, 0.00, 0.00
49, -5830.09, 42404.59, -14314.17, -22728.91, -34987.14, -11048.33, -21159.37, -28108.37, 0.00, 0.00, 0.00
50, -5786.96, 42498.33, -14252.48, -22800.28, -35033.95, -11044.40, -21237.76, -28195.41, 0.00, 0.00, 0.00
51, -5766.03, 42619.59, -14382.25, -22816.88, -35020.29, -11044.87, -21261.38, -28190.15, 0.00, 0.00, 0.00
52, -5808.91, 42527.07, -14485.83, -22753.87, -34975.09, -11058.82, -21196.00, -28105.39, 0.00, 0.00, 0.00
53, -5830.94, 42405.10, -14342.33, -22717.80, -34977.53, -11052.58, -21143.77, -28103.34, 0.00, 0.00, 0.00
54, -5793.77, 42474.04, -14240.21, -22784.83, -35028.96, -11046.32, -21204.45, -28188.14, 0.00, 0.00, 0.00
55, -5770.93, 42601.55, -14353.31, -22822.85, -35033.48, -11035.48, -21241.13, -28192.61, 0.00, 0.00, 0.00
56, -5799.43, 42549.70, -14483.64, -22771.96, -34987.54, -11048.18, -21220.90, -28111.65, 0.00, 0.00, 0.00
57, -5839.97, 42397.68, -14381.20, -22728.28, -34978.18, -11049.25, -21181.05, -28088.99, 0.05, 0.89, 0.44
58, -5807.77, 42440.69, -14239.60, -22777.52, -35032.07, -11041.22, -21196.02, -28163.02, 0.00, 0.00, 0.00
59, -5772.72, 42574.46, -14322.28, -22817.17, -35039.06, -11040.80, -21246.36, -28198.89, 0.00, 0.00, 0.00
60, -5801.44, 42566.68, -14470.23, -22788.18, -35010.36, -11067.89, -21243.43, -28172.54, 0.00, 0.00, 0.00
61, -5846.17, 42407.67, -14415.15, -22723.32, -34977.30, -11053.67, -21161.74, -28091.04, 0.00, 0.00, 0.00
62, -5812.82, 42422.29, -14247.11, -22754.16, -35013.27, -11026.99, -21164.46, -28124.17, 0.00, 0.00, 0.00
63, -5778.91, 42548.87, -14294.75, -22810.00, -35043.42, -11025.74, -21233.06, -28189.39, 0.00, 0.00, 0.00
64, -5791.94, 42589.44, -14449.20, -22792.79, -35016.27, -11047.13, -21246.40, -28156.60, 0.00, 0.00, 0.00
65, -5844.24, 42427.83, -14452.32, -22729.20, -34975.88, -11060.04, -21185.45, -28084.94, 0.00, 0.00, 0.00
66, -5824.62, 42400.65, -14273.47, -22746.25, -35008.22, -11054.30, -21159.70, -28128.02, 0.00, 0.00, 0.00
67, -5783.51, 42522.72, -14282.56, -22814.65, -35045.90, -11051.84, -21219.14, -28202.83, 0.04, 0.89, 0.43
68, -5780.00, 42600.73, -14435.56, -22818.11, -35024.00, -11061.10, -21272.38, -28181.91, 0.00, 0.00, 0.00
69, -5830.59, 42455.26, -14471.32, -22736.24, -34973.57, -11058.06, -21213.50, -28090.91, 0.00, 0.00, 0.00
70, -5831.82, 42390.55, -14295.01, -22739.59, -35001.42, -11054.17, -21177.47, -28127.28, 0.00, 0.00, 0.00
71, -5788.03, 42496.14, -14256.46, -22803.94, -35041.43, -11051.51, -21217.59, -28194.09, 0.00, 0.00, 0.00
72, -5775.69, 42603.36, -14390.03, -22807.29, -35029.90, -11059.58, -21241.71, -28192.50, 0.00, 0.00, 0.00
73, -5823.48, 42487.96, -14479.53, -22745.51, -34985.55, -11077.86, -21217.19, -28108.81, 0.00, 0.00, 0.00
74, -5841.56, 42388.34, -14328.88, -22740.64, -35001.09, -11065.66, -21189.65, -28113.84, 0.00, 0.00, 0.00
75, -5806.63, 42470.95, -14261.28, -22811.29, -35057.19, -11064.16, -21228.55, -28188.07, 0.00, 0.00, 0.00
76, -5783.45, 42596.79, -14384.73, -22830.72, -35047.80, -11066.66, -21237.40, -28189.88, 0.00, 0.00, 0.00
77, -5815.99, 42525.13, -14497.81, -22760.78, -34996.30, -11081.28, -21209.46, -28115.61, 0.04, 0.89, 0.43
78, -5835.17, 42397.55, -14357.17, -22704.86, -34976.88, -11068.32, -21151.21, -28084.07, 0.00, 0.00, 0.00
79, -5795.54, 42462.93, -14235.42, -22772.81, -35024.55, -11057.94, -21213.71, -28164.78, 0.00, 0.00, 0.00
80, -5762.21, 42602.40, -14333.48, -22811.16, -35024.07, -11053.25, -21234.56, -28184.01, 0.00, 0.00, 0.00
81, -5785.23, 42580.36, -14468.48, -22766.17, -34982.76, -11067.82, -21200.67, -28131.93, 0.00, 0.00, 0.00
82, -5820.75, 42430.52, -14385.94, -22710.20, -34961.32, -11058.21, -21147.43, -28077.75, 0.00, 0.00, 0.00
83, -5791.36, 42456.89, -14238.62, -22764.69, -35018.25, -11053.56, -21179.71, -28149.72, 0.00, 0.00, 0.00
84, -5757.76, 42586.04, -14312.94, -22829.45, -35040.20, -11061.65, -21262.10, -28215.23, 0.00, 0.00, 0.00
85, -5766.84, 42607.03, -14453.15, -22793.01, -34998.83, -11071.29, -21262.65, -28174.48, 0.00, 0.00, 0.00
86, -5818.81, 42440.35, -14424.50, -22735.88, -34971.32, -11073.52, -21230.27, -28118.40, 0.00, 0.00, 0.00
87, -5801.31, 42429.91, -14261.75, -22770.53, -35013.54, -11051.93, -21239.90, -28153.32, 0.04, 0.88, 0.44
88, -5772.43, 42552.04, -14302.97, -22820.15, -35051.31, -11045.16, -21244.30, -28202.22, 0.00, 0.00, 0.00
89, -5772.58, 42608.35, -14456.75, -22793.21, -35022.48, -11056.65, -21222.47, -28151.64, 0.00, 0.00, 0.00
90, -5822.94, 42451.50, -14470.45, -22726.16, -34980.64, -11057.88, -21170.43, -28080.12, 0.00, 0.00, 0.00
91, -5815.45, 42405.66, -14288.55, -22739.75, -35015.64, -11051.48, -21159.75, -28129.02, 0.00, 0.00, 0.00
92, -5773.48, 42520.06, -14283.97, -22804.03, -35052.27, -11053.21, -21234.54, -28200.32, 0.00, 0.00, 0.00
93, -5771.42, 42611.72, -14437.64, -22810.54, -35039.58, -11056.38, -21300.85, -28181.59, 0.00, 0.00, 0.00
94, -5824.53, 42477.34, -14508.90, -22747.37, -35000.75, -11074.01, -21251.01, -28118.36, 0.00, 0.00, 0.00
95, -5827.86, 42396.30, -14336.23, -22735.23, -35016.27, -11073.41, -21161.63, -28121.22, 0.00, 0.00, 0.00
96, -5791.29, 42488.34, -14281.51, -22800.05, -35062.64, -11068.27, -21200.72, -28186.98, 0.00, 0.00, 0.00
97, -5766.10, 42605.46, -14407.42, -22804.52, -35037.59, -11069.23, -21245.91, -28179.76, 0.04, 0.88, 0.43
98, -5810.09, 42508.86, -14501.63, -22736.33, -34988.66, -11084.10, -21212.39, -28112.10, 0.00, 0.00, 0.00
99, -5835.19, 42393.08, -14358.56, -22717.55, -35000.28, -11073.63, -21166.70, -28101.48, 0.00, 0.00, 0.00
100, -5795.56, 42469.77, -14268.15, -22783.09, -35059.92, -11069.41, -21203.89, -28172.63, 0.00, 0.00, 0.00
101, -5761.61, 42600.32, -14375.34, -22806.96, -35047.55, -11071.09, -21243.86, -28179.45, 0.00, 0.00, 0.00
102, -5791.98, 42542.79, -14500.29, -22746.27, -34994.11, -11078.15, -21220.30, -28110.00, 0.00, 0.00, 0.00
103, -5835.57, 42396.92, -14395.98, -22708.95, -34999.79, -11070.51, -21163.10, -28104.48, 0.00, 0.00, 0.00
104, -5800.39, 42445.04, -14265.98, -22765.77, -35058.20, -11072.43, -21184.54, -28194.47, 0.00, 0.00, 0.00
105, -5762.39, 42578.57, -14347.99, -22801.53, -35056.39, -11062.82, -21238.18, -28210.40, 0.00, 0.00, 0.00
106, -5790.46, 42564.85, -14489.83, -22765.61, -35017.63, -11070.10, -21229.33, -28128.87, 0.00, 0.00, 0.00
107, -5838.36, 42406.04, -14423.09, -22712.41, -34992.35, -11063.58, -21191.60, -28085.68, 0.04, 0.88, 0.43
108, -5813.26, 42423.95, -14259.27, -22757.56, -35045.03, -11064.65, -21219.99, -28178.71, 0.00, 0.00, 0.00
109, -5781.17, 42551.08, -14322.19, -22821.06, -35070.00, -11067.29, -21277.77, -28223.77, 0.00, 0.00, 0.00
110, -5787.22, 42582.71, -14472.53, -22783.51, -35026.16, -11073.61, -21230.63, -28142.63, 0.00, 0.00, 0.00
111, -5836.80, 42420.79, -14455.03, -22704.05, -34982.36, -11065.97, -21146.27, -28074.59, 0.00, 0.00, 0.00
112, -5820.42, 42407.67, -14272.42, -22733.94, -35018.21, -11058.32, -21158.72, -28125.62, 0.00, 0.00, 0.00
113, -5782.64, 42529.36, -14294.75, -22805.71, -35062.04, -11063.80, -21225.15, -28193.80, 0.00, 0.00, 0.00
114, -5778.28, 42598.49, -14449.42, -22796.14, -35034.32, -11076.83, -21243.03, -28161.05, 0.00, 0.00, 0.00
115, -5831.06, 42446.97, -14485.99, -22725.53, -34987.90, -11082.20, -21199.33, -28078.98, 0.00, 0.00, 0.00
116, -5825.04, 42396.81, -14305.70, -22726.63, -35016.71, -11066.21, -21163.62, -28113.04, 0.00, 0.00, 0.00
117, -5777.84, 42508.37, -14281.92, -22785.79, -35057.46, -11054.05, -21205.30, -28181.01, 0.04, 0.89, 0.44
118, -5762.93, 42605.93, -14417.59, -22792.52, -35033.72, -11054.79, -21236.44, -28164.78, 0.00, 0.00, 0.00
119, -5818.87, 42475.98, -14495.60, -22734.14, -34994.14, -11077.43, -21204.47, -28093.41, 0.00, 0.00, 0.00
120, -5827.23, 42388.74, -14327.51, -22717.78, -35007.32, -11064.38, -21167.37, -28101.66, 0.00, 0.00, 0.00
121, -5779.69, 42488.83, -14257.82, -22782.06, -35056.96, -11057.54, -21213.41, -28177.32, 0.00, 0.00, 0.00
122, -5756.27, 42605.48, -14382.68, -22805.60, -35049.61, -11061.50, -21245.89, -28187.43, 0.00, 0.00, 0.00
123, -5804.61, 42503.43, -14491.93, -22750.92, -35005.94, -11087.78, -21226.31, -28124.06, 0.00, 0.00, 0.00
124, -5831.95, 42375.51, -14357.98, -22712.10, -34999.61, -11079.67, -21173.45, -28111.77, 0.00, 0.00, 0.00
125, -5786.22, 42462.12, -14251.18, -22768.65, -35052.03, -11067.26, -21210.22, -28205.67, 0.00, 0.00, 0.00
126, -5755.24, 42591.11, -14362.72, -22802.40, -35056.79, -11069.88, -21254.54, -28232.33, 0.00, 0.00, 0.00
127, -5792.68, 42525.69, -14495.58, -22755.17, -35012.51, -11084.34, -21229.96, -28132.55, 0.04, 0.89, 0.44
128, -5835.46, 42372.74, -14402.19, -22711.81, -34989.02, -11067.22, -21201.79, -28090.49, 0.00, 0.00, 0.00
129, -5798.44, 42444.91, -14255.58, -22754.32, -35042.48, -11043.88, -21163.86, -28151.15, 0.00, 0.00, 0.00
130, -5755.06, 42579.29, -14333.99, -22786.51, -35054.17, -11051.91, -21176.31, -28180.07, 0.00, 0.00, 0.00
131, -5777.75, 42553.63, -14477.58, -22748.06, -35016.06, -11071.47, -21198.15, -28111.52, 0.00, 0.00, 0.00
132, -5834.54, 42381.57, -14433.57, -22689.39, -34982.67, -11053.90, -21143.72, -28045.92, 0.00, 0.00, 0.00
133, -5806.38, 42425.38, -14264.19, -22736.39, -35024.94, -11022.40, -21162.85, -28114.18, 0.00, 0.00, 0.00
134, -5768.11, 42556.34, -14306.70, -22793.95, -35047.80, -11027.72, -21229.93, -28174.64, 0.00, 0.00, 0.00
135, -5780.63, 42574.62, -14460.01, -22772.72, -35022.10, -11056.89, -21232.70, -28143.35, 0.00, 0.00, 0.00
136, -5839.30, 42396.47, -14468.26, -22707.52, -34982.40, -11055.78, -21177.52, -28078.51, 0.00, 0.00, 0.00
137, -5821.58, 42402.93, -14288.42, -22737.47, -35018.79, -11021.02, -21191.49, -28131.79, 0.05, 0.88, 0.44
138, -5764.38, 42541.40, -14286.47, -22791.36, -35045.50, -11018.31, -21230.51, -28170.73, 0.00, 0.00, 0.00
139, -5767.17, 42594.00, -14435.34, -22781.79, -35025.74, -11035.35, -21226.31, -28123.39, 0.00, 0.00, 0.00
140, -5836.76, 42414.63, -14495.22, -22716.28, -34987.52, -11066.93, -21180.42, -28076.38, 0.00, 0.00, 0.00
141, -5826.12, 42375.84, -14307.84, -22704.10, -34988.10, -11028.66, -21138.85, -28093.48, 0.00, 0.00, 0.00
142, -5778.44, 42510.51, -14267.99, -22779.96, -35039.06, -11008.79, -21192.56, -28160.76, 0.00, 0.00, 0.00
143, -5769.92, 42593.13, -14422.02, -22799.58, -35032.20, -11036.17, -21243.72, -28156.51, 0.00, 0.00, 0.00
144, -5819.08, 42444.96, -14513.81, -22726.49, -34977.59, -11054.99, -21201.77, -28072.00, 0.00, 0.00, 0.00
145, -5834.45, 42359.35, -14358.18, -22710.06, -34982.98, -11033.89, -21165.29, -28087.69, 0.00, 0.00, 0.00
146, -5785.79, 42481.37, -14274.20, -22788.61, -35042.97, -11025.71, -21235.47, -28184.30, 0.00, 0.00, 0.00
147, -5756.92, 42591.94, -14389.72, -22799.27, -35038.71, -11035.48, -21234.85, -28183.47, 0.05, 0.88, 0.44
148, -5800.19, 42483.91, -14506.86, -22732.30, -34986.89, -11055.87, -21174.66, -28096.90, 0.00, 0.00, 0.00
149, -5836.17, 42354.45, -14390.77, -22698.67, -34972.48, -11037.65, -21141.20, -28089.21, 0.00, 0.00, 0.00
150, -5789.91, 42457.34, -14258.49, -22756.80, -35025.38, -11020.55, -21181.67, -28146.72, 0.00, 0.00, 0.00
151, -5759.98, 42576.05, -14356.41, -22801.71, -35041.92, -11040.31, -21258.43, -28187.58, 0.00, 0.00, 0.00
152, -5797.22, 42504.61, -14502.08, -22763.22, -35006.68, -11078.82, -21248.48, -28139.17, 0.00, 0.00, 0.00
153, -5843.68, 42339.28, -14425.77, -22700.25, -34973.75, -11064.22, -21155.59, -28066.15, 0.00, 0.00, 0.00
154, -5799.16, 42420.55, -14259.29, -22743.26, -35018.36, -11025.13, -21161.11, -28130.61, 0.00, 0.00, 0.00
155, -5759.62, 42556.63, -14329.73, -22797.30, -35041.63, -11027.97, -21227.09, -28173.23, 0.00, 0.00, 0.00
156, -5785.17, 42535.61, -14485.23, -22768.18, -35014.07, -11057.88, -21240.53, -28131.97, 0.00, 0.00, 0.00
157, -5842.95, 42356.20, -14459.16, -22696.43, -34977.68, -11059.13, -21180.98, -28084.65, 0.05, 0.88, 0.43
158, -5818.43, 42393.21, -14281.69, -22732.39, -35021.65, -11041.52, -21168.91, -28162.44, 0.00, 0.00, 0.00
159, -5776.18, 42528.62, -14319.62, -22800.68, -35059.98, -11044.51, -21229.22, -28212.91, 0.00, 0.00, 0.00
160, -5773.25, 42563.04, -14470.38, -22778.64, -35020.18, -11055.19, -21248.93, -28135.57, 0.00, 0.00, 0.00
161, -5829.25, 42387.27, -14491.02, -22702.49, -34969.39, -11049.61, -21190.66, -28065.25, 0.00, 0.00, 0.00
162, -5813.78, 42380.25, -14302.23, -22711.21, -34988.70, -11019.52, -21167.26, -28101.89, 0.00, 0.00, 0.00
163, -5773.90, 42510.65, -14296.73, -22794.26, -35042.97, -11019.52, -21250.96, -28175.96, 0.00, 0.00, 0.00
164, -5773.77, 42573.41, -14455.81, -22803.41, -35035.73, -11047.57, -21268.60, -28162.33, 0.00, 0.00, 0.00
165, -5823.50, 42415.47, -14514.57, -22712.10, -34978.07, -11057.34, -21184.58, -28069.41, 0.00, 0.00, 0.00
166, -5831.32, 42360.78, -14336.07, -22709.01, -34994.70, -11032.87, -21155.17, -28100.88, 0.00, 0.00, 0.00
167, -5789.57, 42483.24, -14277.31, -22784.65, -35052.03, -11034.81, -21192.40, -28178.84, 0.05, 0.88, 0.43
168, -5772.43, 42578.21, -14414.91, -22805.42, -35042.62, -11050.77, -21243.66, -28173.59, 0.00, 0.00, 0.00
169, -5806.89, 42465.34, -14518.04, -22735.50, -34983.05, -11069.79, -21214.91, -28106.24, 0.00, 0.00, 0.00
170, -5823.68, 42367.75, -14372.66, -22699.87, -34985.13, -11054.30, -21141.58, -28076.00, 0.00, 0.00, 0.00
171, -5770.35, 42470.28, -14271.34, -22770.64, -35038.01, -11048.18, -21196.74, -28159.55, 0.00, 0.00, 0.00
172, -5738.61, 42590.38, -14378.59, -22806.20, -35031.35, -11048.00, -21260.46, -28174.55, 0.00, 0.00, 0.00
173, -5764.56, 42528.28, -14494.77, -22734.54, -34966.75, -11046.95, -21205.90, -28081.52, 0.00, 0.00, 0.00
174, -5796.61, 42394.11, -14382.21, -22680.07, -34946.37, -11022.70, -21126.00, -28047.44, 0.00, 0.00, 0.00
175, -5769.28, 42461.61, -14252.23, -22759.24, -35019.80, -11024.80, -21182.88, -28149.92, 0.00, 0.00, 0.00
176, -5735.39, 42585.30, -14345.97, -22805.13, -35034.44, -11050.72, -21245.64, -28192.46, 0.00, 0.00, 0.00
177, -5754.75, 42561.09, -14487.55, -22752.15, -34986.09, -11070.26, -21215.85, -28133.11, 0.05, 0.89, 0.43
178, -5806.11, 42398.89, -14424.99, -22689.63, -34958.57, -11066.21, -21153.67, -28081.97, 0.00, 0.00, 0.00
179, -5767.17, 42439.23, -14251.34, -22726.81, -34999.84, -11044.78, -21156.39, -28127.19, 0.00, 0.00, 0.00
180, -5723.19, 42573.66, -14303.13, -22780.49, -35018.41, -11032.49, -21219.54, -28166.15, 0.00, 0.00, 0.00
181, -5740.17, 42591.94, -14454.69, -22762.64, -34991.25, -11048.51, -21228.39, -28132.06, 0.00, 0.00, 0.00
182, -5794.73, 42420.61, -14450.20, -22690.37, -34948.18, -11057.65, -21151.59, -28074.46, 0.00, 0.00, 0.00
183, -5778.02, 42422.31, -14272.42, -22724.66, -34991.68, -11057.23, -21180.22, -28177.66, 0.00, 0.00, 0.00
184, -5731.64, 42552.04, -14280.66, -22788.97, -35025.56, -11062.50, -21257.16, -28220.28, 0.00, 0.00, 0.00
185, -5729.94, 42611.74, -14419.38, -22770.77, -34996.01, -11050.23, -21240.44, -28135.53, 0.00, 0.00, 0.00
186, -5785.86, 42453.43, -14462.70, -22693.41, -34952.11, -11050.70, -21125.21, -28039.50, 0.00, 0.00, 0.00
187, -5778.13, 42415.32, -14278.88, -22701.21, -34973.97, -11031.21, -21099.38, -28057.00, 0.06, 0.89, 0.43
188, -5733.04, 42534.23, -14246.64, -22776.76, -35020.58, -11038.90, -21172.98, -28136.11, 0.00, 0.00, 0.00
189, -5719.30, 42622.68, -14384.40, -22784.90, -35005.54, -11060.29, -21211.36, -28140.20, 0.00, 0.00, 0.00
190, -5771.80, 42484.72, -14465.96, -22711.47, -34958.42, -11070.57, -21165.60, -28075.56, 0.00, 0.00, 0.00
191, -5787.20, 42394.95, -14306.55, -22697.84, -34969.17, -11051.46, -21160.08, -28091.92, 0.00, 0.00, 0.00
192, -5743.55, 42499.89, -14235.62, -22765.14, -35023.66, -11039.33, -21185.41, -28157.99, 0.00, 0.00, 0.00
193, -5724.37, 42607.32, -14368.37, -22788.25, -35025.41, -11045.20, -21206.28, -28161.54, 0.00, 0.00, 0.00
194, -5766.75, 42505.66, -14475.01, -22717.78, -34970.64, -11062.19, -21179.46, -28090.02, 0.00, 0.00, 0.00
195, -5795.78, 42383.36, -14342.89, -22682.28, -34960.32, -11049.72, -21135.74, -28080.05, 0.00, 0.00, 0.00
196, -5744.76, 42475.04, -14224.83, -22743.50, -35006.32, -11041.69, -21176.53, -28163.26, 0.00, 0.00, 0.00
197, -5718.16, 42598.38, -14335.27, -22792.39, -35020.42, -11043.48, -21246.09, -28205.64, 0.06, 0.88, 0.43
198, -5748.89, 42544.18, -14475.41, -22743.03, -34972.63, -11052.74, -21228.77, -28128.31, 0.00, 0.00, 0.00
199, -5792.50, 42393.75, -14384.71, -22687.24, -34947.31, -11033.51, -21158.96, -28063.29, 0.00, 0.00, 0.00
200, -5748.51, 42459.71, -14222.68, -22725.98, -34993.58, -11013.58, -21136.08, -28114.74, 0.00, 0.00, 0.00
201, -5714.13, 42591.27, -14297.87, -22783.60, -35013.07, -11017.76, -21202.73, -28161.01, 0.00, 0.00, 0.00
202, -5725.44, 42583.18, -14448.35, -22749.07, -34973.71, -11043.64, -21212.45, -28113.38, 0.00, 0.00, 0.00
203, -5774.10, 42417.55, -14410.46, -22682.48, -34938.37, -11039.86, -21153.29, -28062.41, 0.00, 0.00, 0.00
204, -5744.89, 42453.36, -14236.67, -22721.15, -34983.59, -11032.87, -21155.34, -28133.78, 0.00, 0.00, 0.00
205, -5706.06, 42586.84, -14274.43, -22779.73, -35014.50, -11025.91, -21195.98, -28176.96, 0.00, 0.00, 0.00
206, -5720.95, 42611.01, -14433.28, -22768.49, -34994.83, -11044.13, -21216.25, -28143.73, 0.00, 0.00, 0.00
207, -5778.40, 42430.76, -14451.23, -22695.45, -34947.27, -11054.99, -21161.04, -28071.64, 0.07, 0.88, 0.44
208, -5762.26, 42418.91, -14257.66, -22705.44, -34974.49, -11033.63, -21132.99, -28094.38, 0.00, 0.00, 0.00
209, -5715.01, 42546.43, -14242.17, -22772.52, -35014.74, -11027.55, -21188.49, -28142.77, 0.00, 0.00, 0.00
210, -5708.61, 42608.64, -14388.98, -22770.53, -34996.26, -11041.90, -21229.51, -28140.62, 0.00, 0.00, 0.00
211, -5765.39, 42451.28, -14449.78, -22700.65, -34950.89, -11061.92, -21186.86, -28083.04, 0.00, 0.00, 0.00
212, -5767.35, 42400.45, -14278.05, -22689.19, -34970.11, -11035.88, -21118.91, -28070.68, 0.00, 0.00, 0.00
213, -5712.48, 42529.20, -14228.87, -22749.74, -35009.60, -11014.69, -21166.81, -28128.11, 0.00, 0.00, 0.00
214, -5699.00, 42625.89, -14367.21, -22769.30, -34998.63, -11025.82, -21225.53, -28147.04, 0.00, 0.00, 0.00
215, -5757.90, 42492.77, -14464.71, -22700.34, -34957.79, -11052.16, -21177.29, -28075.98, 0.00, 0.00, 0.00
216, -5777.57, 42397.41, -14315.98, -22668.94, -34955.51, -11032.64, -21095.17, -28050.81, 0.00, 0.00, 0.00
217, -5729.27, 42506.33, -14222.77, -22741.02, -35006.72, -11025.22, -21149.15, -28122.12, 0.06, 0.88, 0.45
218, -5705.30, 42621.98, -14340.03, -22771.60, -35005.18, -11033.47, -21213.53, -28138.21, 0.00, 0.00, 0.00
219, -5751.04, 42532.44, -14472.37, -22717.87, -34963.71, -11055.15, -21209.50, -28080.88, 0.00, 0.00, 0.00
220, -5785.68, 42394.04, -14360.71, -22674.86, -34948.23, -11043.64, -21159.37, -28068.80, 0.00, 0.00, 0.00
221, -5741.29, 42479.87, -14227.38, -22727.92, -34999.34, -11026.12, -21144.53, -28138.30, 0.00, 0.00, 0.00
222, -5708.70, 42608.53, -14323.04, -22774.21, -35013.13, -11025.80, -21194.01, -28177.32, 0.00, 0.00, 0.00
223, -5735.48, 42567.31, -14467.64, -22734.63, -34968.27, -11040.06, -21191.82, -28096.19, 0.00, 0.00, 0.00
224, -5778.19, 42407.65, -14400.16, -22665.00, -34927.33, -11017.20, -21110.19, -28020.71, 0.00, 0.00, 0.00
225, -5749.47, 42457.61, -14239.20, -22717.33, -34985.80, -11001.42, -21134.06, -28123.48, 0.00, 0.00, 0.00
226, -5719.45, 42581.82, -14305.81, -22781.23, -35019.44, -11026.88, -21221.06, -28203.07, 0.00, 0.00, 0.00
227, -5737.09, 42581.84, -14461.82, -22753.74, -34982.85, -11051.26, -21231.61, -28140.53, 0.06, 0.87, 0.44
228, -5791.83, 42406.20, -14447.85, -22688.16, -34943.06, -11031.73, -21157.20, -28040.78, 0.00, 0.00, 0.00
229, -5763.17, 42423.52, -14259.32, -22709.51, -34982.09, -11008.41, -21118.20, -28100.10, 0.00, 0.00, 0.00
230, -5720.06, 42559.33, -14272.57, -22769.50, -35015.88, -11002.44, -21181.09, -28154.68, 0.00, 0.00, 0.00
231, -5720.26, 42610.67, -14422.98, -22749.11, -34980.52, -11009.55, -21189.59, -28096.97, 0.00, 0.00, 0.00
232, -5781.17, 42441.45, -14456.24, -22676.87, -34935.80, -11019.88, -21143.54, -28028.80, 0.00, 0.00, 0.00
233, -5772.38, 42408.37, -14272.01, -22686.48, -34967.43, -10997.13, -21118.80, -28065.90, 0.00, 0.00, 0.00
234, -5728.75, 42528.86, -14253.24, -22762.99, -35019.19, -10995.07, -21178.54, -28144.55, 0.00, 0.00, 0.00
235, -5712.14, 42613.38, -14390.41, -22759.93, -34996.68, -11011.56, -21210.24, -28140.17, 0.00, 0.00, 0.00
236, -5767.11, 42469.05, -14467.48, -22687.33, -34950.44, -11037.16, -21171.66, -28087.92, 0.00, 0.00, 0.00
237, -5774.17, 42395.04, -14302.34, -22669.03, -34955.13, -11028.66, -21108.05, -28072.79, 0.05, 0.87, 0.44
238, -5722.54, 42513.46, -14233.79, -22736.19, -35003.73, -11016.53, -21161.20, -28134.74, 0.00, 0.00, 0.00
239, -5701.50, 42620.48, -14367.61, -22760.38, -34996.50, -11027.17, -21228.19, -28148.98, 0.00, 0.00, 0.00
240, -5749.58, 42508.75, -14476.17, -22705.26, -34949.01, -11048.42, -21207.92, -28073.32, 0.00, 0.00, 0.00
241, -5777.14, 42393.41, -14336.54, -22674.88, -34943.69, -11023.95, -21123.72, -28037.63, 0.00, 0.00, 0.00
242, -5731.81, 42489.05, -14219.17, -22736.69, -34999.57, -11011.27, -21154.49, -28123.75, 0.00, 0.00, 0.00
243, -5702.27, 42612.55, -14325.14, -22773.50, -35000.75, -11019.10, -21220.92, -28153.79, 0.00, 0.00, 0.00
244, -5739.91, 42543.57, -14461.80, -22721.22, -34960.27, -11050.50, -21193.10, -28100.75, 0.00, 0.00, 0.00
245, -5778.69, 42392.16, -14369.49, -22670.30, -34944.14, -11034.70, -21129.60, -28066.75, 0.00, 0.00, 0.00
246, -5735.52, 42463.30, -14220.98, -22723.65, -34995.28, -11013.13, -21153.40, -28112.99, 0.00, 0.00, 0.00
247, -5700.61, 42591.83, -14301.23, -22776.87, -35017.54, -11022.99, -21234.65, -28163.58, 0.05, 0.88, 0.44
248, -5719.83, 42572.34, -14451.03, -22735.93, -34973.82, -11046.46, -21215.92, -28096.23, 0.00, 0.00, 0.00
249, -5765.36, 42406.49, -14401.74, -22653.27, -34929.14, -11037.31, -21097.27, -28022.56, 0.00, 0.00, 0.00
250, -5738.34, 42446.05, -14223.46, -22695.58, -34981.17, -11009.87, -21102.44, -28086.73, 0.00, 0.00, 0.00
251, -5702.11, 42576.29, -14258.71, -22756.51, -35014.05, -11003.67, -21174.79, -28135.71, 0.00, 0.00, 0.00
252, -5717.51, 42594.67, -14416.65, -22741.56, -34989.24, -11025.02, -21201.10, -28103.56, 0.00, 0.00, 0.00
253, -5768.34, 42421.51, -14421.81, -22663.75, -34938.97, -11029.67, -21137.64, -28039.75, 0.00, 0.00, 0.00
254, -5755.26, 42415.03, -14232.00, -22689.12, -34982.34, -11018.74, -21129.84, -28108.64, 0.00, 0.00, 0.00
255, -5709.57, 42544.15, -14238.51, -22762.61, -35020.51, -11014.58, -21197.66, -28164.70, 0.00, 0.00, 0.00
0, -5703.83, 42606.20, -14389.72, -22755.26, -34988.66, -11016.41, -21227.56, -28124.17, 0.00, 0.00, 0.00
1, -5764.38, 42443.82, -14442.96, -22681.30, -34944.80, -11025.85, -21180.27, -28047.57, 0.04, 0.88, 0.43
2, -5762.68, 42397.35, -14267.05, -22679.87, -34969.73, -11011.30, -21119.83, -28073.48, 0.00, 0.00, 0.00
3, -5714.51, 42518.92, -14232.43, -22744.89, -35015.10, -11014.38, -21162.01, -28147.64, 0.00, 0.00, 0.00
4, -5698.93, 42612.97, -14371.59, -22758.19, -35001.69, -11034.18, -21206.82, -28127.23, 0.00, 0.00, 0.00
5, -5747.10, 42483.98, -14456.48, -22692.65, -34951.58, -11049.43, -21163.99, -28040.78, 0.00, 0.00, 0.00
6, -5755.44, 42395.25, -14290.07, -22664.82, -34952.92, -11028.84, -21115.74, -28047.46, 0.00, 0.00, 0.00
7, -5711.21, 42499.79, -14199.71, -22739.81, -35009.43, -11020.59, -21179.28, -28136.04, 0.00, 0.00, 0.00
8, -5692.65, 42608.68, -14335.45, -22779.47, -35009.52, -11028.26, -21276.16, -28165.07, 0.00, 0.00, 0.00
9, -5735.03, 42516.55, -14462.18, -22721.11, -34958.77, -11038.43, -21239.88, -28073.59, 0.00, 0.00, 0.00
10, -5768.00, 42389.84, -14338.22, -22663.01, -34949.12, -11016.93, -21107.18, -28035.48, 0.00, 0.00, 0.00
11, -5721.71, 42475.82, -14206.63, -22719.99, -35002.09, -11006.24, -21111.24, -28115.77, 0.05, 0.89, 0.43
12, -5685.93, 42602.42, -14304.54, -22758.32, -35005.60, -11004.81, -21179.86, -28145.00, 0.00, 0.00, 0.00
13, -5717.31, 42554.59, -14448.41, -22713.64, -34966.55, -11019.23, -21174.72, -28074.91, 0.00, 0.00, 0.00
14, -5762.70, 42393.05, -14373.71, -22654.97, -34941.63, -11014.04, -21111.38, -28026.99, 0.00, 0.00, 0.00
15, -5722.87, 42453.34, -14205.61, -22698.60, -34986.54, -10999.76, -21120.86, -28101.66, 0.00, 0.00, 0.00
16, -5681.50, 42590.38, -14271.99, -22754.75, -35005.58, -11001.44, -21181.27, -28163.46, 0.00, 0.00, 0.00
17, -5693.97, 42596.23, -14423.11, -22727.86, -34968.83, -11018.54, -21190.64, -28111.92, 0.00, 0.00, 0.00
18, -5742.59, 42433.27, -14397.36, -22655.86, -34926.10, -11010.85, -21120.32, -28022.92, 0.00, 0.00, 0.00
19, -5710.24, 42460.63, -14209.76, -22687.04, -34960.83, -10983.18, -21112.52, -28067.73, 0.00, 0.00, 0.00
20, -5662.52, 42594.58, -14238.69, -22759.08, -34987.90, -10982.13, -21195.82, -28143.82, 0.00, 0.00, 0.00
21, -5660.00, 42639.39, -14392.06, -22739.97, -34948.72, -10999.32, -21218.71, -28107.47, 0.06, 0.89, 0.43
22, -5719.97, 42469.27, -14419.02, -22665.61, -34909.45, -10997.88, -21141.04, -28012.14, 0.00, 0.00, 0.00
23, -5718.63, 42440.15, -14246.35, -22686.13, -34953.90, -10990.53, -21111.24, -28069.45, 0.00, 0.00, 0.00
24, -5672.05, 42562.46, -14240.83, -22751.08, -34998.05, -10999.79, -21168.96, -28146.90, 0.00, 0.00, 0.00
25, -5664.96, 42635.26, -14395.10, -22757.00, -34980.95, -11018.45, -21206.69, -28127.90, 0.00, 0.00, 0.00
26, -5729.89, 42476.83, -14479.91, -22691.83, -34943.35, -11044.24, -21173.65, -28063.49, 0.00, 0.00, 0.00
27, -5737.56, 42408.05, -14298.75, -22671.57, -34957.32, -11021.18, -21125.44, -28069.70, 0.00, 0.00, 0.00
28, -5687.00, 42531.21, -14232.41, -22735.46, -35008.08, -10996.99, -21168.33, -28123.63, 0.00, 0.00, 0.00
29, -5670.23, 42633.29, -14368.48, -22763.78, -35009.40, -11011.00, -21227.27, -28144.29, 0.00, 0.00, 0.00
30, -5721.51, 42507.88, -14481.36, -22711.81, -34964.79, -11035.03, -21226.85, -28074.73, 0.00, 0.00, 0.00
31, -5741.72, 42403.38, -14337.59, -22683.76, -34961.37, -11020.44, -21167.93, -28059.96, 0.07, 0.90, 0.43
32, -5685.08, 42515.50, -14220.89, -22725.93, -35015.28, -11013.08, -21137.46, -28148.42, 0.00, 0.00, 0.00
33, -5657.47, 42631.26, -14333.35, -22755.44, -35026.68, -11021.64, -21186.26, -28151.51, 0.00, 0.00, 0.00
34, -5690.55, 42542.72, -14462.72, -22699.71, -34977.84, -11035.70, -21180.76, -28046.77, 0.00, 0.00, 0.00
35, -5726.56, 42395.18, -14351.14, -22657.58, -34966.04, -11025.58, -21129.95, -28029.62, 0.00, 0.00, 0.00
36, -5679.71, 42488.79, -14195.64, -22707.96, -35028.13, -11024.55, -21133.37, -28145.88, 0.00, 0.00, 0.00
37, -5640.75, 42620.73, -14286.70, -22752.18, -35042.39, -11039.12, -21188.45, -28160.09, 0.00, 0.00, 0.00
38, -5664.74, 42571.89, -14435.00, -22710.42, -35000.89, -11052.31, -21170.10, -28061.29, 0.00, 0.00, 0.00
39, -5716.46, 42397.95, -14382.90, -22653.63, -34975.34, -11053.63, -21108.70, -28025.31, 0.00, 0.00, 0.00
40, -5671.93, 42467.08, -14204.94, -22699.67, -35019.80, -11035.26, -21125.19, -28093.66, 0.00, 0.00, 0.00
41, -5622.98, 42609.26, -14258.04, -22758.81, -35044.05, -11043.17, -21196.05, -28151.11, 0.06, 0.88, 0.43
42, -5635.81, 42616.84, -14418.33, -22730.34, -34996.95, -11043.01, -21190.41, -28075.76, 0.00, 0.00, 0.00
43, -5698.40, 42435.77, -14422.33, -22666.57, -34957.73, -11032.98, -21146.34, -28037.45, 0.00, 0.00, 0.00
44, -5674.21, 42462.90, -14231.80, -22689.86, -35002.96, -11015.70, -21116.05, -28106.02, 0.00, 0.00, 0.00
45, -5622.29, 42609.98, -14242.51, -22748.73, -35040.02, -11011.41, -21159.57, -28141.76, 0.00, 0.00, 0.00
46, -5626.76, 42648.09, -14397.65, -22744.42, -35018.41, -11024.28, -21197.30, -28098.62, 0.00, 0.00, 0.00
47, -5692.18, 42463.64, -14442.76, -22676.60, -34972.45, -11033.65, -21162.25, -28030.45, 0.00, 0.00, 0.00
48, -5683.47, 42441.56, -14250.51, -22683.53, -34995.07, -11009.40, -21147.10, -28088.23, 0.00, 0.00, 0.00
49, -5624.53, 42585.97, -14207.71, -22741.16, -35035.00, -11005.37, -21181.63, -28170.71, 0.00, 0.00, 0.00
50, -5617.66, 42659.13, -14361.98, -22747.75, -35021.41, -11024.93, -21219.79, -28157.47, 0.00, 0.00, 0.00
51, -5676.23, 42498.60, -14452.64, -22677.12, -34971.65, -11044.15, -21160.98, -28048.04, 0.07, 0.87, 0.43
52, -5686.48, 42427.92, -14276.64, -22662.23, -34978.51, -11010.00, -21108.72, -28049.31, 0.00, 0.00, 0.00
53, -5632.84, 42557.95, -14197.29, -22734.54, -35032.27, -11001.17, -21156.19, -28137.18, 0.00, 0.00, 0.00
54, -5614.02, 42656.76, -14330.26, -22760.27, -35027.11, -11016.79, -21224.19, -28138.65, 0.00, 0.00, 0.00
55, -5667.08, 42529.45, -14453.60, -22707.23, -34985.60, -11049.65, -21210.84, -28083.65, 0.00, 0.00, 0.00
56, -5700.41, 42403.92, -14318.95, -22676.98, -34977.44, -11029.94, -21159.08, -28069.52, 0.00, 0.00, 0.00
57, -5653.81, 42513.38, -14193.83, -22734.52, -35031.60, -11011.21, -21137.80, -28127.01, 0.00, 0.00, 0.00
58, -5614.45, 42637.36, -14299.37, -22762.10, -35027.91, -11015.50, -21165.89, -28138.59, 0.00, 0.00, 0.00
59, -5656.80, 42566.73, -14441.91, -22726.00, -34989.66, -11039.66, -21175.77, -28094.62, 0.00, 0.00, 0.00
60, -5698.89, 42413.46, -14360.30, -22672.63, -34963.20, -11033.07, -21117.84, -28060.45, 0.00, 0.00, 0.00
61, -5655.86, 42495.98, -14195.68, -22723.70, -35013.85, -11010.89, -21141.82, -28116.10, 0.07, 0.87, 0.44
62, -5626.14, 42623.03, -14283.39, -22785.86, -35042.68, -11015.05, -21223.45, -28169.75, 0.00, 0.00, 0.00
63, -5651.06, 42596.23, -14443.23, -22743.97, -35009.07, -11042.54, -21203.89, -28128.24, 0.00, 0.00, 0.00
64, -5702.91, 42421.71, -14404.51, -22668.78, -34967.92, -11040.69, -21128.84, -28044.80, 0.00, 0.00, 0.00
65, -5669.68, 42460.91, -14217.52, -22696.41, -35000.08, -11013.11, -21122.51, -28089.17, 0.00, 0.00, 0.00
66, -5627.54, 42597.08, -14254.40, -22758.43, -35027.57, -11009.08, -21179.17, -28151.26, 0.00, 0.00, 0.00
67, -5638.23, 42626.70, -14413.28, -22745.94, -34997.13, -11030.63, -21198.30, -28127.57, 0.00, 0.00, 0.00
68, -5698.51, 42451.48, -14429.70, -22675.26, -34952.11, -11037.60, -21144.21, -28058.30, 0.00, 0.00, 0.00
69, -5685.48, 42442.12, -14243.69, -22692.45, -34989.06, -11017.38, -21108.41, -28104.99, 0.00, 0.00, 0.00
70, -5640.40, 42570.66, -14242.53, -22760.51, -35032.89, -11019.39, -21178.34, -28176.88, 0.00, 0.00, 0.00
71, -5629.42, 42640.33, -14388.96, -22757.32, -35005.04, -11037.74, -21230.00, -28140.67, 0.07, 0.88, 0.44
72, -5687.67, 42482.57, -14441.22, -22687.18, -34952.58, -11041.90, -21175.80, -28042.54, 0.00, 0.00, 0.00
73, -5694.91, 42421.13, -14269.58, -22685.43, -34974.31, -11023.03, -21123.31, -28075.51, 0.00, 0.00, 0.00
74, -5644.66, 42542.90, -14223.02, -22751.48, -35020.53, -11023.77, -21165.96, -28150.10, 0.00, 0.00, 0.00
75, -5629.51, 42638.92, -14356.06, -22769.56, -35004.48, -11021.71, -21212.74, -28140.60, 0.00, 0.00, 0.00
76, -5683.33, 42510.34, -14458.20, -22709.06, -34956.05, -11043.71, -21196.07, -28074.55, 0.00, 0.00, 0.00
77, -5694.80, 42410.54, -14306.21, -22668.22, -34946.08, -11031.57, -21141.49, -28056.31, 0.00, 0.00, 0.00
78, -5650.95, 42517.84, -14208.36, -22734.21, -35006.83, -11023.08, -21136.52, -28149.67, 0.00, 0.00, 0.00
79, -5630.94, 42635.37, -14333.37, -22768.18, -35014.10, -11031.39, -21177.07, -28171.02, 0.00, 0.00, 0.00
80, -5674.01, 42547.30, -14469.80, -22719.03, -34966.75, -11048.00, -21169.09, -28063.64, 0.00, 0.00, 0.00
81, -5704.48, 42403.29, -14356.84, -22668.78, -34946.39, -11047.66, -21108.74, -28052.42, 0.07, 0.88, 0.44
82, -5660.42, 42487.29, -14214.28, -22721.80, -35000.98, -11035.46, -21124.16, -28112.84, 0.00, 0.00, 0.00
83, -5630.96, 42615.43, -14311.13, -22767.31, -35019.84, -11033.65, -21200.00, -28143.53, 0.00, 0.00, 0.00
84, -5659.64, 42575.18, -14455.68, -22724.44, -34979.41, -11054.41, -21183.33, -28095.65, 0.00, 0.00, 0.00
85, -5711.52, 42407.47, -14390.92, -22666.14, -34952.94, -11044.85, -21107.73, -28025.31, 0.00, 0.00, 0.00
86, -5680.27, 42448.40, -14221.57, -22704.05, -34999.97, -11029.29, -21110.08, -28093.33, 0.00, 0.00, 0.00
87, -5649.45, 42578.37, -14281.85, -22771.31, -35029.18, -11040.82, -21209.44, -28179.98, 0.00, 0.00, 0.00
88, -5667.40, 42589.86, -14442.40, -22749.02, -34997.85, -11060.29, -21215.54, -28127.90, 0.00, 0.00, 0.00
89, -5722.36, 42414.27, -14432.48, -22668.71, -34954.24, -11052.94, -21109.19, -28029.09, 0.00, 0.00, 0.00
90, -5698.51, 42420.05, -14247.49, -22696.01, -34988.44, -11037.72, -21111.36, -28089.03, 0.00, 0.00, 0.00
91, -5655.21, 42553.68, -14264.46, -22761.70, -35023.33, -11034.09, -21180.47, -28139.93, 0.00, 0.00, 0.00
92, -5654.25, 42607.21, -14417.57, -22749.83, -34996.48, -11043.39, -21192.87, -28109.13, 0.06, 0.88, 0.44
93, -5713.13, 42445.31, -14456.35, -22681.90, -34952.96, -11048.87, -21144.10, -28053.03, 0.00, 0.00, 0.00
94, -5703.70, 42407.83, -14270.56, -22677.65, -34979.23, -11038.72, -21106.88, -28080.07, 0.00, 0.00, 0.00
95, -5655.95, 42530.79, -14242.93, -22745.34, -35024.38, -11041.81, -21163.39, -28162.48, 0.00, 0.00, 0.00
96, -5647.73, 42616.41, -14392.53, -22763.82, -35008.39, -11050.34, -21217.19, -28147.80, 0.00, 0.00, 0.00
97, -5698.49, 42477.97, -14468.02, -22688.45, -34958.33, -11053.99, -21163.99, -28055.26, 0.00, 0.00, 0.00
98, -5713.64, 42386.46, -14304.60, -22665.65, -34974.13, -11045.40, -21107.94, -28067.80, 0.00, 0.00, 0.00
99, -5665.32, 42493.04, -14227.13, -22733.09, -35021.92, -11037.25, -21165.20, -28136.64, 0.00, 0.00, 0.00
100, -5642.65, 42607.21, -14355.72, -22757.25, -35017.72, -11039.64, -21193.50, -28127.95, 0.00, 0.00, 0.00
101, -5682.75, 42507.34, -14470.16, -22698.17, -34971.02, -11060.11, -21162.45, -28060.83, 0.00, 0.00, 0.00
102, -5708.17, 42383.91, -14335.13, -22665.45, -34966.09, -11059.33, -21115.69, -28056.85, 0.06, 0.89, 0.44
103, -5658.12, 42473.59, -14213.12, -22720.64, -35011.35, -11042.30, -21128.90, -28114.63, 0.00, 0.00, 0.00
104, -5629.15, 42603.09, -14318.50, -22765.70, -35015.82, -11041.38, -21190.06, -28160.98, 0.00, 0.00, 0.00
105, -5667.35, 42544.82, -14459.14, -22719.43, -34980.68, -11068.78, -21190.19, -28114.49, 0.00, 0.00, 0.00
106, -5710.74, 42391.24, -14367.86, -22664.82, -34957.37, -11046.95, -21122.29, -28028.10, 0.00, 0.00, 0.00
107, -5673.45, 42445.92, -14223.22, -22716.72, -35005.54, -11024.73, -21146.47, -28081.84, 0.00, 0.00, 0.00
108, -5639.03, 42577.34, -14295.64, -22767.22, -35024.82, -11022.92, -21190.50, -28138.81, 0.00, 0.00, 0.00
109, -5663.53, 42570.66, -14447.34, -22743.50, -34994.61, -11063.49, -21214.31, -28122.56, 0.00, 0.00, 0.00
110, -5710.00, 42407.89, -14410.95, -22677.79, -34959.78, -11078.37, -21145.67, -28050.90, 0.00, 0.00, 0.00
111, -5671.55, 42435.70, -14233.86, -22699.45, -35002.50, -11058.57, -21115.20, -28107.27, 0.00, 0.00, 0.00
112, -5637.53, 42563.13, -14270.07, -22758.21, -35035.89, -11055.60, -21183.98, -28159.53, 0.07, 0.89, 0.44
113, -5645.13, 42595.65, -14417.68, -22743.73, -35004.91, -11069.72, -21208.14, -28102.38, 0.00, 0.00, 0.00
114, -5696.61, 42430.63, -14418.46, -22675.11, -34956.12, -11062.48, -21156.62, -28026.61, 0.00, 0.00, 0.00
115, -5691.47, 42408.32, -14240.77, -22703.13, -34995.07, -11039.28, -21143.01, -28075.27, 0.00, 0.00, 0.00
116, -5649.76, 42531.66, -14243.92, -22769.03, -35034.93, -11039.77, -21200.07, -28148.09, 0.00, 0.00, 0.00
117, -5642.36, 42609.26, -14394.72, -22767.13, -35011.37, -11051.62, -21254.97, -28142.79, 0.00, 0.00, 0.00
118, -5693.53, 42462.46, -14456.79, -22692.72, -34964.92, -11059.20, -21174.01, -28060.04, 0.00, 0.00, 0.00
119, -5689.48, 42401.44, -14279.66, -22674.75, -34983.68, -11038.95, -21095.17, -28073.54, 0.00, 0.00, 0.00
120, -5644.89, 42513.80, -14235.47, -22738.67, -35035.62, -11040.62, -21144.57, -28157.68, 0.00, 0.00, 0.00
121, -5629.98, 42617.04, -14381.22, -22756.69, -35025.47, -11044.29, -21194.82, -28132.71, 0.00, 0.00, 0.00
122, -5675.02, 42497.82, -14470.72, -22690.02, -34973.26, -11055.37, -21165.13, -28053.38, 0.08, 0.89, 0.43
123, -5698.38, 42392.45, -14321.52, -22671.40, -34979.05, -11048.58, -21132.32, -28064.98, 0.00, 0.00, 0.00
124, -5655.97, 42486.38, -14231.65, -22734.41, -35025.63, -11028.44, -21176.42, -28126.56, 0.00, 0.00, 0.00
125, -5633.42, 42610.34, -14347.74, -22769.19, -35024.82, -11029.92, -21220.59, -28132.78, 0.00, 0.00, 0.00
126, -5672.29, 42530.68, -14473.40, -22715.14, -34978.22, -11054.19, -21189.79, -28065.95, 0.00, 0.00, 0.00
127, -5707.05, 42390.84, -14360.86, -22676.60, -34966.44, -11052.09, -21144.93, -28057.34, 0.00, 0.00, 0.00
128, -5666.48, 42461.83, -14231.18, -22731.37, -35022.30, -11042.05, -21162.01, -28135.71, 0.00, 0.00, 0.00
129, -5627.70, 42597.30, -14323.22, -22768.51, -35031.35, -11040.84, -21225.37, -28178.82, 0.00, 0.00, 0.00
130, -5653.69, 42567.00, -14457.64, -22726.78, -34991.25, -11044.40, -21207.09, -28089.37, 0.00, 0.00, 0.00
131, -5702.69, 42405.15, -14384.06, -22665.25, -34966.31, -11039.01, -21133.28, -28016.17, 0.00, 0.00, 0.00
132, -5674.46, 42439.88, -14222.03, -22712.72, -35021.65, -11032.51, -21156.02, -28099.18, 0.07, 0.88, 0.43
133, -5637.02, 42571.00, -14281.98, -22773.95, -35045.12, -11037.87, -21219.99, -28146.70, 0.00, 0.00, 0.00
134, -5650.23, 42587.11, -14428.25, -22741.31, -35008.06, -11047.77, -21178.81, -28080.52, 0.00, 0.00, 0.00
135, -5699.16, 42424.59, -14403.06, -22660.13, -34965.70, -11047.37, -21086.61, -28037.27, 0.00, 0.00, 0.00
136, -5685.50, 42418.27, -14227.60, -22694.11, -35009.20, -11035.97, -21102.62, -28110.11, 0.00, 0.00, 0.00
137, -5646.30, 42545.79, -14257.66, -22765.14, -35041.23, -11029.02, -21174.63, -28153.07, 0.00, 0.00, 0.00
138, -5639.84, 42606.85, -14408.63, -22747.35, -35003.79, -11038.23, -21190.88, -28095.83, 0.00, 0.00, 0.00
139, -5693.75, 42447.59, -14436.05, -22675.84, -34960.70, -11049.12, -21141.31, -28039.23, 0.00, 0.00, 0.00
140, -5681.48, 42406.42, -14250.73, -22677.12, -34984.23, -11031.97, -21122.04, -28071.24, 0.00, 0.00, 0.00
141, -5633.47, 42527.46, -14224.02, -22737.78, -35023.37, -11025.71, -21161.33, -28155.78, 0.00, 0.00, 0.00
142, -5624.95, 42621.20, -14373.60, -22747.28, -35009.13, -11041.92, -21199.89, -28155.46, 0.07, 0.88, 0.44
143, -5679.49, 42483.82, -14448.26, -22682.71, -34963.87, -11060.58, -21181.43, -28062.39, 0.00, 0.00, 0.00
144, -5689.52, 42398.91, -14280.37, -22665.54, -34980.57, -11040.55, -21126.94, -28058.59, 0.00, 0.00, 0.00
145, -5645.31, 42499.70, -14213.23, -22726.49, -35025.88, -11032.17, -21150.36, -28133.76, 0.00, 0.00, 0.00
146, -5634.14, 42608.64, -14350.89, -22761.70, -35025.79, -11037.16, -21204.79, -28136.38, 0.00, 0.00, 0.00
147, -5675.64, 42504.97, -14455.54, -22697.73, -34972.59, -11059.26, -21180.22, -28066.68, 0.00, 0.00, 0.00
148, -5703.02, 42382.68, -14321.77, -22663.35, -34970.87, -11043.93, -21132.66, -28050.61, 0.00, 0.00, 0.00
149, -5662.61, 42462.48, -14216.98, -22723.59, -35027.44, -11029.54, -21157.51, -28123.23, 0.00, 0.00, 0.00
150, -5630.61, 42592.48, -14325.59, -22764.31, -35037.10, -11034.43, -21207.92, -28156.02, 0.00, 0.00, 0.00
151, -5657.14, 42541.16, -14454.07, -22720.30, -35002.12, -11063.64, -21194.19, -28113.22, 0.00, 0.00, 0.00
152, -5705.10, 42388.09, -14362.54, -22663.69, -34984.10, -11062.03, -21119.09, -28077.95, 0.06, 0.88, 0.44
153, -5678.77, 42427.50, -14218.21, -22707.00, -35024.55, -11048.06, -21142.11, -28109.82, 0.00, 0.00, 0.00
154, -5652.06, 42555.39, -14295.93, -22757.47, -35031.62, -11041.31, -21206.31, -28154.14, 0.00, 0.00, 0.00
155, -5695.27, 42539.91, -14448.59, -22727.72, -34997.82, -11061.83, -21196.14, -28101.60, 0.00, 0.00, 0.00
156, -5755.95, 42367.53, -14401.56, -22658.95, -34958.15, -11059.02, -21110.80, -28031.19, 0.00, 0.00, 0.00
157, -5744.89, 42374.12, -14236.03, -22699.40, -35002.81, -11044.76, -21126.20, -28084.79, 0.00, 0.00, 0.00
158, -5722.72, 42492.52, -14285.54, -22759.71, -35028.67, -11039.91, -21192.34, -28138.92, 0.00, 0.00, 0.00
159, -5741.51, 42519.45, -14441.69, -22741.56, -34997.78, -11049.09, -21201.41, -28106.85, 0.00, 0.00, 0.00
160, -5804.66, 42343.34, -14447.52, -22682.93, -34963.85, -11057.83, -21145.44, -28038.47, 0.00, 0.00, 0.00
161, -5800.64, 42308.92, -14271.79, -22702.93, -35006.65, -11048.40, -21133.55, -28084.00, 0.00, 0.00, 0.00
162, -5771.76, 42418.54, -14281.31, -22775.26, -35052.54, -11055.55, -21204.41, -28161.43, 0.07, 0.88, 0.44
163, -5772.56, 42483.54, -14433.86, -22775.96, -35036.80, -11088.97, -21244.04, -28153.52, 0.00, 0.00, 0.00
164, -5832.15, 42329.24, -14483.26, -22709.28, -34990.98, -11090.58, -21214.46, -28069.37, 0.00, 0.00, 0.00
165, -5838.99, 42262.27, -14308.54, -22711.14, -35013.71, -11065.86, -21163.68, -28089.44, 0.00, 0.00, 0.00
166, -5798.27, 42371.04, -14267.23, -22767.40, -35052.21, -11059.24, -21174.99, -28154.73, 0.00, 0.00, 0.00
167, -5784.65, 42476.88, -14406.17, -22778.75, -35030.48, -11058.44, -21218.29, -28149.00, 0.00, 0.00, 0.00
168, -5829.67, 42362.46, -14497.77, -22715.23, -34986.16, -11069.95, -21183.82, -28080.03, 0.00, 0.00, 0.00
169, -5843.68, 42267.35, -14347.50, -22690.93, -34994.76, -11055.64, -21117.44, -28080.23, 0.00, 0.00, 0.00
170, -5795.00, 42362.46, -14267.07, -22759.15, -35038.32, -11046.17, -21159.93, -28136.64, 0.00, 0.00, 0.00
171, -5765.07, 42489.70, -14388.69, -22792.36, -35031.73, -11048.15, -21236.55, -28163.00, 0.00, 0.00, 0.00
172, -5802.04, 42412.03, -14507.73, -22741.16, -34992.53, -11071.09, -21250.16, -28123.72, 0.07, 0.88, 0.44
173, -5827.46, 42283.87, -14379.32, -22691.96, -34979.27, -11057.32, -21148.10, -28063.75, 0.00, 0.00, 0.00
174, -5785.95, 42352.78, -14257.93, -22741.49, -35030.57, -11043.88, -21141.17, -28114.25, 0.00, 0.00, 0.00
175, -5745.27, 42489.57, -14349.51, -22776.09, -35029.56, -11037.38, -21200.76, -28125.54, 0.00, 0.00, 0.00
176, -5773.54, 42460.42, -14485.41, -22734.67, -34991.23, -11050.23, -21172.49, -28073.99, 0.00, 0.00, 0.00
177, -5822.67, 42298.98, -14420.16, -22687.49, -34975.47, -11045.27, -21128.90, -28049.27, 0.00, 0.00, 0.00
178, -5794.96, 42329.96, -14273.60, -22736.39, -35027.13, -11036.29, -21143.05, -28104.21, 0.00, 0.00, 0.00
179, -5759.46, 42465.63, -14344.05, -22791.83, -35046.75, -11034.25, -21215.09, -28145.83, 0.00, 0.00, 0.00
180, -5762.06, 42485.32, -14483.64, -22753.90, -35000.02, -11052.29, -21223.52, -28103.67, 0.00, 0.00, 0.00
181, -5809.69, 42323.92, -14446.09, -22689.77, -34966.60, -11055.64, -21166.63, -28050.68, 0.00, 0.00, 0.00
182, -5792.45, 42322.63, -14278.65, -22719.18, -35017.58, -11050.28, -21146.38, -28108.75, 0.07, 0.89, 0.44
183, -5755.69, 42446.95, -14313.65, -22781.81, -35049.19, -11052.42, -21207.58, -28172.09, 0.00, 0.00, 0.00
184, -5747.10, 42506.31, -14456.53, -22761.99, -35013.94, -11061.27, -21217.88, -28123.41, 0.00, 0.00, 0.00
185, -5794.42, 42352.26, -14462.90, -22690.19, -34971.16, -11066.59, -21162.23, -28049.76, 0.00, 0.00, 0.00
186, -5792.14, 42306.75, -14284.42, -22703.45, -35005.63, -11058.12, -21147.16, -28099.12, 0.00, 0.00, 0.00
187, -5751.26, 42422.00, -14273.85, -22763.04, -35042.68, -11059.84, -21186.37, -28164.45, 0.00, 0.00, 0.00
188, -5741.45, 42510.80, -14415.58, -22775.26, -35026.12, -11074.84, -21228.26, -28145.67, 0.00, 0.00, 0.00
189, -5791.63, 42372.25, -14480.13, -22709.46, -34980.90, -11094.85, -21194.64, -28065.50, 0.00, 0.00, 0.00
190, -5801.93, 42291.71, -14316.58, -22704.54, -34999.19, -11082.29, -21169.45, -28076.83, 0.00, 0.00, 0.00
191, -5752.80, 42397.77, -14255.41, -22762.48, -35037.18, -11065.10, -21197.59, -28133.40, 0.00, 0.00, 0.00
192, -5734.50, 42514.04, -14385.60, -22779.62, -35028.29, -11069.19, -21220.95, -28144.11, 0.07, 0.89, 0.43
193, -5774.39, 42415.54, -14482.86, -22718.45, -34976.46, -11085.39, -21181.00, -28067.17, 0.00, 0.00, 0.00
194, -5799.14, 42300.18, -14345.01, -22696.41, -34979.90, -11076.61, -21130.24, -28059.89, 0.00, 0.00, 0.00
195, -5758.19, 42378.73, -14247.34, -22758.34, -35032.80, -11080.94, -21173.00, -28166.79, 0.00, 0.00, 0.00
196, -5728.33, 42506.78, -14355.36, -22786.22, -35030.93, -11083.69, -21214.67, -28157.30, 0.00, 0.00, 0.00
197, -5756.67, 42447.82, -14475.64, -22729.85, -34982.58, -11099.58, -21213.23, -28082.64, 0.00, 0.00, 0.00
198, -5793.37, 42304.99, -14371.25, -22677.88, -34965.50, -11081.99, -21125.91, -28048.58, 0.00, 0.00, 0.00
199, -5751.77, 42362.57, -14240.56, -22720.57, -35002.23, -11057.18, -21108.99, -28060.83, 0.00, 0.00, 0.00
200, -5716.37, 42498.69, -14326.80, -22769.86, -35014.39, -11042.48, -21180.36, -28106.47, 0.00, 0.00, 0.00
201, -5745.47, 42482.15, -14473.54, -22740.75, -34988.77, -11067.11, -21187.35, -28076.54, 0.00, 0.00, 0.00
202, -5796.50, 42318.58, -14418.46, -22681.68, -34965.55, -11069.59, -21139.47, -28033.27, 0.07, 0.89, 0.43
203, -5768.63, 42340.35, -14257.51, -22721.89, -35011.77, -11061.86, -21143.77, -28093.33, 0.00, 0.00, 0.00
204, -5730.03, 42471.18, -14298.57, -22771.04, -35029.65, -11069.25, -21184.42, -28147.15, 0.00, 0.00, 0.00
205, -5736.15, 42503.05, -14441.73, -22750.37, -34992.37, -11087.92, -21198.10, -28114.38, 0.00, 0.00, 0.00
206, -5795.85, 42334.65, -14441.66, -22692.59, -34964.63, -11090.87, -21150.38, -28047.57, 0.00, 0.00, 0.00
207, -5782.08, 42313.21, -14270.25, -22713.44, -35001.49, -11077.55, -21138.92, -28091.56, 0.00, 0.00, 0.00
208, -5734.25, 42438.50, -14280.26, -22765.56, -35026.50, -11064.31, -21191.60, -28142.79, 0.00, 0.00, 0.00
209, -5726.49, 42512.70, -14421.10, -22757.45, -34994.32, -11068.49, -21218.00, -28123.25, 0.00, 0.00, 0.00
210, -5785.12, 42360.00, -14464.04, -22690.80, -34957.48, -11078.24, -21168.98, -28051.91, 0.00, 0.00, 0.00
211, -5786.11, 42300.92, -14288.53, -22687.87, -34984.03, -11060.51, -21114.51, -28072.76, 0.00, 0.00, 0.00
212, -5745.47, 42412.57, -14253.64, -22752.58, -35028.76, -11050.39, -21171.04, -28162.95, 0.06, 0.89, 0.44
213, -5728.24, 42518.70, -14390.30, -22758.48, -35007.57, -11044.31, -21205.37, -28101.24, 0.00, 0.00, 0.00
214, -5775.56, 42398.08, -14472.69, -22689.86, -34961.61, -11050.68, -21153.44, -28015.43, 0.00, 0.00, 0.00
215, -5792.07, 42300.63, -14317.72, -22676.11, -34977.62, -11042.16, -21117.21, -28037.16, 0.00, 0.00, 0.00
216, -5750.19, 42392.05, -14247.81, -22748.64, -35027.44, -11039.62, -21197.99, -28118.11, 0.00, 0.00, 0.00
217, -5726.20, 42516.39, -14371.84, -22774.84, -35024.11, -11039.57, -21227.72, -28128.48, 0.00, 0.00, 0.00
218, -5769.72, 42432.77, -14488.09, -22717.87, -34986.60, -11066.28, -21171.21, -28073.92, 0.00, 0.00, 0.00
219, -5791.76, 42305.28, -14362.92, -22671.33, -34972.39, -11066.55, -21106.95, -28060.65, 0.00, 0.00, 0.00
220, -5754.50, 42373.30, -14242.06, -22734.54, -35022.37, -11045.99, -21152.19, -28119.10, 0.00, 0.00, 0.00
221, -5723.63, 42507.12, -14340.57, -22776.92, -35029.77, -11045.54, -21208.43, -28142.79, 0.00, 0.00, 0.00
222, -5752.20, 42470.79, -14487.01, -22744.51, -34992.32, -11070.30, -21208.56, -28080.99, 0.07, 0.88, 0.43
223, -5790.58, 42317.50, -14396.69, -22680.25, -34967.92, -11059.58, -21113.61, -28028.48, 0.00, 0.00, 0.00
224, -5764.20, 42353.85, -14248.10, -22719.09, -35021.58, -11038.74, -21104.96, -28088.18, 0.00, 0.00, 0.00
225, -5718.31, 42488.79, -14318.13, -22761.34, -35026.05, -11038.86, -21172.18, -28116.68, 0.00, 0.00, 0.00
226, -5731.95, 42501.26, -14462.83, -22736.46, -34990.96, -11061.77, -21202.57, -28092.63, 0.00, 0.00, 0.00
227, -5774.39, 42340.98, -14424.74, -22668.24, -34956.14, -11064.65, -21141.66, -28022.76, 0.00, 0.00, 0.00
228, -5760.74, 42340.82, -14258.74, -22712.88, -35008.44, -11049.27, -21136.48, -28078.19, 0.00, 0.00, 0.00
229, -5720.55, 42468.67, -14292.20, -22772.81, -35031.15, -11051.80, -21189.03, -28139.86, 0.00, 0.00, 0.00
230, -5718.81, 42522.05, -14440.17, -22752.00, -35000.84, -11058.35, -21190.10, -28102.89, 0.00, 0.00, 0.00
231, -5772.94, 42359.93, -14457.98, -22674.84, -34961.41, -11065.95, -21135.61, -28032.01, 0.00, 0.00, 0.00
232, -5767.93, 42321.28, -14291.53, -22694.06, -34998.65, -11058.91, -21138.20, -28086.33, 0.06, 0.88, 0.43
233, -5724.97, 42440.02, -14291.75, -22760.78, -35032.60, -11056.98, -21199.47, -28137.43, 0.00, 0.00, 0.00
234, -5717.93, 42531.59, -14429.21, -22759.98, -35012.66, -11059.44, -21217.66, -28118.58, 0.00, 0.00, 0.00
235, -5769.70, 42398.33, -14484.87, -22691.40, -34969.93, -11063.51, -21162.12, -28029.22, 0.00, 0.00, 0.00
236, -5774.64, 42324.17, -14310.06, -22680.78, -34989.84, -11044.09, -21122.06, -28038.85, 0.00, 0.00, 0.00
237, -5736.26, 42425.11, -14263.30, -22745.83, -35039.75, -11036.08, -21162.56, -28119.25, 0.00, 0.00, 0.00
238, -5709.02, 42542.05, -14395.98, -22757.92, -35022.01, -11028.42, -21200.16, -28115.86, 0.00, 0.00, 0.00
239, -5752.33, 42436.71, -14491.46, -22701.12, -34976.97, -11040.98, -21170.10, -28051.17, 0.00, 0.00, 0.00
240, -5772.43, 42322.71, -14347.50, -22684.47, -34984.03, -11035.32, -21128.68, -28042.21, 0.00, 0.00, 0.00
241, -5727.43, 42403.11, -14251.07, -22752.82, -35034.14, -11028.42, -21173.40, -28107.90, 0.00, 0.00, 0.00
242, -5686.10, 42536.75, -14361.38, -22785.52, -35024.29, -11035.41, -21236.88, -28139.68, 0.07, 0.89, 0.43
243, -5714.25, 42487.71, -14483.13, -22725.80, -34975.76, -11048.15, -21187.64, -28069.19, 0.00, 0.00, 0.00
244, -5754.59, 42350.79, -14368.73, -22666.52, -34948.79, -11021.80, -21112.76, -28022.22, 0.00, 0.00, 0.00
245, -5725.91, 42404.66, -14237.70, -22728.64, -34997.33, -11003.96, -21162.88, -28123.63, 0.00, 0.00, 0.00
246, -5692.63, 42538.45, -14331.36, -22773.41, -35011.14, -11008.08, -21221.01, -28152.40, 0.00, 0.00, 0.00
247, -5713.13, 42521.11, -14470.05, -22733.87, -34971.94, -11031.95, -21216.05, -28074.77, 0.00, 0.00, 0.00
248, -5761.47, 42364.89, -14409.41, -22676.27, -34946.88, -11037.04, -21143.01, -28019.27, 0.00, 0.00, 0.00
249, -5731.23, 42388.27, -14242.58, -22700.12, -34990.07, -11016.71, -21110.35, -28064.58, 0.00, 0.00, 0.00
250, -5699.61, 42515.25, -14303.64, -22764.45, -35024.45, -11020.88, -21175.39, -28132.73, 0.00, 0.00, 0.00
251, -5716.68, 42531.70, -14462.23, -22748.08, -35005.27, -11048.00, -21204.23, -28104.66, 0.00, 0.00, 0.00
252, -5771.24, 42363.37, -14444.66, -22680.13, -34969.26, -11054.01, -21137.87, -28030.09, 0.07, 0.89, 0.43
253, -5755.24, 42354.52, -14270.67, -22710.51, -35010.86, -11044.47, -21141.44, -28080.76, 0.00, 0.00, 0.00
254, -5710.76, 42481.70, -14285.71, -22764.29, -35036.71, -11038.86, -21190.32, -28134.95, 0.00, 0.00, 0.00
255, -5706.87, 42547.95, -14434.58, -22751.62, -35004.37, -11039.88, -21185.01, -28088.54, 0.00, 0.00, 0.00
0, -5754.88, 42394.15, -14462.38, -22674.14, -34957.84, -11048.60, -21118.96, -28014.83, 0.00, 0.00, 0.00
1, -5741.63, 42356.58, -14280.04, -22676.78, -34979.23, -11032.11, -21096.16, -28063.15, 0.00, 0.00, 0.00
2, -5696.36, 42475.93, -14263.79, -22751.10, -35023.80, -11034.43, -21177.99, -28159.06, 0.00, 0.00, 0.00
3, -5680.18, 42573.66, -14402.66, -22754.12, -34999.79, -11034.97, -21215.87, -28111.59, 0.00, 0.00, 0.00
4, -5732.13, 42440.39, -14471.90, -22683.53, -34957.14, -11042.83, -21132.77, -28020.39, 0.00, 0.00, 0.00
5, -5744.13, 42356.51, -14309.12, -22674.62, -34971.27, -11026.54, -21092.16, -28029.38, 0.00, 0.00, 0.00
6, -5706.89, 42458.72, -14246.13, -22752.42, -35029.14, -11030.67, -21165.94, -28127.05, 0.07, 0.88, 0.43
7, -5677.03, 42573.37, -14365.26, -22757.94, -35011.93, -11044.42, -21202.95, -28125.13, 0.00, 0.00, 0.00
8, -5721.67, 42465.99, -14471.61, -22700.30, -34968.10, -11068.74, -21192.54, -28076.94, 0.00, 0.00, 0.00
9, -5753.81, 42343.34, -14347.83, -22678.86, -34972.66, -11065.21, -21150.47, -28068.69, 0.00, 0.00, 0.00
10, -5705.33, 42436.04, -14236.32, -22733.29, -35018.75, -11044.80, -21138.49, -28094.40, 0.00, 0.00, 0.00
11, -5676.99, 42563.24, -14345.48, -22768.16, -35019.04, -11037.38, -21181.09, -28106.20, 0.00, 0.00, 0.00
12, -5709.35, 42497.01, -14482.21, -22719.43, -34968.36, -11065.23, -21193.79, -28067.20, 0.00, 0.00, 0.00
13, -5747.24, 42351.05, -14377.94, -22675.29, -34948.94, -11055.22, -21149.80, -28040.24, 0.00, 0.00, 0.00
14, -5706.15, 42424.01, -14228.09, -22728.84, -34997.96, -11029.87, -21153.29, -28099.43, 0.00, 0.00, 0.00
15, -5664.98, 42559.51, -14305.47, -22757.07, -35001.89, -11028.10, -21185.21, -28103.76, 0.00, 0.00, 0.00
16, -5701.84, 42524.48, -14459.75, -22725.71, -34976.28, -11056.20, -21181.05, -28071.35, 0.07, 0.88, 0.42
17, -5759.53, 42344.68, -14423.54, -22662.97, -34943.80, -11058.35, -21118.29, -27996.70, 0.00, 0.00, 0.00
18, -5725.44, 42395.36, -14250.40, -22705.17, -34989.42, -11036.15, -21127.56, -28082.51, 0.00, 0.00, 0.00
19, -5686.19, 42530.43, -14305.18, -22769.92, -35019.17, -11049.16, -21200.38, -28151.64, 0.00, 0.00, 0.00
20, -5699.61, 42539.97, -14464.24, -22740.11, -34986.45, -11066.24, -21203.29, -28081.41, 0.00, 0.00, 0.00
21, -5757.79, 42357.52, -14458.05, -22662.57, -34941.39, -11058.68, -21128.52, -28004.01, 0.00, 0.00, 0.00
22, -5733.47, 42373.41, -14264.77, -22689.57, -34976.37, -11035.26, -21137.64, -28066.77, 0.00, 0.00, 0.00
23, -5684.52, 42513.42, -14277.98, -22764.16, -35022.77, -11037.85, -21228.14, -28139.93, 0.00, 0.00, 0.00
24, -5686.62, 42554.79, -14438.02, -22751.21, -35006.94, -11064.54, -21215.85, -28106.85, 0.00, 0.00, 0.00
25, -5749.23, 42373.05, -14481.69, -22668.00, -34958.29, -11075.58, -21133.35, -28027.70, 0.00, 0.00, 0.00
26, -5744.20, 42350.95, -14292.53, -22670.14, -34979.16, -11049.85, -21105.43, -28054.95, 0.06, 0.88, 0.43
27, -5691.83, 42497.53, -14258.92, -22740.80, -35029.03, -11045.14, -21151.28, -28124.24, 0.00, 0.00, 0.00
28, -5685.72, 42568.56, -14406.86, -22755.62, -35016.89, -11065.21, -21210.22, -28122.23, 0.00, 0.00, 0.00
29, -5750.81, 42400.63, -14500.58, -22684.00, -34966.78, -11070.21, -21148.01, -28029.06, 0.00, 0.00, 0.00
30, -5764.56, 42328.50, -14339.14, -22673.79, -34972.68, -11046.54, -21123.09, -28054.86, 0.00, 0.00, 0.00
31, -5706.67, 42474.46, -14254.91, -22752.15, -35023.86, -11034.54, -21201.81, -28123.72, 0.00, 0.00, 0.00
32, -5676.81, 42577.03, -14371.97, -22752.67, -35009.47, -11042.25, -21213.21, -28120.88, 0.00, 0.00, 0.00
33, -5736.15, 42434.83, -14493.81, -22691.22, -34963.74, -11069.28, -21187.69, -28070.50, 0.00, 0.00, 0.00
34, -5771.65, 42316.23, -14362.83, -22657.96, -34946.77, -11038.52, -21108.18, -27993.79, 0.00, 0.00, 0.00
35, -5705.17, 42463.39, -14225.86, -22700.52, -34994.56, -11006.83, -21074.70, -28038.65, 0.00, 0.00, 0.00
36, -5676.23, 42579.07, -14333.55, -22726.96, -35008.71, -11010.89, -21106.55, -28075.18, 0.07, 0.88, 0.43
37, -5730.41, 42464.94, -14484.06, -22672.51, -34974.40, -11048.27, -21111.94, -28033.76, 0.00, 0.00, 0.00
38, -5784.32, 42301.59, -14402.77, -22625.04, -34943.31, -11027.46, -21061.87, -27971.91, 0.00, 0.00, 0.00
39, -5727.61, 42435.32, -14233.39, -22679.82, -34990.36, -10996.86, -21086.46, -28058.01, 0.00, 0.00, 0.00
40, -5683.96, 42573.90, -14318.39, -22734.14, -35012.60, -11010.56, -21154.49, -28105.31, 0.00, 0.00, 0.00
41, -5723.25, 42502.20, -14486.63, -22704.32, -34980.52, -11040.89, -21158.50, -28027.23, 0.00, 0.00, 0.00
42, -5782.89, 42304.54, -14454.96, -22636.93, -34937.25, -11035.70, -21093.50, -27981.14, 0.00, 0.00, 0.00
43, -5731.39, 42406.69, -14245.88, -22671.40, -34975.88, -11001.10, -21092.31, -28048.51, 0.00, 0.00, 0.00
44, -5678.66, 42563.35, -14283.97, -22738.74, -35011.17, -11000.01, -21159.93, -28091.45, 0.00, 0.00, 0.00
45, -5697.84, 42536.73, -14460.80, -22721.71, -34983.45, -11039.30, -21179.46, -28061.47, 0.00, 0.00, 0.00
46, -5766.55, 42319.32, -14480.04, -22641.04, -34931.66, -11051.01, -21112.52, -27993.84, 0.09, 0.88, 0.44
47, -5735.52, 42371.30, -14268.12, -22655.97, -34954.53, -11006.47, -21087.26, -28035.21, 0.00, 0.00, 0.00
48, -5674.57, 42544.42, -14257.95, -22725.40, -35003.21, -11000.66, -21148.08, -28101.37, 0.00, 0.00, 0.00
49, -5683.69, 42556.20, -14422.66, -22721.93, -34987.63, -11036.98, -21178.39, -28082.73, 0.00, 0.00, 0.00
50, -5760.49, 42337.58, -14487.57, -22653.13, -34940.78, -11060.18, -21129.64, -27996.97, 0.00, 0.00, 0.00
51, -5748.98, 42331.43, -14292.40, -22649.29, -34949.03, -11020.93, -21090.79, -28025.33, 0.00, 0.00, 0.00
52, -5686.26, 42513.42, -14237.03, -22726.61, -35011.21, -11014.76, -21146.78, -28122.63, 0.00, 0.00, 0.00
53, -5681.75, 42563.93, -14391.46, -22734.65, -35007.73, -11050.88, -21182.17, -28110.69, 0.00, 0.00, 0.00
54, -5749.34, 42369.14, -14489.65, -22655.39, -34947.93, -11070.24, -21131.47, -28002.09, 0.00, 0.00, 0.00
55, -5761.63, 42302.04, -14319.31, -22630.94, -34942.59, -11032.55, -21080.31, -28006.85, 0.00, 0.00, 0.00
56, -5692.14, 42486.66, -14214.01, -22705.73, -35002.99, -11016.15, -21125.55, -28096.59, 0.08, 0.87, 0.44
57, -5673.14, 42573.39, -14350.92, -22737.22, -35012.40, -11047.06, -21179.71, -28113.42, 0.00, 0.00, 0.00
58, -5736.89, 42405.44, -14502.10, -22675.11, -34967.00, -11080.18, -21154.54, -28035.39, 0.00, 0.00, 0.00
59, -5773.21, 42272.71, -14380.82, -22625.51, -34936.94, -11047.33, -21089.74, -28001.50, 0.00, 0.00, 0.00
60, -5704.48, 42444.93, -14224.85, -22693.14, -34992.08, -11019.41, -21122.93, -28088.27, 0.00, 0.00, 0.00
61, -5678.71, 42561.39, -14331.29, -22745.13, -35021.47, -11043.21, -21185.61, -28128.62, 0.00, 0.00, 0.00
62, -5731.19, 42439.99, -14487.19, -22694.91, -34981.86, -11081.64, -21174.54, -28061.65, 0.00, 0.00, 0.00
63, -5789.71, 42256.04, -14412.65, -22633.51, -34949.61, -11062.01, -21105.57, -28014.76, 0.00, 0.00, 0.00
64, -5725.22, 42396.90, -14220.94, -22671.51, -34992.39, -11026.32, -21109.08, -28087.34, 0.00, 0.00, 0.00
65, -5679.85, 42546.21, -14282.29, -22728.68, -35029.74, -11040.62, -21173.65, -28137.45, 0.00, 0.00, 0.00
66, -5711.25, 42481.59, -14463.25, -22702.67, -34996.62, -11077.12, -21179.93, -28079.51, 0.07, 0.88, 0.44
67, -5780.74, 42271.66, -14458.09, -22635.21, -34948.40, -11069.10, -21114.28, -28014.38, 0.00, 0.00, 0.00
68, -5736.26, 42374.26, -14253.73, -22675.98, -34981.62, -11027.10, -21109.90, -28080.54, 0.00, 0.00, 0.00
69, -5688.63, 42537.78, -14285.31, -22752.00, -35033.95, -11045.25, -21181.99, -28155.53, 0.00, 0.00, 0.00
70, -5703.65, 42518.63, -14447.43, -22727.50, -35002.76, -11074.75, -21202.44, -28109.71, 0.00, 0.00, 0.00
71, -5780.54, 42291.40, -14482.41, -22654.65, -34949.21, -11075.07, -21152.26, -28030.99, 0.00, 0.00, 0.00
72, -5754.93, 42332.44, -14273.56, -22661.81, -34964.00, -11023.12, -21101.54, -28044.49, 0.00, 0.00, 0.00
73, -5692.12, 42519.25, -14244.88, -22731.92, -35019.26, -11008.23, -21140.41, -28107.59, 0.00, 0.00, 0.00
74, -5702.38, 42543.21, -14416.90, -22743.03, -35015.75, -11043.82, -21188.25, -28105.15, 0.00, 0.00, 0.00
75, -5783.65, 42321.35, -14509.17, -22675.13, -34969.86, -11079.07, -21192.85, -28078.08, 0.00, 0.00, 0.00
76, -5790.04, 42294.95, -14330.06, -22674.32, -34970.84, -11046.23, -21172.89, -28096.63, 0.07, 0.90, 0.43
77, -5716.93, 42500.21, -14244.14, -22739.66, -35017.61, -11010.51, -21143.12, -28102.74, 0.00, 0.00, 0.00
78, -5718.60, 42558.64, -14395.64, -22765.05, -35033.48, -11038.61, -21220.59, -28126.90, 0.00, 0.00, 0.00
79, -5795.11, 42347.66, -14523.34, -22690.55, -34989.71, -11086.67, -21175.77, -28049.00, 0.00, 0.00, 0.00
80, -5806.74, 42253.65, -14360.41, -22634.96, -34952.85, -11029.29, -21050.25, -27969.81, 0.00, 0.00, 0.00
81, -5731.75, 42445.18, -14225.92, -22710.51, -35005.33, -10986.24, -21103.85, -28057.81, 0.00, 0.00, 0.00
82, -5701.77, 42550.70, -14350.09, -22747.28, -35020.06, -11020.28, -21164.40, -28090.44, 0.00, 0.00, 0.00
83, -5750.68, 42409.62, -14496.45, -22674.93, -34967.52, -11045.54, -21105.39, -28010.69, 0.00, 0.00, 0.00
84, -5796.39, 42260.66, -14389.85, -22608.10, -34940.16, -11015.07, -21040.21, -27980.67, 0.00, 0.00, 0.00
85, -5737.51, 42420.10, -14226.73, -22683.15, -35009.85, -10994.64, -21087.62, -28080.18, 0.00, 0.00, 0.00
86, -5697.64, 42545.38, -14316.56, -22737.42, -35043.11, -11022.45, -21153.15, -28123.75, 0.06, 0.88, 0.43
87, -5739.57, 42444.46, -14480.62, -22701.84, -35012.22, -11068.34, -21170.52, -28074.19, 0.00, 0.00, 0.00
88, -5788.03, 42248.77, -14425.35, -22632.35, -34961.32, -11062.26, -21103.15, -28009.64, 0.00, 0.00, 0.00
89, -5725.73, 42379.75, -14224.38, -22679.80, -35004.42, -11018.00, -21101.10, -28080.21, 0.00, 0.00, 0.00
