%OpenBCI Raw EEG Data
%
%Sample Rate = 250.0 Hz
%First Column = SampleIndex
%Other Columns = EEG data in microvolts followed by Accel Data (in G) interleaved with Aux Data
0, 41416.62, 28981.52, 9336.32, 14253.51, 2838.36, 24837.62, -27518.53, 0.00, 0.16, 0.77, 0.59
1, 41451.69, 29011.31, 9355.70, 14300.38, 2907.72, 25050.74, -27522.02, 0.00, 0.00, 0.00, 0.00
2, 41477.19, 29030.09, 9350.16, 14295.46, 2917.53, 25119.05, -27551.18, 0.00, 0.00, 0.00, 0.00
3, 41443.06, 29003.27, 9330.47, 14253.08, 2844.46, 24914.28, -27546.56, 0.00, 0.00, 0.00, 0.00
4, 41416.91, 28982.03, 9328.41, 14246.80, 2827.09, 24803.06, -27535.27, 0.00, 0.00, 0.00, 0.00
5, 41450.55, 29010.51, 9356.35, 14299.93, 2913.17, 25014.82, -27531.80, 0.00, 0.00, 0.00, 0.00
6, 41477.21, 29032.59, 9353.89, 14299.73, 2948.11, 25127.14, -27555.05, 0.00, 0.00, 0.00, 0.00
7, 41454.93, 29016.07, 9336.41, 14259.21, 2890.21, 24946.98, -27545.93, 0.00, 0.15, 0.81, 0.58
8, 41418.18, 28985.65, 9330.69, 14237.79, 2843.10, 24801.43, -27521.57, 0.00, 0.00, 0.00, 0.00
9, 41441.30, 29002.48, 9348.46, 14280.73, 2878.08, 24969.04, -27554.63, 0.00, 0.00, 0.00, 0.00
10, 41477.21, 29029.75, 9355.46, 14293.78, 2922.92, 25131.03, -27582.54, 0.00, 0.00, 0.00, 0.00
11, 41457.14, 29015.47, 9340.30, 14252.43, 2884.58, 24979.93, -27562.70, 0.00, 0.00, 0.00, 0.00
12, 41417.73, 28983.75, 9327.92, 14225.52, 2835.23, 24790.61, -27568.60, 0.00, 0.00, 0.00, 0.00
13, 41427.41, 28991.73, 9342.58, 14265.02, 2865.69, 24911.17, -27575.84, 0.00, 0.00, 0.00, 0.00
14, 41476.92, 29032.97, 9356.08, 14307.64, 2924.14, 25141.60, -27558.22, 0.00, 0.00, 0.00, 0.00
15, 41478.27, 29036.99, 9343.32, 14291.68, 2894.53, 25070.79, -27547.41, 0.00, 0.00, 0.00, 0.00
16, 41427.13, 28998.59, 9328.81, 14251.85, 2840.19, 24849.42, -27541.35, 0.00, 0.15, 0.81, 0.59
17, 41416.62, 28987.44, 9338.04, 14270.67, 2859.55, 24877.80, -27554.54, 0.00, 0.00, 0.00, 0.00
18, 41458.33, 29018.02, 9356.26, 14311.26, 2925.66, 25107.51, -27548.23, 0.00, 0.00, 0.00, 0.00
19, 41459.82, 29021.97, 9343.74, 14285.00, 2910.42, 25073.13, -27579.53, 0.00, 0.00, 0.00, 0.00
20, 41424.91, 28995.31, 9334.36, 14253.51, 2854.16, 24868.30, -27536.81, 0.00, 0.00, 0.00, 0.00
21, 41417.31, 28985.09, 9346.45, 14271.07, 2864.22, 24859.79, -27514.66, 0.00, 0.00, 0.00, 0.00
22, 41459.13, 29021.37, 9364.35, 14310.79, 2917.35, 25088.58, -27554.09, 0.00, 0.00, 0.00, 0.00
23, 41475.02, 29036.08, 9354.96, 14296.80, 2912.90, 25097.39, -27582.97, 0.00, 0.00, 0.00, 0.00
24, 41447.80, 29016.77, 9344.04, 14261.55, 2865.00, 24884.93, -27542.18, 0.00, 0.00, 0.00, 0.00
25, 41432.60, 29006.33, 9353.53, 14271.61, 2866.25, 24834.98, -27521.39, 0.00, 0.00, 0.00, 0.00
26, 41472.74, 29040.30, 9374.72, 14318.59, 2926.42, 25063.97, -27523.49, 0.00, 0.15, 0.79, 0.60
27, 41505.02, 29066.30, 9376.65, 14327.42, 2945.60, 25153.89, -27531.54, 0.00, 0.00, 0.00, 0.00
28, 41478.33, 29043.99, 9366.79, 14290.18, 2900.99, 24958.00, -27520.52, 0.00, 0.00, 0.00, 0.00
29, 41448.34, 29021.19, 9366.99, 14280.44, 2873.56, 24836.39, -27510.10, 0.00, 0.00, 0.00, 0.00
30, 41475.00, 29042.13, 9385.25, 14324.92, 2919.29, 25027.78, -27519.65, 0.00, 0.00, 0.00, 0.00
31, 41505.04, 29062.90, 9385.36, 14329.64, 2944.42, 25151.75, -27547.09, 0.00, 0.00, 0.00, 0.00
32, 41486.33, 29050.72, 9373.14, 14292.46, 2905.35, 24975.48, -27537.53, 0.00, 0.00, 0.00, 0.00
33, 41455.24, 29029.30, 9372.89, 14277.15, 2886.71, 24809.68, -27536.43, 0.00, 0.00, 0.00, 0.00
34, 41477.41, 29043.21, 9396.20, 14320.07, 2934.78, 24981.05, -27481.11, 0.00, 0.00, 0.00, 0.00
35, 41526.50, 29082.95, 9416.30, 14353.49, 2984.96, 25193.37, -27481.49, 0.00, 0.00, 0.00, 0.00
36, 41521.40, 29082.52, 9413.41, 14324.36, 2949.00, 25068.91, -27491.01, 0.00, 0.14, 0.77, 0.60
37, 41482.85, 29049.91, 9402.31, 14301.36, 2897.75, 24875.37, -27470.76, 0.00, 0.00, 0.00, 0.00
38, 41490.63, 29052.37, 9411.13, 14334.82, 2917.95, 24960.62, -27474.58, 0.00, 0.00, 0.00, 0.00
39, 41536.54, 29087.53, 9424.19, 14363.97, 2977.52, 25165.81, -27525.86, 0.00, 0.00, 0.00, 0.00
40, 41533.47, 29088.31, 9408.47, 14335.42, 2946.54, 25092.89, -27563.46, 0.00, 0.00, 0.00, 0.00
41, 41489.82, 29057.56, 9388.16, 14302.39, 2887.24, 24885.52, -27514.91, 0.00, 0.00, 0.00, 0.00
42, 41484.61, 29055.12, 9400.16, 14326.86, 2915.96, 24919.56, -27450.87, 0.00, 0.00, 0.00, 0.00
43, 41521.18, 29083.06, 9413.75, 14355.47, 2974.64, 25130.33, -27489.61, 0.00, 0.00, 0.00, 0.00
44, 41525.07, 29086.68, 9405.70, 14335.92, 2965.61, 25111.78, -27515.87, 0.00, 0.00, 0.00, 0.00
45, 41478.42, 29048.13, 9382.64, 14289.29, 2893.34, 24896.60, -27523.09, 0.00, 0.00, 0.00, 0.00
46, 41456.88, 29030.58, 9381.61, 14286.45, 2883.67, 24842.46, -27502.44, 0.00, 0.14, 0.77, 0.59
47, 41485.26, 29050.49, 9393.03, 14324.47, 2943.03, 25075.15, -27571.01, 0.00, 0.00, 0.00, 0.00
48, 41500.24, 29060.17, 9378.97, 14310.17, 2930.92, 25120.03, -27585.83, 0.00, 0.00, 0.00, 0.00
49, 41461.39, 29031.50, 9353.22, 14263.79, 2865.63, 24906.64, -27551.52, 0.00, 0.00, 0.00, 0.00
50, 41431.80, 29005.61, 9345.22, 14258.49, 2841.06, 24805.59, -27509.50, 0.00, 0.00, 0.00, 0.00
51, 41457.14, 29022.80, 9357.31, 14297.76, 2907.87, 25008.72, -27524.14, 0.00, 0.00, 0.00, 0.00
52, 41476.97, 29035.21, 9351.83, 14289.94, 2925.57, 25097.83, -27576.51, 0.00, 0.00, 0.00, 0.00
53, 41455.64, 29020.65, 9342.78, 14267.63, 2874.72, 24949.37, -27545.30, 0.00, 0.00, 0.00, 0.00
54, 41420.02, 28989.61, 9339.32, 14250.29, 2837.17, 24822.64, -27549.53, 0.00, 0.00, 0.00, 0.00
55, 41437.90, 29001.10, 9349.31, 14282.23, 2870.86, 24990.23, -27587.13, 0.00, 0.13, 0.79, 0.57
56, 41475.43, 29029.15, 9351.97, 14291.75, 2904.59, 25136.62, -27580.40, 0.00, 0.00, 0.00, 0.00
57, 41464.74, 29023.47, 9344.59, 14260.48, 2879.26, 24984.53, -27536.07, 0.00, 0.00, 0.00, 0.00
58, 41425.22, 28989.83, 9338.80, 14241.21, 2842.87, 24825.50, -27530.84, 0.00, 0.00, 0.00, 0.00
59, 41431.71, 28993.10, 9349.76, 14270.69, 2873.36, 24944.35, -27578.10, 0.00, 0.00, 0.00, 0.00
60, 41469.41, 29020.30, 9353.51, 14292.64, 2911.23, 25129.08, -27590.19, 0.00, 0.00, 0.00, 0.00
61, 41467.36, 29019.45, 9340.57, 14268.71, 2872.96, 25030.80, -27568.06, 0.00, 0.00, 0.00, 0.00
62, 41432.51, 28992.04, 9334.51, 14242.49, 2837.55, 24828.52, -27538.15, 0.00, 0.00, 0.00, 0.00
63, 41426.45, 28982.72, 9339.81, 14260.21, 2860.71, 24886.74, -27549.42, 0.00, 0.00, 0.00, 0.00
64, 41467.18, 29011.33, 9348.04, 14281.74, 2910.06, 25088.74, -27612.88, 0.00, 0.00, 0.00, 0.00
65, 41474.53, 29018.80, 9338.40, 14265.53, 2889.16, 25063.77, -27608.83, 0.00, 0.14, 0.80, 0.57
66, 41431.62, 28987.80, 9324.10, 14235.49, 2834.45, 24866.05, -27552.90, 0.00, 0.00, 0.00, 0.00
67, 41429.05, 28985.25, 9334.18, 14256.01, 2842.23, 24874.63, -27538.22, 0.00, 0.00, 0.00, 0.00
68, 41469.14, 29013.28, 9348.10, 14290.72, 2897.61, 25098.13, -27575.84, 0.00, 0.00, 0.00, 0.00
69, 41478.60, 29023.38, 9336.10, 14270.05, 2895.85, 25082.66, -27605.68, 0.00, 0.00, 0.00, 0.00
70, 41448.27, 29003.85, 9329.13, 14240.03, 2854.07, 24871.48, -27559.12, 0.00, 0.00, 0.00, 0.00
71, 41424.91, 28987.62, 9329.48, 14241.03, 2833.24, 24811.13, -27562.65, 0.00, 0.00, 0.00, 0.00
72, 41460.38, 29016.34, 9348.95, 14283.68, 2893.19, 25043.18, -27572.35, 0.00, 0.00, 0.00, 0.00
73, 41487.05, 29040.84, 9352.06, 14287.32, 2915.20, 25122.00, -27543.92, 0.00, 0.00, 0.00, 0.00
74, 41454.21, 29011.74, 9333.89, 14245.06, 2856.51, 24917.61, -27542.94, 0.00, 0.00, 0.00, 0.00
75, 41424.29, 28986.66, 9333.62, 14240.25, 2830.92, 24810.75, -27552.37, 0.00, 0.15, 0.80, 0.58
76, 41461.34, 29015.94, 9359.37, 14285.96, 2893.28, 25020.07, -27546.56, 0.00, 0.00, 0.00, 0.00
77, 41488.14, 29037.13, 9362.68, 14294.16, 2917.55, 25142.89, -27568.28, 0.00, 0.00, 0.00, 0.00
78, 41460.38, 29015.33, 9344.68, 14255.16, 2872.49, 24965.74, -27563.25, 0.00, 0.00, 0.00, 0.00
79, 41424.69, 28989.07, 9343.68, 14237.88, 2855.55, 24807.37, -27523.65, 0.00, 0.00, 0.00, 0.00
80, 41441.83, 28999.96, 9362.65, 14270.31, 2906.58, 24954.69, -27531.92, 0.00, 0.00, 0.00, 0.00
81, 41488.14, 29039.03, 9377.99, 14298.48, 2944.80, 25138.78, -27556.79, 0.00, 0.00, 0.00, 0.00
82, 41475.89, 29030.31, 9363.30, 14264.70, 2894.53, 25013.41, -27558.61, 0.00, 0.00, 0.00, 0.00
83, 41448.11, 29008.12, 9362.09, 14248.59, 2855.57, 24839.58, -27511.11, 0.00, 0.00, 0.00, 0.00
84, 41457.03, 29014.55, 9376.11, 14278.92, 2889.16, 24940.14, -27495.26, 0.00, 0.00, 0.00, 0.00
85, 41501.53, 29050.88, 9388.22, 14305.92, 2945.49, 25134.71, -27516.96, 0.00, 0.15, 0.79, 0.60
86, 41500.95, 29051.30, 9375.57, 14281.62, 2924.88, 25048.35, -27520.99, 0.00, 0.00, 0.00, 0.00
87, 41476.79, 29035.74, 9367.17, 14260.73, 2866.45, 24839.02, -27523.87, 0.00, 0.00, 0.00, 0.00
88, 41486.36, 29039.32, 9383.40, 14283.77, 2883.13, 24884.62, -27532.68, 0.00, 0.00, 0.00, 0.00
89, 41521.74, 29066.56, 9407.71, 14322.95, 2958.86, 25113.88, -27541.01, 0.00, 0.00, 0.00, 0.00
90, 41528.63, 29072.58, 9409.06, 14309.88, 2950.18, 25086.84, -27530.91, 0.00, 0.00, 0.00, 0.00
91, 41505.00, 29050.40, 9407.38, 14279.61, 2893.39, 24881.71, -27510.88, 0.00, 0.00, 0.00, 0.00
92, 41499.14, 29041.93, 9423.47, 14293.65, 2902.42, 24877.56, -27504.45, 0.00, 0.00, 0.00, 0.00
93, 41533.65, 29062.05, 9436.44, 14331.78, 2955.82, 25114.29, -27590.34, 0.00, 0.00, 0.00, 0.00
94, 41554.06, 29078.23, 9426.76, 14313.97, 2943.37, 25126.27, -27609.81, 0.00, 0.00, 0.00, 0.00
95, 41528.07, 29057.56, 9424.70, 14290.90, 2903.89, 24939.20, -27483.77, 0.00, 0.16, 0.78, 0.59
96, 41527.10, 29057.13, 9436.91, 14301.16, 2903.65, 24880.26, -27468.24, 0.00, 0.00, 0.00, 0.00
97, 41570.09, 29095.87, 9462.81, 14355.27, 2971.11, 25111.71, -27488.06, 0.00, 0.00, 0.00, 0.00
98, 41598.67, 29125.95, 9465.65, 14364.04, 2997.88, 25195.98, -27493.25, 0.00, 0.00, 0.00, 0.00
99, 41567.65, 29100.94, 9448.22, 14327.89, 2949.71, 24996.22, -27492.73, 0.00, 0.00, 0.00, 0.00
100, 41534.70, 29071.97, 9445.76, 14315.87, 2920.41, 24878.74, -27460.03, 0.00, 0.00, 0.00, 0.00
101, 41558.60, 29089.90, 9461.72, 14353.13, 2968.62, 25086.05, -27471.10, 0.00, 0.00, 0.00, 0.00
102, 41584.04, 29110.87, 9460.31, 14350.09, 3009.82, 25197.10, -27455.03, 0.00, 0.00, 0.00, 0.00
103, 41556.34, 29087.67, 9438.38, 14299.93, 2956.96, 25000.56, -27471.10, 0.00, 0.00, 0.00, 0.00
104, 41514.99, 29051.79, 9419.20, 14272.88, 2895.78, 24845.17, -27452.61, 0.00, 0.14, 0.76, 0.58
105, 41522.16, 29057.47, 9423.67, 14306.88, 2922.11, 25020.77, -27477.38, 0.00, 0.00, 0.00, 0.00
106, 41553.86, 29080.69, 9419.99, 14321.16, 2949.27, 25176.58, -27559.37, 0.00, 0.00, 0.00, 0.00
107, 41532.54, 29064.49, 9400.52, 14277.94, 2900.45, 25023.38, -27579.62, 0.00, 0.00, 0.00, 0.00
108, 41492.50, 29030.87, 9390.88, 14245.26, 2856.08, 24824.56, -27540.43, 0.00, 0.00, 0.00, 0.00
109, 41498.49, 29029.42, 9406.75, 14275.54, 2884.40, 24930.60, -27545.39, 0.00, 0.00, 0.00, 0.00
110, 41530.52, 29053.89, 9401.05, 14292.00, 2926.65, 25134.36, -27574.59, 0.00, 0.00, 0.00, 0.00
111, 41514.81, 29038.51, 9374.86, 14262.71, 2900.09, 25031.25, -27571.21, 0.00, 0.00, 0.00, 0.00
112, 41474.24, 29006.37, 9360.15, 14230.46, 2845.29, 24829.61, -27577.74, 0.00, 0.00, 0.00, 0.00
113, 41475.29, 29009.34, 9377.70, 14235.24, 2868.04, 24868.33, -27521.68, 0.00, 0.00, 0.00, 0.00
114, 41509.98, 29034.24, 9386.46, 14261.17, 2920.39, 25088.63, -27553.60, 0.00, 0.13, 0.78, 0.58
115, 41518.34, 29040.48, 9376.53, 14244.12, 2905.23, 25052.08, -27575.93, 0.00, 0.00, 0.00, 0.00
116, 41480.66, 29013.99, 9358.25, 14202.05, 2841.49, 24822.33, -27604.92, 0.00, 0.00, 0.00, 0.00
117, 41469.79, 29008.38, 9355.21, 14213.74, 2823.09, 24803.60, -27579.28, 0.00, 0.00, 0.00, 0.00
118, 41498.29, 29025.62, 9373.94, 14267.34, 2895.51, 25061.67, -27566.61, 0.00, 0.00, 0.00, 0.00
119, 41486.25, 29005.75, 9371.62, 14247.36, 2919.16, 25096.27, -27550.78, 0.00, 0.00, 0.00, 0.00
120, 41444.34, 28973.25, 9345.13, 14196.84, 2847.52, 24854.87, -27576.44, 0.00, 0.00, 0.00, 0.00
121, 41416.35, 28949.96, 9338.98, 14197.65, 2810.69, 24774.52, -27581.20, 0.00, 0.00, 0.00, 0.00
122, 41443.78, 28964.80, 9370.70, 14254.06, 2897.32, 25020.74, -27532.92, 0.00, 0.00, 0.00, 0.00
123, 41467.58, 28982.75, 9376.96, 14259.79, 2923.90, 25127.81, -27550.96, 0.00, 0.00, 0.00, 0.00
124, 41441.54, 28967.26, 9371.71, 14223.51, 2868.00, 24940.50, -27527.16, 0.00, 0.13, 0.78, 0.58
125, 41417.76, 28950.04, 9354.18, 14222.77, 2843.66, 24815.22, -27527.47, 0.00, 0.00, 0.00, 0.00
126, 41441.54, 28969.45, 9379.02, 14264.86, 2896.94, 24989.23, -27559.43, 0.00, 0.00, 0.00, 0.00
127, 41484.81, 29007.42, 9385.45, 14276.26, 2925.15, 25123.54, -27578.01, 0.00, 0.00, 0.00, 0.00
128, 41482.47, 29010.98, 9376.33, 14251.38, 2876.33, 24976.69, -27575.75, 0.00, 0.00, 0.00, 0.00
129, 41457.93, 28994.71, 9371.44, 14244.86, 2820.41, 24817.83, -27573.27, 0.00, 0.00, 0.00, 0.00
130, 41478.80, 29014.44, 9392.09, 14288.67, 2856.98, 24961.00, -27568.39, 0.00, 0.00, 0.00, 0.00
131, 41514.45, 29043.95, 9399.36, 14301.72, 2906.91, 25134.18, -27605.05, 0.00, 0.00, 0.00, 0.00
132, 41489.73, 29023.92, 9378.57, 14252.10, 2872.58, 24984.24, -27595.82, 0.00, 0.00, 0.00, 0.00
133, 41446.01, 28985.88, 9363.35, 14219.80, 2822.62, 24778.49, -27592.98, 0.00, 0.00, 0.00, 0.00
134, 41449.14, 28982.57, 9373.34, 14245.06, 2839.36, 24860.71, -27617.23, 0.00, 0.14, 0.79, 0.60
135, 41490.80, 29012.41, 9384.63, 14279.28, 2896.76, 25099.96, -27570.36, 0.00, 0.00, 0.00, 0.00
136, 41490.91, 29018.80, 9379.06, 14260.03, 2899.76, 25053.06, -27524.90, 0.00, 0.00, 0.00, 0.00
137, 41451.67, 28987.78, 9368.80, 14221.45, 2857.47, 24829.35, -27585.38, 0.00, 0.00, 0.00, 0.00
138, 41445.03, 28979.51, 9373.52, 14238.53, 2845.40, 24853.55, -27632.57, 0.00, 0.00, 0.00, 0.00
139, 41492.95, 29019.11, 9394.42, 14283.64, 2905.73, 25112.54, -27525.61, 0.00, 0.00, 0.00, 0.00
140, 41510.50, 29032.86, 9395.62, 14268.24, 2926.65, 25103.58, -27468.55, 0.00, 0.00, 0.00, 0.00
141, 41484.08, 29012.79, 9384.16, 14240.27, 2871.73, 24896.91, -27479.17, 0.00, 0.00, 0.00, 0.00
142, 41452.18, 28995.33, 9391.40, 14256.30, 2878.52, 24858.92, -27486.92, 0.00, 0.00, 0.00, 0.00
143, 41472.61, 29013.48, 9408.65, 14300.89, 2951.64, 25083.48, -27519.36, 0.00, 0.16, 0.79, 0.61
144, 41490.40, 29029.73, 9394.84, 14287.99, 2952.44, 25115.38, -27560.46, 0.00, 0.00, 0.00, 0.00
145, 41457.70, 29008.72, 9380.02, 14246.58, 2894.84, 24910.21, -27534.69, 0.00, 0.00, 0.00, 0.00
146, 41438.41, 28990.37, 9390.10, 14252.21, 2879.02, 24840.41, -27514.64, 0.00, 0.00, 0.00, 0.00
147, 41478.82, 29020.92, 9413.55, 14300.87, 2938.90, 25051.23, -27538.94, 0.00, 0.00, 0.00, 0.00
148, 41517.00, 29049.78, 9418.44, 14310.19, 2963.26, 25153.36, -27559.95, 0.00, 0.00, 0.00, 0.00
149, 41491.86, 29029.08, 9400.29, 14270.54, 2904.54, 24966.54, -27543.29, 0.00, 0.00, 0.00, 0.00
150, 41453.34, 29001.74, 9393.39, 14255.41, 2864.73, 24830.80, -27534.22, 0.00, 0.00, 0.00, 0.00
151, 41479.00, 29023.31, 9414.06, 14298.95, 2922.69, 25003.85, -27563.88, 0.00, 0.00, 0.00, 0.00
152, 41524.09, 29058.74, 9429.15, 14317.07, 2977.65, 25160.89, -27532.41, 0.00, 0.00, 0.00, 0.00
153, 41503.14, 29046.76, 9415.54, 14285.85, 2933.76, 25012.88, -27536.39, 0.00, 0.16, 0.79, 0.60
154, 41463.69, 29014.71, 9404.74, 14261.73, 2881.16, 24827.85, -27538.09, 0.00, 0.00, 0.00, 0.00
155, 41483.20, 29028.01, 9426.47, 14302.12, 2926.80, 24960.88, -27516.72, 0.00, 0.00, 0.00, 0.00
156, 41538.91, 29074.72, 9454.52, 14345.82, 3007.34, 25193.95, -27466.40, 0.00, 0.00, 0.00, 0.00
157, 41532.31, 29071.30, 9442.74, 14322.44, 2971.64, 25095.24, -27492.29, 0.00, 0.00, 0.00, 0.00
158, 41490.60, 29036.90, 9430.45, 14289.56, 2904.30, 24882.12, -27512.81, 0.00, 0.00, 0.00, 0.00
159, 41499.68, 29043.97, 9452.15, 14320.18, 2936.73, 24941.24, -27476.30, 0.00, 0.00, 0.00, 0.00
160, 41541.66, 29075.66, 9467.26, 14348.81, 3002.60, 25148.39, -27496.40, 0.00, 0.00, 0.00, 0.00
161, 41537.27, 29074.08, 9446.88, 14316.54, 2968.87, 25084.49, -27506.26, 0.00, 0.00, 0.00, 0.00
162, 41502.65, 29049.80, 9437.42, 14296.20, 2924.61, 24915.80, -27448.25, 0.00, 0.00, 0.00, 0.00
163, 41488.43, 29032.52, 9435.99, 14306.26, 2925.31, 24927.49, -27442.55, 0.00, 0.16, 0.78, 0.58
164, 41522.50, 29054.83, 9440.66, 14336.70, 2970.57, 25146.00, -27496.67, 0.00, 0.00, 0.00, 0.00
165, 41528.27, 29059.46, 9428.37, 14319.42, 2964.31, 25152.15, -27503.91, 0.00, 0.00, 0.00, 0.00
166, 41478.67, 29019.04, 9403.56, 14272.57, 2896.79, 24931.16, -27527.42, 0.00, 0.00, 0.00, 0.00
167, 41448.58, 28993.21, 9397.25, 14262.31, 2865.25, 24857.89, -27584.44, 0.00, 0.00, 0.00, 0.00
168, 41486.31, 29024.57, 9416.99, 14307.98, 2926.25, 25086.23, -27507.75, 0.00, 0.00, 0.00, 0.00
169, 41507.99, 29044.88, 9413.12, 14303.31, 2938.92, 25147.63, -27527.78, 0.00, 0.00, 0.00, 0.00
170, 41460.76, 29004.25, 9383.31, 14246.87, 2868.98, 24917.01, -27575.99, 0.00, 0.00, 0.00, 0.00
171, 41418.54, 28967.10, 9372.76, 14230.10, 2832.26, 24794.52, -27573.54, 0.00, 0.00, 0.00, 0.00
172, 41440.04, 28981.52, 9388.54, 14259.36, 2898.60, 24968.31, -27560.33, 0.00, 0.00, 0.00, 0.00
173, 41466.57, 29003.85, 9388.25, 14265.71, 2926.27, 25081.92, -27578.19, 0.00, 0.17, 0.79, 0.58
174, 41437.27, 28983.55, 9365.07, 14235.56, 2859.30, 24940.08, -27589.88, 0.00, 0.00, 0.00, 0.00
175, 41404.50, 28952.13, 9352.15, 14218.21, 2813.82, 24793.29, -27587.28, 0.00, 0.00, 0.00, 0.00
176, 41418.99, 28962.63, 9366.23, 14254.74, 2867.06, 24946.31, -27571.23, 0.00, 0.00, 0.00, 0.00
177, 41452.54, 28990.77, 9370.39, 14265.53, 2910.44, 25086.46, -27584.20, 0.00, 0.00, 0.00, 0.00
178, 41435.21, 28982.25, 9352.55, 14233.66, 2861.38, 24950.02, -27569.42, 0.00, 0.00, 0.00, 0.00
179, 41397.08, 28950.65, 9342.49, 14211.89, 2813.53, 24782.99, -27551.70, 0.00, 0.00, 0.00, 0.00
180, 41401.33, 28949.24, 9350.25, 14236.59, 2841.42, 24881.04, -27580.87, 0.00, 0.00, 0.00, 0.00
181, 41440.67, 28980.00, 9359.28, 14259.54, 2894.22, 25087.33, -27591.10, 0.00, 0.00, 0.00, 0.00
182, 41434.68, 28977.83, 9348.53, 14234.95, 2866.37, 25005.32, -27584.98, 0.00, 0.00, 0.00, 0.00
183, 41405.02, 28954.02, 9346.11, 14216.67, 2824.93, 24827.04, -27535.83, 0.00, 0.16, 0.79, 0.58
184, 41401.33, 28948.64, 9354.18, 14234.42, 2842.36, 24859.92, -27576.44, 0.00, 0.00, 0.00, 0.00
185, 41445.96, 28983.46, 9367.19, 14265.53, 2896.79, 25075.39, -27655.72, 0.00, 0.00, 0.00, 0.00
186, 41453.75, 28991.75, 9361.20, 14246.44, 2890.10, 25036.88, -27583.24, 0.00, 0.00, 0.00, 0.00
187, 41423.10, 28969.31, 9356.31, 14223.06, 2839.92, 24836.23, -27536.07, 0.00, 0.00, 0.00, 0.00
188, 41413.60, 28957.02, 9360.82, 14231.27, 2843.16, 24822.46, -27533.77, 0.00, 0.00, 0.00, 0.00
189, 41452.49, 28985.90, 9378.50, 14270.54, 2900.38, 25051.81, -27611.27, 0.00, 0.00, 0.00, 0.00
190, 41463.33, 28997.45, 9374.83, 14255.52, 2893.86, 25059.32, -27610.93, 0.00, 0.00, 0.00, 0.00
191, 41436.69, 28977.76, 9372.18, 14225.34, 2849.40, 24861.31, -27565.53, 0.00, 0.00, 0.00, 0.00
192, 41416.53, 28956.62, 9378.55, 14226.28, 2837.11, 24795.75, -27519.82, 0.00, 0.16, 0.80, 0.59
193, 41460.18, 28990.48, 9404.36, 14278.50, 2912.90, 25034.58, -27524.88, 0.00, 0.00, 0.00, 0.00
194, 41489.89, 29015.83, 9406.58, 14284.08, 2938.29, 25117.04, -27569.36, 0.00, 0.00, 0.00, 0.00
195, 41459.54, 28994.28, 9393.83, 14245.46, 2892.67, 24913.68, -27555.77, 0.00, 0.00, 0.00, 0.00
196, 41440.67, 28978.81, 9398.86, 14248.66, 2861.14, 24819.98, -27519.65, 0.00, 0.00, 0.00, 0.00
197, 41468.79, 29000.92, 9421.66, 14290.50, 2922.27, 25011.71, -27525.30, 0.00, 0.00, 0.00, 0.00
198, 41493.87, 29021.75, 9422.24, 14288.11, 2956.15, 25111.85, -27573.40, 0.00, 0.00, 0.00, 0.00
199, 41473.70, 29009.59, 9406.49, 14267.12, 2906.75, 24988.00, -27512.52, 0.00, 0.00, 0.00, 0.00
200, 41450.06, 28992.92, 9410.04, 14266.22, 2871.17, 24855.29, -27478.05, 0.00, 0.00, 0.00, 0.00
201, 41467.96, 29005.43, 9426.58, 14305.81, 2908.79, 24986.59, -27523.98, 0.00, 0.00, 0.00, 0.00
202, 41501.58, 29030.29, 9430.60, 14323.47, 2948.33, 25148.19, -27559.05, 0.00, 0.15, 0.79, 0.59
203, 41493.00, 29024.21, 9421.51, 14296.73, 2908.72, 25029.39, -27540.23, 0.00, 0.00, 0.00, 0.00
204, 41461.50, 28999.87, 9420.17, 14270.20, 2881.72, 24842.76, -27492.87, 0.00, 0.00, 0.00, 0.00
205, 41471.36, 29008.96, 9438.78, 14299.71, 2922.69, 24936.86, -27486.72, 0.00, 0.00, 0.00, 0.00
206, 41512.73, 29040.53, 9450.52, 14327.83, 2979.80, 25148.26, -27507.22, 0.00, 0.00, 0.00, 0.00
207, 41506.70, 29034.94, 9434.72, 14294.92, 2949.02, 25052.13, -27536.61, 0.00, 0.00, 0.00, 0.00
208, 41469.70, 29008.90, 9425.10, 14271.01, 2889.99, 24859.34, -27517.32, 0.00, 0.00, 0.00, 0.00
209, 41466.22, 29007.58, 9434.25, 14302.41, 2902.37, 24912.78, -27503.02, 0.00, 0.00, 0.00, 0.00
210, 41513.58, 29046.38, 9449.04, 14347.56, 2967.10, 25135.81, -27519.02, 0.00, 0.00, 0.00, 0.00
211, 41527.73, 29059.97, 9443.03, 14337.62, 2962.23, 25134.22, -27501.76, 0.00, 0.00, 0.00, 0.00
212, 41493.96, 29034.67, 9429.44, 14304.47, 2907.13, 24925.46, -27475.59, 0.00, 0.15, 0.78, 0.59
213, 41476.66, 29012.96, 9435.43, 14305.29, 2906.02, 24892.76, -27483.59, 0.00, 0.00, 0.00, 0.00
214, 41511.08, 29034.94, 9444.68, 14335.49, 2960.89, 25113.26, -27516.16, 0.00, 0.00, 0.00, 0.00
215, 41521.83, 29052.89, 9436.15, 14329.97, 2965.20, 25137.73, -27558.56, 0.00, 0.00, 0.00, 0.00
216, 41488.82, 29035.88, 9427.70, 14314.30, 2919.61, 24959.46, -27508.22, 0.00, 0.00, 0.00, 0.00
217, 41468.25, 29021.66, 9430.78, 14324.74, 2907.63, 24907.53, -27443.90, 0.00, 0.00, 0.00, 0.00
218, 41499.92, 29048.68, 9446.61, 14362.98, 2973.79, 25115.87, -27462.87, 0.00, 0.00, 0.00, 0.00
219, 41513.09, 29054.88, 9434.80, 14340.39, 2981.57, 25180.76, -27551.34, 0.00, 0.00, 0.00, 0.00
220, 41478.71, 29021.75, 9410.42, 14289.00, 2906.93, 24969.94, -27529.79, 0.00, 0.00, 0.00, 0.00
221, 41450.62, 28996.94, 9408.16, 14278.50, 2876.62, 24846.56, -27483.12, 0.00, 0.00, 0.00, 0.00
222, 41471.56, 29013.05, 9420.25, 14315.15, 2920.14, 25023.31, -27534.49, 0.00, 0.15, 0.78, 0.58
223, 41501.58, 29038.76, 9422.33, 14327.83, 2954.14, 25165.69, -27527.74, 0.00, 0.00, 0.00, 0.00
224, 41476.36, 29021.08, 9409.01, 14287.75, 2912.90, 24997.03, -27503.31, 0.00, 0.00, 0.00, 0.00
225, 41429.32, 28979.28, 9392.09, 14251.54, 2858.36, 24800.89, -27529.26, 0.00, 0.00, 0.00, 0.00
226, 41442.70, 28986.77, 9404.32, 14295.21, 2887.26, 24964.97, -27513.34, 0.00, 0.00, 0.00, 0.00
227, 41484.32, 29020.92, 9415.02, 14327.56, 2937.82, 25192.67, -27542.31, 0.00, 0.00, 0.00, 0.00
228, 41463.09, 29002.53, 9388.67, 14281.04, 2889.50, 25049.67, -27580.44, 0.00, 0.00, 0.00, 0.00
229, 41417.98, 28965.47, 9366.03, 14240.83, 2808.32, 24821.10, -27597.74, 0.00, 0.00, 0.00, 0.00
230, 41420.38, 28965.71, 9378.30, 14265.53, 2842.16, 24896.22, -27538.15, 0.00, 0.00, 0.00, 0.00
231, 41458.46, 28997.61, 9392.00, 14293.81, 2922.62, 25113.55, -27570.32, 0.00, 0.00, 0.00, 0.00
232, 41448.22, 28992.45, 9371.95, 14263.36, 2891.85, 25048.12, -27591.80, 0.00, 0.15, 0.79, 0.57
233, 41402.56, 28958.45, 9351.32, 14227.26, 2816.86, 24832.52, -27612.58, 0.00, 0.00, 0.00, 0.00
234, 41396.82, 28957.60, 9362.79, 14254.47, 2829.53, 24857.62, -27579.48, 0.00, 0.00, 0.00, 0.00
235, 41441.81, 28993.65, 9388.31, 14300.22, 2911.20, 25089.41, -27541.57, 0.00, 0.00, 0.00, 0.00
236, 41445.81, 28995.04, 9377.74, 14279.28, 2906.80, 25074.66, -27578.54, 0.00, 0.00, 0.00, 0.00
237, 41406.40, 28964.06, 9356.98, 14241.26, 2841.87, 24856.30, -27593.18, 0.00, 0.00, 0.00, 0.00
238, 41395.30, 28953.98, 9365.02, 14254.20, 2836.01, 24814.15, -27558.98, 0.00, 0.00, 0.00, 0.00
239, 41437.70, 28988.15, 9386.03, 14297.23, 2903.40, 25027.45, -27582.57, 0.00, 0.00, 0.00, 0.00
240, 41462.53, 29009.46, 9385.36, 14292.76, 2916.86, 25093.63, -27561.02, 0.00, 0.00, 0.00, 0.00
241, 41439.82, 28993.92, 9379.64, 14266.31, 2864.24, 24910.10, -27524.67, 0.00, 0.16, 0.79, 0.57
242, 41419.68, 28975.88, 9389.48, 14264.95, 2862.10, 24814.32, -27518.01, 0.00, 0.00, 0.00, 0.00
243, 41450.95, 28999.24, 9409.15, 14310.55, 2922.04, 25017.55, -27557.53, 0.00, 0.00, 0.00, 0.00
244, 41479.67, 29023.00, 9407.00, 14308.76, 2935.28, 25104.74, -27602.71, 0.00, 0.00, 0.00, 0.00
245, 41452.96, 29002.73, 9386.03, 14259.38, 2875.95, 24899.82, -27567.63, 0.00, 0.00, 0.00, 0.00
246, 41436.33, 28998.53, 9403.96, 14267.99, 2883.06, 24797.29, -27493.81, 0.00, 0.00, 0.00, 0.00
247, 41475.23, 29029.42, 9430.71, 14333.91, 2932.95, 25024.21, -27505.29, 0.00, 0.00, 0.00, 0.00
248, 41519.06, 29060.64, 9438.99, 14349.86, 2962.95, 25171.73, -27564.37, 0.00, 0.00, 0.00, 0.00
249, 41502.32, 29053.58, 9427.36, 14316.85, 2921.46, 25026.06, -27542.02, 0.00, 0.00, 0.00, 0.00
250, 41482.55, 29043.30, 9439.63, 14307.08, 2910.58, 24854.56, -27472.64, 0.00, 0.00, 0.00, 0.00
251, 41513.91, 29068.55, 9473.09, 14359.05, 2968.62, 25001.16, -27441.86, 0.00, 0.16, 0.80, 0.57
252, 41560.39, 29104.59, 9482.55, 14384.49, 3011.05, 25194.01, -27491.06, 0.00, 0.00, 0.00, 0.00
253, 41552.96, 29099.02, 9469.54, 14354.76, 2983.62, 25079.53, -27492.09, 0.00, 0.00, 0.00, 0.00
254, 41505.02, 29060.02, 9453.69, 14325.25, 2925.11, 24883.48, -27458.22, 0.00, 0.00, 0.00, 0.00
255, 41501.51, 29057.00, 9461.14, 14355.16, 2932.68, 24964.30, -27463.23, 0.00, 0.00, 0.00, 0.00
0, 41530.39, 29076.56, 9460.62, 14373.87, 2977.50, 25179.96, -27512.25, 0.00, 0.00, 0.00, 0.00
1, 41522.16, 29071.79, 9441.29, 14340.81, 2957.38, 25114.26, -27501.85, 0.00, 0.00, 0.00, 0.00
2, 41477.93, 29036.66, 9427.27, 14303.39, 2900.14, 24894.25, -27489.40, 0.00, 0.00, 0.00, 0.00
3, 41453.12, 29012.38, 9423.70, 14301.72, 2894.82, 24884.46, -27517.05, 0.00, 0.00, 0.00, 0.00
4, 41483.32, 29036.14, 9431.43, 14334.60, 2952.02, 25118.40, -27544.66, 0.00, 0.00, 0.00, 0.00
5, 41490.04, 29042.69, 9416.61, 14311.64, 2942.54, 25109.44, -27564.55, 0.00, 0.15, 0.81, 0.58
6, 41437.74, 28996.00, 9383.02, 14251.67, 2861.69, 24863.86, -27594.23, 0.00, 0.00, 0.00, 0.00
7, 41411.12, 28974.95, 9380.83, 14251.54, 2848.35, 24813.36, -27553.89, 0.00, 0.00, 0.00, 0.00
8, 41442.73, 28999.82, 9395.44, 14299.89, 2911.83, 25063.95, -27537.39, 0.00, 0.00, 0.00, 0.00
9, 41458.55, 29011.47, 9387.08, 14295.46, 2927.25, 25118.06, -27545.64, 0.00, 0.00, 0.00, 0.00
10, 41427.59, 28986.43, 9368.31, 14264.06, 2871.46, 24938.35, -27537.68, 0.00, 0.00, 0.00, 0.00
11, 41392.12, 28954.63, 9354.36, 14243.80, 2823.96, 24810.12, -27570.45, 0.00, 0.00, 0.00, 0.00
12, 41428.13, 28985.61, 9376.40, 14292.46, 2879.31, 25003.93, -27572.26, 0.00, 0.00, 0.00, 0.00
13, 41456.72, 29006.77, 9382.32, 14293.45, 2922.31, 25130.22, -27571.44, 0.00, 0.00, 0.00, 0.00
14, 41415.97, 28972.73, 9357.87, 14236.92, 2856.31, 24943.41, -27573.65, 0.00, 0.00, 0.00, 0.00
15, 41380.14, 28944.23, 9355.01, 14219.84, 2827.70, 24797.56, -27537.77, 0.00, 0.14, 0.79, 0.59
16, 41407.30, 28967.30, 9379.08, 14270.52, 2877.68, 24970.74, -27556.73, 0.00, 0.00, 0.00, 0.00
17, 41442.14, 28997.77, 9382.10, 14287.77, 2914.49, 25123.11, -27565.62, 0.00, 0.00, 0.00, 0.00
18, 41424.84, 28984.94, 9367.24, 14251.94, 2872.33, 24975.01, -27583.95, 0.00, 0.00, 0.00, 0.00
19, 41383.67, 28949.96, 9358.43, 14222.53, 2826.74, 24795.62, -27571.90, 0.00, 0.00, 0.00, 0.00
20, 41400.59, 28961.45, 9374.83, 14260.88, 2858.85, 24921.08, -27547.23, 0.00, 0.00, 0.00, 0.00
21, 41448.02, 29000.76, 9392.81, 14297.61, 2923.97, 25134.47, -27555.70, 0.00, 0.00, 0.00, 0.00
22, 41449.32, 29004.76, 9392.05, 14275.88, 2910.85, 25049.93, -27528.65, 0.00, 0.00, 0.00, 0.00
23, 41418.25, 28980.73, 9392.47, 14250.00, 2863.55, 24856.99, -27515.87, 0.00, 0.00, 0.00, 0.00
24, 41420.24, 28982.50, 9408.74, 14275.14, 2878.10, 24904.22, -27526.37, 0.00, 0.14, 0.77, 0.60
25, 41459.24, 29012.43, 9420.25, 14305.85, 2928.77, 25123.23, -27581.96, 0.00, 0.00, 0.00, 0.00
26, 41468.83, 29022.35, 9410.38, 14285.76, 2919.79, 25086.10, -27581.76, 0.00, 0.00, 0.00, 0.00
27, 41444.22, 29006.24, 9407.38, 14266.29, 2876.54, 24899.44, -27494.41, 0.00, 0.00, 0.00, 0.00
28, 41442.46, 29004.25, 9421.73, 14288.96, 2887.35, 24898.63, -27489.49, 0.00, 0.00, 0.00, 0.00
29, 41489.33, 29039.16, 9444.04, 14337.33, 2970.14, 25127.81, -27519.62, 0.00, 0.00, 0.00, 0.00
30, 41505.29, 29055.88, 9441.31, 14329.95, 2980.92, 25136.50, -27545.82, 0.00, 0.00, 0.00, 0.00
31, 41475.00, 29037.17, 9427.88, 14296.26, 2925.82, 24930.42, -27515.11, 0.00, 0.00, 0.00, 0.00
32, 41461.70, 29030.24, 9438.60, 14316.60, 2915.18, 24906.21, -27460.44, 0.00, 0.00, 0.00, 0.00
33, 41506.20, 29073.07, 9466.28, 14372.26, 2978.73, 25134.16, -27455.96, 0.00, 0.00, 0.00, 0.00
34, 41545.63, 29108.43, 9473.12, 14388.40, 2996.01, 25218.44, -27488.58, 0.00, 0.14, 0.79, 0.59
35, 41521.71, 29092.27, 9462.75, 14361.64, 2945.54, 25025.64, -27495.57, 0.00, 0.00, 0.00, 0.00
36, 41499.28, 29073.49, 9460.58, 14351.67, 2902.44, 24902.17, -27506.32, 0.00, 0.00, 0.00, 0.00
37, 41530.05, 29096.03, 9480.85, 14392.02, 2954.21, 25099.60, -27503.17, 0.00, 0.00, 0.00, 0.00
38, 41558.66, 29115.63, 9483.26, 14392.31, 3002.49, 25223.92, -27498.81, 0.00, 0.00, 0.00, 0.00
39, 41532.71, 29095.67, 9463.53, 14348.25, 2952.24, 25042.02, -27501.56, 0.00, 0.00, 0.00, 0.00
40, 41495.34, 29064.82, 9455.91, 14328.09, 2907.20, 24883.15, -27500.85, 0.00, 0.00, 0.00, 0.00
41, 41503.37, 29064.73, 9465.40, 14353.98, 2946.30, 25029.51, -27502.81, 0.00, 0.00, 0.00, 0.00
42, 41536.76, 29090.08, 9470.90, 14367.12, 2992.07, 25209.01, -27506.66, 0.00, 0.00, 0.00, 0.00
43, 41512.17, 29069.29, 9449.47, 14317.52, 2955.75, 25072.60, -27496.20, 0.00, 0.00, 0.00, 0.00
44, 41464.70, 29028.63, 9430.74, 14284.15, 2894.55, 24874.47, -27500.24, 0.00, 0.16, 0.79, 0.58
45, 41462.73, 29025.71, 9433.87, 14308.83, 2906.35, 24965.18, -27515.40, 0.00, 0.00, 0.00, 0.00
46, 41497.53, 29055.12, 9445.36, 14335.34, 2963.33, 25159.03, -27538.26, 0.00, 0.00, 0.00, 0.00
47, 41491.95, 29050.74, 9432.88, 14306.12, 2946.32, 25071.41, -27521.50, 0.00, 0.00, 0.00, 0.00
48, 41457.66, 29023.40, 9420.46, 14281.94, 2885.70, 24881.25, -27525.08, 0.00, 0.00, 0.00, 0.00
49, 41447.24, 29014.49, 9425.78, 14297.02, 2892.90, 24901.99, -27524.07, 0.00, 0.00, 0.00, 0.00
50, 41479.79, 29036.79, 9431.70, 14323.53, 2947.46, 25104.21, -27534.82, 0.00, 0.00, 0.00, 0.00
51, 41482.11, 29038.47, 9419.34, 14302.72, 2937.58, 25085.96, -27524.67, 0.00, 0.00, 0.00, 0.00
52, 41439.48, 29005.03, 9398.04, 14270.92, 2872.38, 24898.97, -27511.96, 0.00, 0.00, 0.00, 0.00
53, 41424.11, 28991.42, 9406.64, 14275.50, 2882.95, 24859.36, -27500.15, 0.00, 0.00, 0.00, 0.00
54, 41461.21, 29019.56, 9423.90, 14315.13, 2955.55, 25092.87, -27518.84, 0.00, 0.17, 0.79, 0.59
55, 41481.46, 29040.55, 9425.66, 14314.88, 2970.79, 25145.91, -27524.25, 0.00, 0.00, 0.00, 0.00
56, 41453.01, 29019.89, 9413.28, 14271.61, 2910.62, 24927.02, -27521.72, 0.00, 0.00, 0.00, 0.00
57, 41426.36, 28995.80, 9412.72, 14263.12, 2880.34, 24832.05, -27543.25, 0.00, 0.00, 0.00, 0.00
58, 41453.03, 29017.39, 9431.63, 14303.86, 2946.34, 25045.82, -27501.83, 0.00, 0.00, 0.00, 0.00
59, 41480.23, 29043.81, 9429.08, 14310.82, 2962.95, 25148.80, -27526.89, 0.00, 0.00, 0.00, 0.00
60, 41464.05, 29032.61, 9419.32, 14282.83, 2910.26, 24974.63, -27521.43, 0.00, 0.00, 0.00, 0.00
61, 41435.66, 29008.27, 9419.45, 14272.17, 2873.43, 24845.37, -27515.27, 0.00, 0.00, 0.00, 0.00
62, 41463.22, 29030.73, 9440.88, 14317.95, 2924.39, 25025.75, -27526.42, 0.00, 0.00, 0.00, 0.00
63, 41493.17, 29055.66, 9444.68, 14326.42, 2962.46, 25152.66, -27540.84, 0.00, 0.00, 0.00, 0.00
64, 41465.95, 29033.33, 9430.98, 14290.48, 2928.26, 24998.62, -27521.90, 0.00, 0.17, 0.78, 0.59
65, 41431.97, 29002.62, 9426.60, 14277.58, 2890.08, 24851.96, -27485.87, 0.00, 0.00, 0.00, 0.00
66, 41443.95, 29008.81, 9440.21, 14307.51, 2933.31, 24969.92, -27516.85, 0.00, 0.00, 0.00, 0.00
67, 41484.19, 29043.79, 9449.18, 14331.96, 2974.46, 25163.41, -27528.12, 0.00, 0.00, 0.00, 0.00
68, 41469.39, 29035.68, 9432.08, 14302.46, 2934.92, 25058.45, -27527.16, 0.00, 0.00, 0.00, 0.00
69, 41439.51, 29011.47, 9425.86, 14285.07, 2885.19, 24867.63, -27479.66, 0.00, 0.00, 0.00, 0.00
70, 41446.68, 29016.01, 9434.07, 14319.02, 2904.05, 24952.28, -27507.82, 0.00, 0.00, 0.00, 0.00
71, 41486.04, 29048.62, 9441.42, 14346.49, 2963.24, 25158.18, -27539.85, 0.00, 0.00, 0.00, 0.00
72, 41482.73, 29050.74, 9430.74, 14323.18, 2949.71, 25090.57, -27544.21, 0.00, 0.00, 0.00, 0.00
73, 41449.21, 29023.70, 9424.48, 14292.46, 2907.16, 24884.73, -27464.95, 0.00, 0.16, 0.77, 0.59
74, 41440.60, 29012.88, 9431.21, 14307.96, 2909.95, 24902.50, -27469.33, 0.00, 0.00, 0.00, 0.00
75, 41477.41, 29044.64, 9441.58, 14345.86, 2958.57, 25125.04, -27533.35, 0.00, 0.00, 0.00, 0.00
76, 41485.55, 29057.29, 9434.00, 14333.03, 2950.03, 25123.31, -27552.14, 0.00, 0.00, 0.00, 0.00
77, 41443.98, 29024.79, 9414.46, 14290.61, 2881.97, 24898.81, -27537.06, 0.00, 0.00, 0.00, 0.00
78, 41430.70, 29014.24, 9424.17, 14304.09, 2893.28, 24858.56, -27496.60, 0.00, 0.00, 0.00, 0.00
79, 41461.10, 29035.27, 9439.19, 14340.10, 2960.60, 25074.59, -27532.56, 0.00, 0.00, 0.00, 0.00
80, 41488.03, 29058.12, 9440.55, 14339.52, 2969.38, 25141.76, -27485.07, 0.00, 0.00, 0.00, 0.00
81, 41452.63, 29026.55, 9422.42, 14294.83, 2916.75, 24955.19, -27464.24, 0.00, 0.00, 0.00, 0.00
82, 41425.67, 29001.81, 9416.10, 14285.40, 2886.08, 24855.21, -27499.55, 0.00, 0.00, 0.00, 0.00
83, 41465.01, 29029.19, 9438.09, 14329.37, 2941.58, 25058.81, -27525.17, 0.00, 0.15, 0.78, 0.58
84, 41493.06, 29049.00, 9435.05, 14329.88, 2958.97, 25158.59, -27562.74, 0.00, 0.00, 0.00, 0.00
85, 41469.28, 29037.26, 9421.95, 14293.78, 2913.77, 24975.12, -27549.31, 0.00, 0.00, 0.00, 0.00
86, 41442.21, 29018.31, 9426.65, 14289.94, 2892.72, 24841.13, -27502.50, 0.00, 0.00, 0.00, 0.00
87, 41459.87, 29030.69, 9440.13, 14334.73, 2934.81, 25018.49, -27527.71, 0.00, 0.00, 0.00, 0.00
88, 41495.66, 29063.46, 9444.71, 14357.20, 2969.03, 25193.95, -27517.99, 0.00, 0.00, 0.00, 0.00
89, 41475.70, 29051.10, 9431.50, 14316.31, 2932.93, 25040.97, -27499.48, 0.00, 0.00, 0.00, 0.00
90, 41435.68, 29017.93, 9418.26, 14286.92, 2885.74, 24850.00, -27514.53, 0.00, 0.00, 0.00, 0.00
91, 41447.04, 29025.04, 9430.74, 14322.86, 2922.98, 24969.54, -27488.67, 0.00, 0.00, 0.00, 0.00
92, 41494.76, 29063.77, 9445.09, 14356.21, 2977.12, 25176.76, -27489.05, 0.00, 0.00, 0.00, 0.00
93, 41492.23, 29063.50, 9433.64, 14335.76, 2950.61, 25087.02, -27489.87, 0.00, 0.14, 0.78, 0.58
94, 41447.91, 29024.70, 9418.22, 14304.87, 2892.49, 24889.09, -27503.71, 0.00, 0.00, 0.00, 0.00
95, 41440.33, 29014.55, 9419.54, 14314.75, 2897.50, 24931.27, -27545.53, 0.00, 0.00, 0.00, 0.00
96, 41484.25, 29048.95, 9436.88, 14346.53, 2969.23, 25141.42, -27550.33, 0.00, 0.00, 0.00, 0.00
97, 41488.95, 29051.81, 9423.79, 14320.16, 2945.38, 25083.04, -27566.63, 0.00, 0.00, 0.00, 0.00
98, 41442.68, 29016.05, 9404.12, 14282.12, 2883.80, 24874.85, -27535.27, 0.00, 0.00, 0.00, 0.00
99, 41422.43, 28998.64, 9401.66, 14289.18, 2874.21, 24871.17, -27548.79, 0.00, 0.00, 0.00, 0.00
100, 41464.47, 29033.28, 9416.52, 14329.70, 2931.32, 25105.95, -27554.58, 0.00, 0.00, 0.00, 0.00
101, 41478.76, 29044.35, 9409.73, 14317.30, 2936.64, 25123.49, -27564.42, 0.00, 0.00, 0.00, 0.00
102, 41441.12, 29016.90, 9392.63, 14282.50, 2877.79, 24921.88, -27532.34, 0.00, 0.00, 0.00, 0.00
103, 41427.82, 29008.96, 9399.85, 14287.79, 2873.79, 24836.14, -27542.11, 0.00, 0.14, 0.78, 0.58
104, 41465.95, 29035.00, 9420.81, 14335.54, 2940.26, 25091.71, -27470.99, 0.00, 0.00, 0.00, 0.00
105, 41480.57, 29044.17, 9415.43, 14326.28, 2946.03, 25165.89, -27526.66, 0.00, 0.00, 0.00, 0.00
106, 41444.11, 29017.99, 9396.29, 14281.16, 2885.12, 24951.01, -27538.62, 0.00, 0.00, 0.00, 0.00
107, 41417.76, 28996.25, 9391.71, 14279.70, 2844.62, 24842.71, -27518.64, 0.00, 0.00, 0.00, 0.00
108, 41444.29, 29016.61, 9412.34, 14326.17, 2902.87, 25052.48, -27522.53, 0.00, 0.00, 0.00, 0.00
109, 41471.61, 29039.14, 9415.34, 14327.60, 2937.89, 25156.98, -27565.98, 0.00, 0.00, 0.00, 0.00
110, 41444.25, 29019.13, 9397.63, 14293.52, 2889.61, 24977.54, -27550.80, 0.00, 0.00, 0.00, 0.00
111, 41410.92, 28992.58, 9396.02, 14283.12, 2865.58, 24835.11, -27511.93, 0.00, 0.00, 0.00, 0.00
112, 41428.80, 29007.94, 9415.25, 14328.14, 2910.06, 25014.24, -27502.52, 0.00, 0.00, 0.00, 0.00
113, 41455.09, 29027.74, 9409.79, 14339.78, 2941.49, 25179.42, -27550.13, 0.00, 0.15, 0.79, 0.59
114, 41433.29, 29006.26, 9384.58, 14290.23, 2890.39, 25040.50, -27551.18, 0.00, 0.00, 0.00, 0.00
115, 41401.02, 28977.56, 9377.81, 14264.08, 2847.84, 24853.82, -27549.08, 0.00, 0.00, 0.00, 0.00
116, 41423.86, 28993.56, 9404.12, 14305.23, 2893.79, 24961.22, -27539.34, 0.00, 0.00, 0.00, 0.00
117, 41458.64, 29019.11, 9413.24, 14324.88, 2948.08, 25154.27, -27537.62, 0.00, 0.00, 0.00, 0.00
118, 41456.27, 29021.46, 9401.17, 14294.03, 2917.44, 25053.27, -27531.85, 0.00, 0.00, 0.00, 0.00
119, 41408.71, 28988.67, 9387.91, 14268.55, 2867.57, 24862.25, -27515.09, 0.00, 0.00, 0.00, 0.00
120, 41401.91, 28985.45, 9399.27, 14295.62, 2888.27, 24910.82, -27534.13, 0.00, 0.00, 0.00, 0.00
121, 41445.52, 29017.03, 9414.46, 14326.55, 2943.57, 25135.12, -27569.47, 0.00, 0.00, 0.00, 0.00
122, 41458.93, 29028.57, 9412.61, 14313.97, 2941.80, 25110.02, -27538.60, 0.00, 0.16, 0.79, 0.60
123, 41423.28, 29000.20, 9398.89, 14281.40, 2890.84, 24898.21, -27509.95, 0.00, 0.00, 0.00, 0.00
124, 41408.64, 28982.50, 9395.85, 14278.92, 2874.90, 24853.91, -27562.20, 0.00, 0.00, 0.00, 0.00
125, 41457.48, 29019.29, 9419.81, 14327.49, 2943.03, 25100.87, -27548.99, 0.00, 0.00, 0.00, 0.00
126, 41481.82, 29041.62, 9427.90, 14332.45, 2961.54, 25162.32, -27506.64, 0.00, 0.00, 0.00, 0.00
127, 41446.77, 29016.54, 9415.92, 14295.37, 2910.02, 24946.58, -27503.75, 0.00, 0.00, 0.00, 0.00
128, 41429.20, 29002.04, 9417.64, 14303.95, 2897.19, 24877.22, -27484.80, 0.00, 0.00, 0.00, 0.00
129, 41473.13, 29037.04, 9440.26, 14359.21, 2962.75, 25107.07, -27515.04, 0.00, 0.00, 0.00, 0.00
130, 41499.63, 29058.85, 9443.25, 14352.48, 2982.53, 25178.05, -27547.88, 0.00, 0.00, 0.00, 0.00
131, 41463.51, 29027.14, 9422.62, 14298.37, 2919.09, 24958.47, -27519.04, 0.00, 0.00, 0.00, 0.00
132, 41434.39, 29002.82, 9418.62, 14289.25, 2890.04, 24841.15, -27468.33, 0.00, 0.16, 0.78, 0.60
133, 41464.38, 29029.62, 9445.60, 14345.53, 2960.13, 25070.39, -27460.95, 0.00, 0.00, 0.00, 0.00
134, 41492.68, 29048.77, 9442.14, 14351.12, 2976.47, 25200.38, -27522.13, 0.00, 0.00, 0.00, 0.00
135, 41470.13, 29031.23, 9421.46, 14311.78, 2921.60, 25024.43, -27522.08, 0.00, 0.00, 0.00, 0.00
136, 41440.36, 29009.37, 9422.15, 14302.28, 2896.03, 24873.38, -27474.56, 0.00, 0.00, 0.00, 0.00
137, 41453.84, 29019.00, 9438.29, 14338.44, 2933.00, 25023.20, -27511.67, 0.00, 0.00, 0.00, 0.00
138, 41489.17, 29048.82, 9443.19, 14360.64, 2966.88, 25205.62, -27551.63, 0.00, 0.00, 0.00, 0.00
139, 41478.49, 29043.70, 9428.28, 14328.79, 2934.96, 25081.14, -27489.63, 0.00, 0.00, 0.00, 0.00
140, 41434.46, 29006.97, 9416.39, 14297.23, 2898.89, 24885.02, -27481.76, 0.00, 0.00, 0.00, 0.00
141, 41433.20, 29000.45, 9423.52, 14317.99, 2916.66, 24959.21, -27511.26, 0.00, 0.00, 0.00, 0.00
142, 41475.76, 29035.83, 9435.16, 14346.60, 2965.03, 25164.96, -27548.79, 0.00, 0.15, 0.77, 0.58
143, 41466.13, 29027.88, 9422.02, 14311.26, 2938.34, 25081.12, -27543.27, 0.00, 0.00, 0.00, 0.00
144, 41424.62, 28992.89, 9408.77, 14274.34, 2887.38, 24867.83, -27515.73, 0.00, 0.00, 0.00, 0.00
145, 41414.68, 28981.34, 9414.02, 14289.80, 2892.18, 24882.50, -27528.83, 0.00, 0.00, 0.00, 0.00
146, 41447.20, 29004.40, 9416.30, 14317.83, 2932.33, 25110.55, -27577.18, 0.00, 0.00, 0.00, 0.00
147, 41454.35, 29010.17, 9405.79, 14305.00, 2931.43, 25131.92, -27526.89, 0.00, 0.00, 0.00, 0.00
148, 41419.64, 28982.41, 9392.78, 14271.79, 2888.31, 24920.88, -27506.01, 0.00, 0.00, 0.00, 0.00
149, 41408.77, 28976.17, 9404.12, 14290.72, 2888.74, 24887.10, -27507.15, 0.00, 0.00, 0.00, 0.00
150, 41442.73, 29004.45, 9416.70, 14338.78, 2945.09, 25125.10, -27582.37, 0.00, 0.00, 0.00, 0.00
151, 41461.72, 29017.39, 9408.97, 14323.82, 2942.70, 25155.17, -27577.18, 0.00, 0.00, 0.00, 0.00
152, 41428.71, 28989.21, 9398.55, 14265.64, 2891.00, 24931.85, -27529.73, 0.00, 0.15, 0.79, 0.58
153, 41398.63, 28959.72, 9393.39, 14266.09, 2864.53, 24850.09, -27534.42, 0.00, 0.00, 0.00, 0.00
154, 41440.09, 28992.27, 9411.07, 14324.09, 2923.90, 25087.75, -27548.39, 0.00, 0.00, 0.00, 0.00
155, 41469.97, 29019.16, 9417.35, 14330.19, 2952.13, 25180.00, -27531.43, 0.00, 0.00, 0.00, 0.00
156, 41437.03, 28997.32, 9399.62, 14291.73, 2901.73, 24993.68, -27512.58, 0.00, 0.00, 0.00, 0.00
157, 41402.31, 28965.96, 9392.90, 14271.10, 2861.72, 24862.98, -27525.08, 0.00, 0.00, 0.00, 0.00
158, 41434.79, 28991.98, 9411.85, 14320.94, 2909.62, 25039.00, -27541.04, 0.00, 0.00, 0.00, 0.00
159, 41476.41, 29029.30, 9417.30, 14345.48, 2950.25, 25189.77, -27533.48, 0.00, 0.00, 0.00, 0.00
160, 41449.81, 29010.62, 9400.34, 14293.49, 2906.53, 25017.39, -27514.48, 0.00, 0.00, 0.00, 0.00
161, 41411.23, 28975.71, 9394.30, 14262.51, 2872.49, 24823.24, -27533.10, 0.00, 0.15, 0.80, 0.57
162, 41422.92, 28978.01, 9404.23, 14292.24, 2900.50, 24951.74, -27561.18, 0.00, 0.00, 0.00, 0.00
163, 41468.14, 29013.70, 9413.44, 14335.02, 2947.03, 25200.47, -27532.34, 0.00, 0.00, 0.00, 0.00
164, 41457.19, 29007.45, 9399.09, 14302.01, 2918.22, 25086.90, -27538.09, 0.00, 0.00, 0.00, 0.00
165, 41424.20, 28985.74, 9391.78, 14279.90, 2866.05, 24895.91, -27552.66, 0.00, 0.00, 0.00, 0.00
166, 41426.59, 28989.23, 9406.04, 14302.50, 2890.33, 24964.60, -27553.53, 0.00, 0.00, 0.00, 0.00
167, 41461.19, 29013.03, 9415.74, 14318.82, 2951.06, 25153.18, -27556.84, 0.00, 0.00, 0.00, 0.00
168, 41454.13, 29006.44, 9401.79, 14282.72, 2935.41, 25076.04, -27521.81, 0.00, 0.00, 0.00, 0.00
169, 41412.55, 28974.99, 9389.16, 14259.12, 2878.52, 24901.03, -27482.25, 0.00, 0.00, 0.00, 0.00
170, 41412.51, 28976.31, 9403.22, 14286.92, 2890.06, 24922.55, -27496.60, 0.00, 0.00, 0.00, 0.00
171, 41451.93, 29007.45, 9419.23, 14328.27, 2951.99, 25151.21, -27519.29, 0.00, 0.16, 0.80, 0.58
172, 41458.08, 29010.87, 9405.84, 14311.75, 2938.72, 25143.65, -27543.65, 0.00, 0.00, 0.00, 0.00
173, 41421.67, 28981.70, 9394.30, 14275.83, 2882.68, 24925.12, -27526.71, 0.00, 0.00, 0.00, 0.00
174, 41403.50, 28965.15, 9398.44, 14279.50, 2883.73, 24876.91, -27521.61, 0.00, 0.00, 0.00, 0.00
175, 41441.27, 28991.78, 9416.79, 14321.77, 2943.93, 25103.71, -27532.03, 0.00, 0.00, 0.00, 0.00
176, 41465.90, 29013.93, 9422.74, 14324.76, 2962.08, 25157.83, -27526.53, 0.00, 0.00, 0.00, 0.00
177, 41432.15, 28989.18, 9401.17, 14284.24, 2902.91, 24955.70, -27520.29, 0.00, 0.00, 0.00, 0.00
178, 41405.33, 28963.57, 9393.57, 14271.77, 2874.79, 24855.25, -27510.48, 0.00, 0.00, 0.00, 0.00
179, 41432.69, 28981.00, 9411.69, 14308.20, 2935.43, 25056.44, -27539.00, 0.00, 0.00, 0.00, 0.00
180, 41459.82, 29010.06, 9418.15, 14323.53, 2966.68, 25174.84, -27544.32, 0.00, 0.00, 0.00, 0.00
181, 41443.04, 29003.24, 9412.16, 14292.58, 2927.32, 24998.01, -27512.02, 0.00, 0.16, 0.80, 0.59
182, 41416.44, 28979.93, 9409.10, 14273.09, 2884.16, 24844.01, -27530.91, 0.00, 0.00, 0.00, 0.00
183, 41430.95, 28988.18, 9418.13, 14303.42, 2920.75, 24981.11, -27575.62, 0.00, 0.00, 0.00, 0.00
184, 41468.81, 29019.29, 9427.27, 14332.63, 2963.71, 25163.01, -27558.45, 0.00, 0.00, 0.00, 0.00
185, 41462.77, 29020.74, 9424.39, 14314.08, 2937.00, 25058.43, -27495.37, 0.00, 0.00, 0.00, 0.00
186, 41432.06, 28995.71, 9417.95, 14291.93, 2901.06, 24878.90, -27459.88, 0.00, 0.00, 0.00, 0.00
187, 41445.88, 29003.91, 9428.37, 14327.15, 2935.54, 24980.93, -27481.42, 0.00, 0.00, 0.00, 0.00
188, 41493.31, 29043.52, 9445.04, 14358.89, 2985.95, 25184.87, -27504.65, 0.00, 0.00, 0.00, 0.00
189, 41486.18, 29046.61, 9436.44, 14326.01, 2960.87, 25095.53, -27499.17, 0.00, 0.00, 0.00, 0.00
190, 41444.25, 29010.98, 9422.76, 14294.21, 2904.90, 24883.15, -27493.34, 0.00, 0.00, 0.00, 0.00
191, 41447.96, 29007.58, 9439.19, 14325.61, 2929.87, 24947.70, -27490.41, 0.00, 0.15, 0.77, 0.59
192, 41489.80, 29042.47, 9452.71, 14361.87, 2992.54, 25180.58, -27493.85, 0.00, 0.00, 0.00, 0.00
193, 41493.31, 29049.42, 9434.31, 14332.34, 2960.47, 25125.62, -27510.19, 0.00, 0.00, 0.00, 0.00
194, 41450.37, 29015.89, 9410.31, 14294.16, 2884.67, 24910.88, -27504.76, 0.00, 0.00, 0.00, 0.00
195, 41443.46, 29011.76, 9420.28, 14328.58, 2899.33, 24924.45, -27474.70, 0.00, 0.00, 0.00, 0.00
196, 41493.80, 29051.97, 9447.03, 14379.35, 2966.12, 25154.83, -27487.15, 0.00, 0.00, 0.00, 0.00
197, 41511.95, 29065.54, 9442.14, 14347.88, 2957.76, 25162.65, -27521.59, 0.00, 0.00, 0.00, 0.00
198, 41473.32, 29035.88, 9416.43, 14311.91, 2899.89, 24952.91, -27505.09, 0.00, 0.00, 0.00, 0.00
199, 41447.42, 29017.10, 9409.32, 14313.90, 2876.27, 24895.24, -27494.61, 0.00, 0.00, 0.00, 0.00
200, 41482.78, 29045.15, 9427.56, 14351.29, 2927.34, 25102.08, -27530.40, 0.00, 0.00, 0.00, 0.00
201, 41500.91, 29052.97, 9422.31, 14337.84, 2941.27, 25152.15, -27552.90, 0.00, 0.15, 0.77, 0.59
202, 41460.54, 29019.13, 9398.80, 14297.65, 2884.40, 24967.77, -27517.32, 0.00, 0.00, 0.00, 0.00
203, 41414.05, 28980.20, 9390.44, 14276.64, 2860.35, 24850.06, -27522.84, 0.00, 0.00, 0.00, 0.00
204, 41427.41, 28987.84, 9397.70, 14302.86, 2908.43, 25020.05, -27558.56, 0.00, 0.00, 0.00, 0.00
205, 41457.72, 29011.38, 9397.81, 14311.02, 2933.24, 25158.21, -27571.81, 0.00, 0.00, 0.00, 0.00
206, 41431.21, 28990.37, 9379.10, 14275.19, 2886.79, 25002.01, -27540.28, 0.00, 0.00, 0.00, 0.00
207, 41403.86, 28970.43, 9375.57, 14271.39, 2851.28, 24862.47, -27523.87, 0.00, 0.00, 0.00, 0.00
208, 41426.03, 28989.05, 9394.04, 14314.12, 2892.74, 25001.79, -27551.23, 0.00, 0.00, 0.00, 0.00
209, 41456.45, 29013.26, 9398.21, 14324.58, 2936.59, 25155.55, -27571.86, 0.00, 0.00, 0.00, 0.00
210, 41439.26, 29001.19, 9384.92, 14286.14, 2902.40, 25026.09, -27535.69, 0.00, 0.14, 0.79, 0.58
211, 41410.83, 28977.45, 9385.18, 14267.68, 2857.69, 24849.39, -27544.10, 0.00, 0.00, 0.00, 0.00
212, 41417.51, 28978.39, 9395.73, 14293.63, 2878.64, 24939.99, -27547.12, 0.00, 0.00, 0.00, 0.00
213, 41460.61, 29011.58, 9407.42, 14319.80, 2930.05, 25139.36, -27565.82, 0.00, 0.00, 0.00, 0.00
214, 41459.33, 29015.65, 9406.26, 14291.62, 2927.41, 25054.92, -27523.29, 0.00, 0.00, 0.00, 0.00
215, 41416.86, 28986.26, 9392.00, 14263.00, 2868.11, 24871.17, -27546.87, 0.00, 0.00, 0.00, 0.00
216, 41409.58, 28977.49, 9403.54, 14279.81, 2874.41, 24900.33, -27540.88, 0.00, 0.00, 0.00, 0.00
217, 41448.98, 29004.36, 9414.73, 14309.90, 2936.77, 25102.13, -27551.03, 0.00, 0.00, 0.00, 0.00
218, 41459.38, 29013.88, 9399.76, 14295.26, 2926.38, 25088.07, -27544.66, 0.00, 0.00, 0.00, 0.00
219, 41436.13, 28997.72, 9392.63, 14282.58, 2880.83, 24924.14, -27519.76, 0.00, 0.00, 0.00, 0.00
220, 41419.52, 28981.47, 9394.19, 14290.79, 2866.30, 24908.52, -27548.97, 0.00, 0.14, 0.79, 0.57
221, 41457.52, 29006.77, 9415.67, 14331.51, 2939.23, 25132.93, -27502.86, 0.00, 0.00, 0.00, 0.00
222, 41470.89, 29016.99, 9414.24, 14324.76, 2954.39, 25151.72, -27528.27, 0.00, 0.00, 0.00, 0.00
223, 41436.00, 28992.51, 9399.60, 14287.77, 2888.34, 24936.12, -27558.83, 0.00, 0.00, 0.00, 0.00
224, 41415.84, 28973.69, 9397.32, 14286.54, 2857.09, 24854.24, -27559.23, 0.00, 0.00, 0.00, 0.00
225, 41461.21, 29011.36, 9422.11, 14340.92, 2929.80, 25080.76, -27514.64, 0.00, 0.00, 0.00, 0.00
226, 41486.20, 29034.04, 9421.17, 14334.20, 2954.01, 25168.62, -27543.56, 0.00, 0.00, 0.00, 0.00
227, 41462.57, 29021.06, 9411.56, 14310.99, 2907.29, 24988.24, -27503.20, 0.00, 0.00, 0.00, 0.00
228, 41436.73, 29002.75, 9410.40, 14301.38, 2877.74, 24873.65, -27497.79, 0.00, 0.00, 0.00, 0.00
229, 41456.32, 29018.11, 9423.90, 14325.17, 2912.34, 25031.70, -27566.38, 0.00, 0.00, 0.00, 0.00
230, 41496.57, 29052.04, 9432.37, 14353.26, 2942.36, 25175.60, -27564.82, 0.00, 0.15, 0.80, 0.58
231, 41476.75, 29042.71, 9410.22, 14323.49, 2905.46, 25038.96, -27539.54, 0.00, 0.00, 0.00, 0.00
232, 41444.07, 29014.11, 9405.90, 14308.87, 2872.42, 24875.75, -27482.38, 0.00, 0.00, 0.00, 0.00
233, 41468.23, 29033.66, 9428.77, 14353.64, 2912.88, 25018.53, -27494.77, 0.00, 0.00, 0.00, 0.00
234, 41513.63, 29069.92, 9442.67, 14381.18, 2966.21, 25209.21, -27510.28, 0.00, 0.00, 0.00, 0.00
235, 41493.62, 29052.64, 9423.12, 14336.16, 2924.77, 25077.05, -27543.36, 0.00, 0.00, 0.00, 0.00
236, 41451.29, 29013.81, 9409.32, 14301.12, 2873.83, 24877.45, -27502.05, 0.00, 0.00, 0.00, 0.00
237, 41458.44, 29023.72, 9428.88, 14345.26, 2906.13, 24973.58, -27476.37, 0.00, 0.00, 0.00, 0.00
238, 41500.89, 29063.28, 9442.52, 14382.23, 2964.13, 25196.61, -27500.29, 0.00, 0.00, 0.00, 0.00
239, 41499.84, 29065.11, 9428.08, 14354.54, 2938.96, 25134.83, -27507.89, 0.00, 0.00, 0.00, 0.00
240, 41461.01, 29033.17, 9418.31, 14323.56, 2887.20, 24934.58, -27501.63, 0.00, 0.16, 0.80, 0.60
241, 41458.30, 29029.10, 9429.26, 14340.66, 2896.16, 24944.86, -27506.39, 0.00, 0.00, 0.00, 0.00
242, 41501.71, 29063.77, 9445.22, 14378.12, 2953.54, 25153.89, -27533.97, 0.00, 0.00, 0.00, 0.00
243, 41516.89, 29080.54, 9444.84, 14377.11, 2960.18, 25160.44, -27507.44, 0.00, 0.00, 0.00, 0.00
244, 41483.56, 29052.19, 9438.67, 14346.27, 2922.78, 24970.94, -27450.60, 0.00, 0.00, 0.00, 0.00
245, 41468.61, 29039.63, 9449.74, 14348.61, 2912.19, 24920.92, -27467.66, 0.00, 0.00, 0.00, 0.00
246, 41512.75, 29078.57, 9485.77, 14397.99, 2979.00, 25142.38, -27485.34, 0.00, 0.00, 0.00, 0.00
247, 41535.60, 29096.54, 9471.62, 14398.28, 2993.88, 25200.21, -27480.55, 0.00, 0.00, 0.00, 0.00
248, 41501.36, 29068.51, 9447.52, 14357.55, 2934.81, 24995.20, -27480.22, 0.00, 0.00, 0.00, 0.00
249, 41472.07, 29047.83, 9439.41, 14352.97, 2897.14, 24899.48, -27523.45, 0.00, 0.15, 0.78, 0.60
250, 41499.86, 29066.45, 9450.47, 14386.30, 2944.19, 25078.19, -27555.39, 0.00, 0.00, 0.00, 0.00
251, 41529.20, 29093.88, 9454.63, 14397.50, 2980.76, 25201.59, -27496.36, 0.00, 0.00, 0.00, 0.00
252, 41499.07, 29070.68, 9441.00, 14361.73, 2938.61, 25051.48, -27438.98, 0.00, 0.00, 0.00, 0.00
253, 41465.86, 29042.58, 9431.63, 14343.47, 2896.81, 24905.27, -27444.30, 0.00, 0.00, 0.00, 0.00
254, 41478.80, 29048.59, 9437.55, 14372.71, 2931.79, 25049.55, -27497.32, 0.00, 0.00, 0.00, 0.00
255, 41504.46, 29068.60, 9438.27, 14381.60, 2961.92, 25189.23, -27501.05, 0.00, 0.00, 0.00, 0.00
0, 41482.58, 29050.52, 9421.73, 14344.66, 2917.60, 25047.19, -27501.79, 0.00, 0.00, 0.00, 0.00
1, 41442.61, 29015.69, 9410.67, 14321.39, 2870.63, 24874.29, -27500.89, 0.00, 0.00, 0.00, 0.00
2, 41454.62, 29025.77, 9423.05, 14354.96, 2907.43, 24988.82, -27510.06, 0.00, 0.00, 0.00, 0.00
3, 41480.30, 29043.19, 9422.67, 14365.82, 2949.76, 25170.21, -27538.26, 0.00, 0.14, 0.78, 0.59
4, 41455.73, 29018.96, 9392.90, 14317.36, 2903.78, 25057.36, -27566.72, 0.00, 0.00, 0.00, 0.00
5, 41418.63, 28989.05, 9382.17, 14300.78, 2853.76, 24875.88, -27535.09, 0.00, 0.00, 0.00, 0.00
6, 41420.98, 28992.40, 9402.33, 14333.26, 2880.60, 24950.56, -27510.44, 0.00, 0.00, 0.00, 0.00
7, 41456.11, 29024.57, 9413.48, 14356.06, 2931.61, 25144.73, -27552.57, 0.00, 0.00, 0.00, 0.00
8, 41461.12, 29030.13, 9397.32, 14334.69, 2911.74, 25100.52, -27567.19, 0.00, 0.00, 0.00, 0.00
9, 41415.84, 28992.51, 9374.52, 14298.54, 2840.84, 24890.05, -27567.90, 0.00, 0.00, 0.00, 0.00
10, 41404.44, 28983.19, 9385.18, 14308.38, 2850.83, 24888.11, -27560.84, 0.00, 0.00, 0.00, 0.00
11, 41449.50, 29019.29, 9411.74, 14346.44, 2935.52, 25115.25, -27539.61, 0.00, 0.00, 0.00, 0.00
12, 41466.39, 29034.54, 9410.17, 14339.78, 2938.32, 25134.51, -27499.98, 0.00, 0.00, 0.00, 0.00
13, 41427.86, 29000.87, 9389.81, 14294.86, 2877.14, 24919.91, -27519.15, 0.00, 0.14, 0.79, 0.58
14, 41410.50, 28984.76, 9387.87, 14296.47, 2856.13, 24851.29, -27554.09, 0.00, 0.00, 0.00, 0.00
15, 41447.80, 29019.52, 9410.35, 14343.96, 2918.80, 25077.23, -27535.72, 0.00, 0.00, 0.00, 0.00
16, 41469.84, 29043.99, 9412.21, 14346.96, 2935.86, 25143.99, -27546.49, 0.00, 0.00, 0.00, 0.00
17, 41434.37, 29011.98, 9393.70, 14294.19, 2878.66, 24924.50, -27573.13, 0.00, 0.00, 0.00, 0.00
18, 41405.98, 28982.12, 9393.45, 14285.69, 2854.56, 24831.63, -27521.84, 0.00, 0.00, 0.00, 0.00
19, 41434.63, 29004.70, 9411.63, 14331.67, 2905.46, 25030.78, -27547.65, 0.00, 0.00, 0.00, 0.00
20, 41464.03, 29030.45, 9415.63, 14337.33, 2935.95, 25133.11, -27592.27, 0.00, 0.00, 0.00, 0.00
21, 41435.89, 29007.85, 9396.63, 14302.39, 2877.27, 24992.98, -27576.53, 0.00, 0.00, 0.00, 0.00
22, 41403.43, 28976.76, 9386.12, 14282.18, 2830.27, 24842.35, -27563.75, 0.00, 0.00, 0.00, 0.00
23, 41428.80, 28991.87, 9406.91, 14322.19, 2891.27, 25005.92, -27511.46, 0.00, 0.15, 0.80, 0.58
24, 41450.95, 29018.80, 9414.44, 14348.01, 2946.47, 25173.07, -27523.91, 0.00, 0.00, 0.00, 0.00
25, 41431.19, 29010.98, 9400.88, 14319.67, 2912.83, 25037.80, -27515.82, 0.00, 0.00, 0.00, 0.00
26, 41403.61, 28988.92, 9394.75, 14301.72, 2866.39, 24868.84, -27498.17, 0.00, 0.00, 0.00, 0.00
27, 41410.54, 28994.88, 9408.97, 14336.50, 2898.04, 24969.11, -27514.21, 0.00, 0.00, 0.00, 0.00
28, 41436.89, 29024.74, 9412.23, 14364.93, 2937.96, 25155.75, -27570.18, 0.00, 0.00, 0.00, 0.00
29, 41425.00, 29020.34, 9393.37, 14339.65, 2896.85, 25077.70, -27593.88, 0.00, 0.00, 0.00, 0.00
30, 41391.03, 28993.41, 9394.50, 14314.71, 2866.30, 24875.12, -27531.69, 0.00, 0.00, 0.00, 0.00
31, 41388.79, 28993.52, 9410.04, 14340.86, 2898.04, 24934.38, -27494.81, 0.00, 0.00, 0.00, 0.00
32, 41434.77, 29027.31, 9428.52, 14374.83, 2968.62, 25162.90, -27491.77, 0.00, 0.00, 0.00, 0.00
33, 41440.67, 29033.93, 9420.32, 14358.56, 2958.95, 25142.05, -27502.28, 0.00, 0.16, 0.81, 0.59
34, 41407.19, 29007.38, 9407.45, 14326.57, 2906.98, 24934.73, -27486.41, 0.00, 0.00, 0.00, 0.00
35, 41395.81, 28994.46, 9410.78, 14338.82, 2905.48, 24920.54, -27480.06, 0.00, 0.00, 0.00, 0.00
36, 41432.38, 29021.88, 9422.33, 14369.69, 2957.38, 25126.67, -27522.17, 0.00, 0.00, 0.00, 0.00
37, 41448.67, 29035.74, 9414.42, 14360.08, 2955.06, 25155.14, -27540.63, 0.00, 0.00, 0.00, 0.00
38, 41418.21, 29012.32, 9398.46, 14323.13, 2893.05, 24948.59, -27519.11, 0.00, 0.00, 0.00, 0.00
39, 41406.25, 29003.94, 9406.87, 14326.37, 2887.71, 24876.28, -27511.11, 0.00, 0.00, 0.00, 0.00
40, 41454.68, 29045.29, 9434.34, 14383.01, 2951.21, 25103.38, -27520.16, 0.00, 0.00, 0.00, 0.00
41, 41488.57, 29073.56, 9439.05, 14393.54, 2967.60, 25187.84, -27521.95, 0.00, 0.00, 0.00, 0.00
42, 41457.90, 29048.17, 9426.24, 14349.06, 2924.64, 24980.13, -27483.73, 0.00, 0.15, 0.78, 0.59
43, 41428.49, 29023.34, 9423.74, 14348.23, 2898.04, 24877.20, -27471.19, 0.00, 0.00, 0.00, 0.00
44, 41461.88, 29048.68, 9446.20, 14392.38, 2955.30, 25077.56, -27484.15, 0.00, 0.00, 0.00, 0.00
45, 41505.78, 29084.89, 9454.63, 14397.99, 2985.66, 25207.87, -27517.10, 0.00, 0.00, 0.00, 0.00
46, 41500.28, 29085.07, 9452.96, 14381.18, 2948.71, 25057.40, -27503.22, 0.00, 0.00, 0.00, 0.00
47, 41468.45, 29060.98, 9457.92, 14366.63, 2922.33, 24907.08, -27454.74, 0.00, 0.00, 0.00, 0.00
48, 41485.26, 29076.00, 9477.90, 14404.71, 2960.11, 25047.23, -27457.60, 0.00, 0.00, 0.00, 0.00
49, 41535.66, 29116.61, 9488.78, 14438.24, 3020.23, 25245.56, -27420.74, 0.00, 0.00, 0.00, 0.00
50, 41522.77, 29109.08, 9473.92, 14418.13, 2988.25, 25119.85, -27423.11, 0.00, 0.00, 0.00, 0.00
51, 41481.39, 29074.32, 9460.15, 14368.68, 2928.97, 24917.12, -27454.78, 0.00, 0.00, 0.00, 0.00
52, 41486.09, 29075.66, 9470.12, 14383.68, 2954.43, 24991.22, -27459.70, 0.00, 0.15, 0.77, 0.60
53, 41521.92, 29101.97, 9472.31, 14406.77, 2995.60, 25174.10, -27504.42, 0.00, 0.00, 0.00, 0.00
54, 41516.60, 29100.70, 9454.03, 14384.46, 2957.60, 25103.67, -27516.96, 0.00, 0.00, 0.00, 0.00
55, 41480.46, 29071.97, 9447.01, 14353.75, 2909.17, 24908.13, -27465.31, 0.00, 0.00, 0.00, 0.00
56, 41466.22, 29053.53, 9447.59, 14361.24, 2914.09, 24921.39, -27481.74, 0.00, 0.00, 0.00, 0.00
57, 41505.54, 29085.43, 9454.23, 14395.55, 2958.72, 25137.31, -27522.22, 0.00, 0.00, 0.00, 0.00
58, 41514.00, 29093.16, 9444.89, 14377.38, 2946.32, 25113.93, -27504.80, 0.00, 0.00, 0.00, 0.00
59, 41462.57, 29050.47, 9420.57, 14328.90, 2875.46, 24892.62, -27538.67, 0.00, 0.00, 0.00, 0.00
60, 41446.32, 29033.66, 9419.34, 14333.84, 2865.58, 24879.08, -27517.86, 0.00, 0.00, 0.00, 0.00
61, 41485.57, 29064.11, 9434.18, 14375.46, 2923.00, 25098.21, -27534.87, 0.00, 0.00, 0.00, 0.00
62, 41502.36, 29078.70, 9438.63, 14369.56, 2950.12, 25128.14, -27523.89, 0.00, 0.14, 0.78, 0.59
63, 41459.63, 29040.75, 9419.63, 14317.43, 2903.40, 24924.09, -27495.10, 0.00, 0.00, 0.00, 0.00
64, 41428.20, 29012.54, 9410.62, 14315.08, 2862.79, 24862.43, -27512.52, 0.00, 0.00, 0.00, 0.00
65, 41460.94, 29036.93, 9424.50, 14359.45, 2917.33, 25069.18, -27538.89, 0.00, 0.00, 0.00, 0.00
66, 41490.89, 29066.90, 9426.42, 14370.07, 2943.37, 25173.29, -27546.71, 0.00, 0.00, 0.00, 0.00
67, 41462.39, 29043.97, 9408.56, 14326.46, 2886.15, 24984.49, -27510.88, 0.00, 0.00, 0.00, 0.00
68, 41431.32, 29020.86, 9408.00, 14313.14, 2871.69, 24856.01, -27501.21, 0.00, 0.00, 0.00, 0.00
69, 41454.77, 29036.95, 9423.18, 14348.52, 2913.62, 25029.15, -27530.13, 0.00, 0.00, 0.00, 0.00
70, 41490.60, 29064.35, 9429.89, 14357.46, 2948.13, 25151.86, -27532.63, 0.00, 0.00, 0.00, 0.00
71, 41470.96, 29054.74, 9417.35, 14328.88, 2912.61, 25017.26, -27506.44, 0.00, 0.00, 0.00, 0.00
72, 41436.07, 29026.60, 9411.11, 14315.53, 2866.25, 24885.98, -27492.02, 0.00, 0.15, 0.79, 0.58
73, 41451.29, 29030.62, 9422.69, 14345.15, 2898.08, 25000.04, -27518.13, 0.00, 0.00, 0.00, 0.00
74, 41491.23, 29061.85, 9428.32, 14367.39, 2939.23, 25167.73, -27552.95, 0.00, 0.00, 0.00, 0.00
75, 41480.21, 29057.18, 9413.03, 14335.87, 2898.19, 25051.32, -27558.54, 0.00, 0.00, 0.00, 0.00
76, 41452.07, 29031.63, 9417.08, 14317.59, 2881.81, 24873.24, -27476.37, 0.00, 0.00, 0.00, 0.00
77, 41460.45, 29034.11, 9436.10, 14344.57, 2922.04, 24959.01, -27468.48, 0.00, 0.00, 0.00, 0.00
78, 41499.92, 29066.10, 9446.52, 14372.93, 2971.53, 25155.57, -27498.14, 0.00, 0.00, 0.00, 0.00
79, 41492.82, 29063.44, 9429.15, 14342.40, 2940.46, 25075.26, -27555.43, 0.00, 0.00, 0.00, 0.00
80, 41453.75, 29038.02, 9415.96, 14314.08, 2884.36, 24877.74, -27522.51, 0.00, 0.00, 0.00, 0.00
81, 41447.66, 29032.70, 9428.55, 14337.06, 2898.55, 24916.14, -27492.44, 0.00, 0.00, 0.00, 0.00
82, 41492.50, 29065.11, 9445.85, 14374.99, 2958.86, 25124.37, -27537.95, 0.00, 0.15, 0.79, 0.58
83, 41504.24, 29079.39, 9439.70, 14363.21, 2951.59, 25114.62, -27507.64, 0.00, 0.00, 0.00, 0.00
84, 41469.28, 29052.08, 9430.78, 14334.11, 2903.51, 24933.62, -27470.29, 0.00, 0.00, 0.00, 0.00
85, 41454.64, 29039.16, 9433.31, 14342.96, 2899.89, 24894.39, -27484.96, 0.00, 0.00, 0.00, 0.00
86, 41496.10, 29072.64, 9452.37, 14383.88, 2968.56, 25110.93, -27477.47, 0.00, 0.00, 0.00, 0.00
87, 41518.57, 29086.90, 9448.60, 14371.19, 2970.35, 25160.15, -27495.46, 0.00, 0.00, 0.00, 0.00
88, 41483.99, 29062.63, 9431.00, 14339.16, 2903.25, 24968.11, -27490.54, 0.00, 0.00, 0.00, 0.00
89, 41454.17, 29037.73, 9429.17, 14338.22, 2881.83, 24888.35, -27479.97, 0.00, 0.00, 0.00, 0.00
90, 41489.06, 29063.55, 9447.05, 14382.50, 2939.90, 25081.90, -27501.41, 0.00, 0.00, 0.00, 0.00
91, 41524.60, 29096.79, 9447.21, 14388.44, 2965.47, 25169.09, -27531.49, 0.00, 0.16, 0.79, 0.59
92, 41494.18, 29074.90, 9429.15, 14341.62, 2912.97, 24990.52, -27520.96, 0.00, 0.00, 0.00, 0.00
93, 41460.96, 29039.97, 9430.11, 14334.37, 2888.05, 24885.83, -27479.17, 0.00, 0.00, 0.00, 0.00
94, 41483.29, 29051.54, 9451.88, 14376.35, 2945.47, 25055.28, -27483.08, 0.00, 0.00, 0.00, 0.00
95, 41513.20, 29075.62, 9457.22, 14384.67, 2977.65, 25190.04, -27512.43, 0.00, 0.00, 0.00, 0.00
96, 41498.27, 29062.27, 9447.72, 14342.55, 2934.54, 25038.71, -27500.83, 0.00, 0.00, 0.00, 0.00
97, 41470.82, 29036.55, 9448.28, 14319.17, 2894.04, 24877.58, -27474.70, 0.00, 0.00, 0.00, 0.00
98, 41486.13, 29054.16, 9471.33, 14363.97, 2937.98, 24997.90, -27471.41, 0.00, 0.00, 0.00, 0.00
99, 41527.64, 29089.70, 9468.60, 14387.59, 2983.51, 25177.21, -27515.40, 0.00, 0.00, 0.00, 0.00
100, 41518.61, 29083.82, 9449.96, 14350.27, 2947.14, 25079.97, -27506.12, 0.00, 0.00, 0.00, 0.00
101, 41486.07, 29056.93, 9446.05, 14324.38, 2906.89, 24894.19, -27477.63, 0.00, 0.16, 0.80, 0.60
102, 41498.79, 29066.68, 9471.13, 14362.67, 2945.51, 24966.90, -27455.09, 0.00, 0.00, 0.00, 0.00
103, 41547.78, 29108.47, 9493.12, 14408.96, 3012.03, 25194.75, -27467.72, 0.00, 0.00, 0.00, 0.00
104, 41548.79, 29112.95, 9482.62, 14381.40, 2989.17, 25132.01, -27496.49, 0.00, 0.00, 0.00, 0.00
105, 41520.29, 29091.89, 9476.85, 14356.61, 2927.94, 24930.04, -27495.64, 0.00, 0.00, 0.00, 0.00
106, 41523.46, 29093.79, 9490.97, 14394.19, 2925.78, 24958.34, -27474.70, 0.00, 0.00, 0.00, 0.00
107, 41566.31, 29127.07, 9507.20, 14440.52, 2981.59, 25185.79, -27490.92, 0.00, 0.00, 0.00, 0.00
108, 41581.93, 29145.96, 9500.92, 14427.69, 2984.87, 25197.01, -27478.50, 0.00, 0.00, 0.00, 0.00
109, 41537.83, 29108.54, 9475.11, 14376.46, 2921.51, 24976.64, -27474.79, 0.00, 0.00, 0.00, 0.00
110, 41509.49, 29082.35, 9466.99, 14373.42, 2903.65, 24924.21, -27478.90, 0.00, 0.00, 0.00, 0.00
111, 41539.04, 29102.17, 9483.60, 14408.67, 2962.25, 25128.99, -27515.53, 0.00, 0.16, 0.78, 0.60
112, 41553.79, 29112.90, 9477.50, 14397.38, 2970.52, 25175.71, -27520.38, 0.00, 0.00, 0.00, 0.00
113, 41516.46, 29079.84, 9457.38, 14351.92, 2922.96, 24979.01, -27480.53, 0.00, 0.00, 0.00, 0.00
114, 41478.04, 29044.17, 9445.82, 14333.37, 2887.89, 24855.97, -27513.52, 0.00, 0.00, 0.00, 0.00
115, 41497.64, 29059.23, 9455.35, 14363.88, 2933.78, 25017.32, -27532.68, 0.00, 0.00, 0.00, 0.00
116, 41523.93, 29081.68, 9453.74, 14372.53, 2964.13, 25142.47, -27525.97, 0.00, 0.00, 0.00, 0.00
117, 41500.35, 29064.26, 9440.35, 14339.34, 2920.84, 25004.56, -27486.05, 0.00, 0.00, 0.00, 0.00
118, 41466.73, 29034.67, 9430.76, 14317.14, 2871.73, 24864.10, -27504.02, 0.00, 0.00, 0.00, 0.00
119, 41478.78, 29043.16, 9447.70, 14348.48, 2916.30, 25003.64, -27516.09, 0.00, 0.00, 0.00, 0.00
120, 41508.20, 29067.64, 9450.61, 14361.73, 2961.23, 25159.44, -27518.24, 0.00, 0.00, 0.00, 0.00
121, 41488.05, 29054.23, 9432.37, 14326.10, 2923.12, 25024.65, -27513.66, 0.00, 0.15, 0.77, 0.59
122, 41450.14, 29022.64, 9425.19, 14303.62, 2868.04, 24861.80, -27525.99, 0.00, 0.00, 0.00, 0.00
123, 41466.71, 29034.54, 9443.19, 14337.84, 2897.32, 24976.91, -27547.67, 0.00, 0.00, 0.00, 0.00
124, 41512.13, 29071.97, 9461.25, 14368.28, 2960.82, 25166.30, -27533.10, 0.00, 0.00, 0.00, 0.00
125, 41505.49, 29070.88, 9450.85, 14345.30, 2933.87, 25085.96, -27524.74, 0.00, 0.00, 0.00, 0.00
126, 41459.89, 29033.15, 9435.30, 14306.88, 2874.70, 24884.40, -27511.06, 0.00, 0.00, 0.00, 0.00
127, 41463.71, 29032.99, 9445.20, 14338.44, 2885.23, 24943.72, -27502.08, 0.00, 0.00, 0.00, 0.00
128, 41505.33, 29065.74, 9456.49, 14374.43, 2948.33, 25152.93, -27542.09, 0.00, 0.00, 0.00, 0.00
129, 41505.11, 29068.58, 9443.81, 14357.67, 2940.84, 25112.92, -27530.24, 0.00, 0.00, 0.00, 0.00
130, 41469.08, 29039.68, 9429.73, 14326.37, 2883.35, 24909.50, -27517.10, 0.00, 0.14, 0.79, 0.58
131, 41454.95, 29020.10, 9434.31, 14326.66, 2882.66, 24882.65, -27489.49, 0.00, 0.00, 0.00, 0.00
132, 41493.98, 29048.50, 9451.12, 14369.80, 2941.53, 25113.86, -27489.34, 0.00, 0.00, 0.00, 0.00
133, 41506.14, 29063.62, 9442.58, 14368.44, 2931.79, 25161.76, -27525.44, 0.00, 0.00, 0.00, 0.00
134, 41470.38, 29040.95, 9428.32, 14336.21, 2878.75, 24961.73, -27506.12, 0.00, 0.00, 0.00, 0.00
135, 41451.29, 29028.95, 9441.78, 14344.34, 2887.51, 24898.48, -27474.79, 0.00, 0.00, 0.00, 0.00
136, 41485.98, 29057.40, 9460.96, 14388.31, 2945.96, 25106.80, -27512.92, 0.00, 0.00, 0.00, 0.00
137, 41516.87, 29082.14, 9458.41, 14388.26, 2963.01, 25176.98, -27524.59, 0.00, 0.00, 0.00, 0.00
138, 41490.29, 29064.04, 9446.32, 14347.00, 2920.61, 24998.21, -27492.73, 0.00, 0.00, 0.00, 0.00
139, 41463.42, 29040.28, 9442.34, 14332.94, 2891.82, 24889.38, -27483.03, 0.00, 0.00, 0.00, 0.00
140, 41492.26, 29063.17, 9458.88, 14372.08, 2935.43, 25066.61, -27496.65, 0.00, 0.14, 0.79, 0.58
141, 41521.45, 29087.64, 9456.26, 14373.47, 2962.12, 25174.43, -27524.00, 0.00, 0.00, 0.00, 0.00
142, 41499.28, 29072.67, 9443.41, 14341.86, 2924.12, 25022.73, -27499.48, 0.00, 0.00, 0.00, 0.00
143, 41467.60, 29046.22, 9441.91, 14333.08, 2886.66, 24887.66, -27490.01, 0.00, 0.00, 0.00, 0.00
144, 41480.30, 29051.75, 9453.25, 14361.02, 2912.77, 25007.20, -27549.73, 0.00, 0.00, 0.00, 0.00
145, 41515.64, 29081.99, 9459.21, 14381.45, 2956.20, 25174.14, -27520.79, 0.00, 0.00, 0.00, 0.00
146, 41511.86, 29080.91, 9450.34, 14362.67, 2941.58, 25082.97, -27475.97, 0.00, 0.00, 0.00, 0.00
147, 41470.57, 29045.11, 9438.67, 14330.06, 2893.08, 24903.98, -27484.51, 0.00, 0.00, 0.00, 0.00
148, 41471.13, 29041.87, 9451.61, 14345.08, 2915.96, 24964.62, -27510.30, 0.00, 0.00, 0.00, 0.00
149, 41507.84, 29073.27, 9457.54, 14375.26, 2968.07, 25166.37, -27526.73, 0.00, 0.00, 0.00, 0.00
150, 41501.40, 29072.71, 9443.75, 14356.28, 2943.14, 25114.24, -27495.88, 0.00, 0.14, 0.80, 0.59
151, 41461.59, 29035.50, 9435.14, 14315.24, 2893.34, 24909.74, -27471.16, 0.00, 0.00, 0.00, 0.00
152, 41461.21, 29030.76, 9445.36, 14333.91, 2904.12, 24935.22, -27494.46, 0.00, 0.00, 0.00, 0.00
153, 41503.32, 29065.49, 9460.40, 14376.66, 2965.58, 25156.75, -27501.83, 0.00, 0.00, 0.00, 0.00
154, 41508.66, 29073.47, 9448.10, 14361.11, 2954.41, 25137.24, -27526.78, 0.00, 0.00, 0.00, 0.00
155, 41473.88, 29046.81, 9436.82, 14338.49, 2896.76, 24940.84, -27509.70, 0.00, 0.00, 0.00, 0.00
156, 41453.66, 29027.90, 9437.78, 14347.88, 2890.84, 24919.42, -27484.80, 0.00, 0.00, 0.00, 0.00
157, 41490.20, 29055.79, 9451.90, 14385.18, 2945.60, 25143.61, -27506.19, 0.00, 0.00, 0.00, 0.00
158, 41513.27, 29075.95, 9449.78, 14378.32, 2960.18, 25181.97, -27501.83, 0.00, 0.00, 0.00, 0.00
159, 41485.15, 29051.59, 9434.74, 14342.04, 2913.57, 24984.15, -27476.98, 0.00, 0.00, 0.00, 0.00
160, 41460.11, 29026.67, 9432.70, 14333.75, 2891.89, 24898.12, -27476.60, 0.00, 0.15, 0.80, 0.61
161, 41490.69, 29051.21, 9446.79, 14368.28, 2945.40, 25092.25, -27512.25, 0.00, 0.00, 0.00, 0.00
162, 41519.19, 29080.29, 9449.78, 14376.73, 2970.39, 25188.36, -27522.13, 0.00, 0.00, 0.00, 0.00
163, 41492.82, 29063.28, 9441.60, 14343.14, 2924.79, 25015.76, -27482.41, 0.00, 0.00, 0.00, 0.00
164, 41466.46, 29042.92, 9444.04, 14338.40, 2895.62, 24889.29, -27464.57, 0.00, 0.00, 0.00, 0.00
165, 41486.82, 29057.09, 9457.65, 14381.94, 2934.36, 25065.54, -27499.69, 0.00, 0.00, 0.00, 0.00
166, 41523.73, 29085.86, 9468.74, 14407.04, 2975.49, 25225.44, -27502.14, 0.00, 0.00, 0.00, 0.00
167, 41514.99, 29080.15, 9461.96, 14383.64, 2936.24, 25084.42, -27471.10, 0.00, 0.00, 0.00, 0.00
168, 41481.62, 29054.00, 9453.92, 14359.54, 2887.02, 24911.11, -27480.78, 0.00, 0.00, 0.00, 0.00
169, 41494.94, 29063.84, 9468.74, 14386.12, 2934.11, 25024.92, -27462.20, 0.00, 0.00, 0.00, 0.00
170, 41536.54, 29100.99, 9484.45, 14419.20, 2991.51, 25221.17, -27451.45, 0.00, 0.15, 0.77, 0.61
171, 41523.28, 29095.58, 9469.83, 14396.00, 2958.99, 25122.78, -27463.23, 0.00, 0.00, 0.00, 0.00
172, 41490.22, 29070.10, 9465.56, 14367.23, 2922.00, 24932.70, -27414.35, 0.00, 0.00, 0.00, 0.00
173, 41490.27, 29065.13, 9473.92, 14386.66, 2938.47, 24987.86, -27458.45, 0.00, 0.00, 0.00, 0.00
174, 41523.28, 29089.52, 9480.13, 14414.51, 2978.62, 25186.26, -27512.56, 0.00, 0.00, 0.00, 0.00
175, 41519.62, 29089.21, 9470.68, 14395.60, 2961.52, 25136.14, -27485.29, 0.00, 0.00, 0.00, 0.00
176, 41477.75, 29058.21, 9453.92, 14362.65, 2905.37, 24949.91, -27458.76, 0.00, 0.00, 0.00, 0.00
177, 41464.63, 29043.28, 9452.96, 14370.16, 2902.55, 24959.77, -27480.64, 0.00, 0.00, 0.00, 0.00
178, 41507.95, 29075.33, 9469.38, 14404.87, 2961.29, 25163.55, -27515.15, 0.00, 0.00, 0.00, 0.00
179, 41516.80, 29080.42, 9462.03, 14388.13, 2960.13, 25168.11, -27498.43, 0.00, 0.15, 0.77, 0.60
180, 41475.43, 29047.16, 9441.53, 14346.65, 2893.59, 24958.65, -27477.56, 0.00, 0.00, 0.00, 0.00
181, 41455.64, 29025.33, 9441.87, 14344.75, 2885.86, 24909.16, -27465.53, 0.00, 0.00, 0.00, 0.00
182, 41485.44, 29049.06, 9453.40, 14380.46, 2938.81, 25116.05, -27496.31, 0.00, 0.00, 0.00, 0.00
183, 41500.35, 29064.71, 9449.54, 14374.36, 2944.02, 25157.54, -27526.64, 0.00, 0.00, 0.00, 0.00
184, 41468.92, 29044.39, 9434.65, 14339.22, 2892.78, 24968.42, -27531.78, 0.00, 0.00, 0.00, 0.00
185, 41440.76, 29018.42, 9426.33, 14326.04, 2857.34, 24869.49, -27561.15, 0.00, 0.00, 0.00, 0.00
186, 41467.47, 29037.22, 9441.11, 14363.07, 2916.19, 25050.58, -27504.27, 0.00, 0.00, 0.00, 0.00
187, 41497.84, 29065.49, 9453.02, 14378.12, 2960.40, 25179.40, -27466.85, 0.00, 0.00, 0.00, 0.00
188, 41465.70, 29038.22, 9431.18, 14330.37, 2901.41, 25008.72, -27490.07, 0.00, 0.00, 0.00, 0.00
189, 41435.35, 29009.17, 9424.37, 14317.54, 2867.95, 24881.31, -27506.32, 0.00, 0.15, 0.77, 0.60
190, 41460.07, 29028.05, 9440.26, 14367.99, 2916.14, 25044.70, -27520.67, 0.00, 0.00, 0.00, 0.00
191, 41495.05, 29054.34, 9444.80, 14380.80, 2955.03, 25187.44, -27504.02, 0.00, 0.00, 0.00, 0.00
192, 41469.82, 29036.10, 9425.15, 14333.91, 2907.29, 25025.75, -27511.33, 0.00, 0.00, 0.00, 0.00
193, 41427.08, 28997.54, 9415.14, 14303.91, 2852.93, 24832.59, -27547.16, 0.00, 0.00, 0.00, 0.00
194, 41448.56, 29018.71, 9433.80, 14358.29, 2891.40, 24984.85, -27503.51, 0.00, 0.00, 0.00, 0.00
195, 41492.57, 29059.19, 9443.23, 14399.35, 2945.13, 25214.87, -27514.86, 0.00, 0.00, 0.00, 0.00
196, 41483.34, 29054.81, 9431.61, 14365.04, 2916.32, 25113.86, -27501.27, 0.00, 0.00, 0.00, 0.00
197, 41455.80, 29029.95, 9431.70, 14337.79, 2879.96, 24924.25, -27446.69, 0.00, 0.00, 0.00, 0.00
198, 41458.86, 29028.61, 9449.71, 14358.74, 2896.52, 24969.94, -27478.90, 0.00, 0.00, 0.00, 0.00
199, 41497.18, 29056.17, 9453.98, 14381.31, 2953.13, 25152.51, -27517.54, 0.00, 0.15, 0.77, 0.60
200, 41501.67, 29059.21, 9443.81, 14358.45, 2945.54, 25099.38, -27516.83, 0.00, 0.00, 0.00, 0.00
201, 41460.54, 29028.30, 9426.80, 14328.72, 2879.44, 24918.71, -27483.35, 0.00, 0.00, 0.00, 0.00
202, 41450.84, 29023.11, 9432.57, 14343.94, 2890.10, 24923.78, -27445.55, 0.00, 0.00, 0.00, 0.00
203, 41497.11, 29060.98, 9455.15, 14385.20, 2954.43, 25134.58, -27475.81, 0.00, 0.00, 0.00, 0.00
204, 41516.98, 29079.24, 9450.09, 14378.61, 2947.46, 25154.45, -27518.37, 0.00, 0.00, 0.00, 0.00
205, 41486.18, 29052.89, 9432.59, 14336.70, 2887.64, 24950.76, -27526.71, 0.00, 0.00, 0.00, 0.00
206, 41482.00, 29044.44, 9439.19, 14338.71, 2878.52, 24900.16, -27492.06, 0.00, 0.00, 0.00, 0.00
207, 41520.62, 29077.67, 9459.79, 14385.00, 2952.20, 25113.84, -27464.53, 0.00, 0.00, 0.00, 0.00
208, 41540.13, 29098.44, 9456.26, 14384.02, 2974.70, 25166.86, -27487.37, 0.00, 0.00, 0.00, 0.00
209, 41514.74, 29080.63, 9443.57, 14360.39, 2917.26, 24989.45, -27508.27, 0.00, 0.15, 0.78, 0.60
210, 41485.20, 29054.50, 9441.91, 14352.37, 2884.14, 24903.04, -27472.33, 0.00, 0.00, 0.00, 0.00
211, 41515.82, 29079.15, 9462.77, 14386.32, 2941.69, 25067.99, -27462.56, 0.00, 0.00, 0.00, 0.00
212, 41539.80, 29100.00, 9463.71, 14390.97, 2970.32, 25176.54, -27452.01, 0.00, 0.00, 0.00, 0.00
213, 41513.85, 29080.47, 9446.16, 14357.06, 2925.93, 25031.83, -27449.48, 0.00, 0.00, 0.00, 0.00
214, 41486.47, 29057.65, 9446.36, 14347.90, 2887.98, 24899.64, -27445.57, 0.00, 0.00, 0.00, 0.00
215, 41514.41, 29079.37, 9469.90, 14395.44, 2933.47, 25054.20, -27451.56, 0.00, 0.00, 0.00, 0.00
216, 41553.93, 29116.28, 9477.27, 14413.61, 2974.19, 25203.40, -27485.25, 0.00, 0.00, 0.00, 0.00
217, 41539.73, 29107.74, 9464.04, 14380.31, 2938.94, 25069.47, -27489.11, 0.00, 0.00, 0.00, 0.00
218, 41503.57, 29080.58, 9461.96, 14368.06, 2900.50, 24917.14, -27452.88, 0.00, 0.15, 0.77, 0.60
219, 41514.41, 29087.02, 9471.98, 14400.85, 2925.11, 25014.64, -27470.99, 0.00, 0.00, 0.00, 0.00
220, 41555.82, 29116.30, 9479.49, 14414.10, 2971.06, 25193.57, -27510.21, 0.00, 0.00, 0.00, 0.00
221, 41545.05, 29113.77, 9469.83, 14396.91, 2943.99, 25118.51, -27514.71, 0.00, 0.00, 0.00, 0.00
222, 41505.98, 29084.00, 9457.07, 14355.47, 2892.11, 24932.34, -27472.97, 0.00, 0.00, 0.00, 0.00
223, 41497.18, 29072.04, 9464.98, 14359.63, 2904.09, 24963.01, -27476.89, 0.00, 0.00, 0.00, 0.00
224, 41531.15, 29097.90, 9476.09, 14392.18, 2966.34, 25160.66, -27502.39, 0.00, 0.00, 0.00, 0.00
225, 41538.48, 29107.29, 9469.41, 14384.11, 2959.68, 25136.32, -27520.92, 0.00, 0.00, 0.00, 0.00
226, 41505.09, 29080.22, 9461.00, 14349.33, 2909.93, 24929.44, -27499.89, 0.00, 0.00, 0.00, 0.00
227, 41496.01, 29070.05, 9462.30, 14355.23, 2904.36, 24917.19, -27515.67, 0.00, 0.00, 0.00, 0.00
228, 41531.68, 29096.70, 9472.47, 14388.17, 2950.59, 25120.21, -27534.13, 0.00, 0.15, 0.79, 0.60
229, 41544.71, 29110.22, 9468.36, 14383.66, 2953.29, 25150.88, -27533.71, 0.00, 0.00, 0.00, 0.00
230, 41508.62, 29084.40, 9453.33, 14351.88, 2901.06, 24976.89, -27466.20, 0.00, 0.00, 0.00, 0.00
231, 41488.01, 29068.44, 9456.08, 14355.21, 2888.47, 24929.12, -27444.01, 0.00, 0.00, 0.00, 0.00
232, 41522.23, 29094.10, 9474.14, 14398.64, 2948.89, 25121.71, -27480.26, 0.00, 0.00, 0.00, 0.00
233, 41543.15, 29109.30, 9468.09, 14391.24, 2965.70, 25177.99, -27498.99, 0.00, 0.00, 0.00, 0.00
234, 41508.21, 29086.06, 9448.84, 14352.75, 2909.37, 24994.03, -27498.88, 0.00, 0.00, 0.00, 0.00
235, 41482.82, 29063.48, 9449.85, 14344.59, 2884.36, 24886.16, -27460.08, 0.00, 0.00, 0.00, 0.00
236, 41510.74, 29083.96, 9466.66, 14389.56, 2935.48, 25062.21, -27483.79, 0.00, 0.00, 0.00, 0.00
237, 41544.02, 29111.98, 9473.05, 14401.36, 2970.88, 25171.37, -27502.59, 0.00, 0.00, 0.00, 0.00
238, 41522.92, 29098.08, 9462.41, 14369.29, 2924.82, 25026.98, -27502.66, 0.00, 0.15, 0.78, 0.59
239, 41492.12, 29071.24, 9456.20, 14356.30, 2881.16, 24897.56, -27506.17, 0.00, 0.00, 0.00, 0.00
240, 41505.38, 29081.92, 9470.52, 14384.00, 2928.15, 25020.41, -27485.36, 0.00, 0.00, 0.00, 0.00
241, 41535.66, 29106.20, 9473.50, 14402.14, 2970.21, 25180.76, -27511.29, 0.00, 0.00, 0.00, 0.00
242, 41524.27, 29098.04, 9458.59, 14374.81, 2936.95, 25072.02, -27518.51, 0.00, 0.00, 0.00, 0.00
243, 41486.67, 29067.35, 9447.48, 14352.55, 2892.49, 24898.95, -27478.32, 0.00, 0.00, 0.00, 0.00
244, 41494.92, 29072.64, 9469.00, 14385.54, 2917.39, 24977.69, -27490.05, 0.00, 0.00, 0.00, 0.00
245, 41529.43, 29099.00, 9479.20, 14408.11, 2965.03, 25167.50, -27524.94, 0.00, 0.00, 0.00, 0.00
246, 41521.45, 29092.78, 9453.98, 14366.02, 2924.73, 25080.65, -27542.87, 0.00, 0.00, 0.00, 0.00
247, 41490.63, 29066.81, 9449.18, 14337.24, 2893.12, 24878.12, -27473.80, 0.00, 0.00, 0.00, 0.00
248, 41489.95, 29066.12, 9461.45, 14362.29, 2912.25, 24914.77, -27492.35, 0.00, 0.16, 0.78, 0.59
249, 41529.43, 29099.20, 9470.14, 14402.64, 2957.49, 25145.64, -27533.71, 0.00, 0.00, 0.00, 0.00
250, 41533.63, 29103.78, 9454.77, 14384.49, 2936.71, 25123.56, -27560.08, 0.00, 0.00, 0.00, 0.00
251, 41492.17, 29070.43, 9437.93, 14353.35, 2884.89, 24921.32, -27507.93, 0.00, 0.00, 0.00, 0.00
252, 41486.27, 29064.24, 9451.46, 14371.68, 2901.99, 24921.14, -27406.03, 0.00, 0.00, 0.00, 0.00
253, 41517.87, 29086.73, 9465.05, 14403.53, 2953.69, 25121.97, -27452.37, 0.00, 0.00, 0.00, 0.00
254, 41533.00, 29097.66, 9458.52, 14391.28, 2955.30, 25142.72, -27494.86, 0.00, 0.00, 0.00, 0.00
255, 41494.29, 29061.07, 9435.95, 14340.77, 2889.03, 24923.11, -27504.13, 0.00, 0.00, 0.00, 0.00
0, 41478.27, 29045.17, 9441.00, 14343.74, 2864.40, 24854.27, -27490.28, 0.00, 0.00, 0.00, 0.00
1, 41506.59, 29067.57, 9459.93, 14384.26, 2913.68, 25058.47, -27526.44, 0.00, 0.00, 0.00, 0.00
2, 41524.42, 29088.65, 9458.39, 14388.67, 2934.40, 25145.35, -27556.82, 0.00, 0.17, 0.78, 0.58
3, 41496.41, 29072.20, 9445.42, 14358.38, 2891.53, 24971.95, -27514.30, 0.00, 0.00, 0.00, 0.00
4, 41469.61, 29048.17, 9441.00, 14343.40, 2865.81, 24848.86, -27484.64, 0.00, 0.00, 0.00, 0.00
5, 41493.42, 29061.47, 9454.05, 14377.49, 2921.69, 25008.79, -27487.77, 0.00, 0.00, 0.00, 0.00
6, 41520.58, 29081.50, 9451.59, 14384.44, 2953.43, 25141.11, -27523.02, 0.00, 0.00, 0.00, 0.00
7, 41501.46, 29067.24, 9433.89, 14346.69, 2902.35, 24989.21, -27554.54, 0.00, 0.00, 0.00, 0.00
8, 41466.64, 29036.84, 9424.17, 14325.48, 2858.07, 24830.06, -27562.29, 0.00, 0.00, 0.00, 0.00
9, 41482.04, 29048.64, 9439.68, 14356.99, 2886.68, 24953.89, -27541.39, 0.00, 0.00, 0.00, 0.00
10, 41521.63, 29081.54, 9456.98, 14394.70, 2951.86, 25129.33, -27514.59, 0.00, 0.00, 0.00, 0.00
11, 41510.79, 29081.81, 9452.31, 14366.11, 2936.35, 25042.25, -27508.09, 0.00, 0.19, 0.80, 0.59
12, 41474.53, 29051.92, 9434.92, 14328.54, 2885.19, 24859.88, -27503.06, 0.00, 0.00, 0.00, 0.00
13, 41475.09, 29049.38, 9445.27, 14356.55, 2910.64, 24928.81, -27460.21, 0.00, 0.00, 0.00, 0.00
14, 41513.51, 29082.08, 9457.04, 14392.09, 2964.11, 25131.43, -27499.71, 0.00, 0.00, 0.00, 0.00
15, 41522.66, 29095.33, 9457.89, 14379.79, 2957.65, 25081.07, -27456.55, 0.00, 0.00, 0.00, 0.00
16, 41492.48, 29074.37, 9453.92, 14347.74, 2905.39, 24886.70, -27450.56, 0.00, 0.00, 0.00, 0.00
17, 41493.84, 29072.60, 9465.76, 14370.00, 2905.99, 24903.46, -27461.55, 0.00, 0.00, 0.00, 0.00
18, 41537.16, 29105.86, 9481.14, 14410.53, 2955.15, 25110.98, -27499.39, 0.00, 0.00, 0.00, 0.00
19, 41555.40, 29126.11, 9478.57, 14408.25, 2951.26, 25120.70, -27512.18, 0.00, 0.00, 0.00, 0.00
20, 41532.20, 29111.94, 9474.64, 14391.01, 2899.51, 24944.52, -27494.12, 0.00, 0.00, 0.00, 0.00
21, 41515.73, 29094.91, 9481.14, 14396.91, 2887.35, 24903.66, -27500.13, 0.00, 0.19, 0.78, 0.60
22, 41548.63, 29119.99, 9493.59, 14436.41, 2943.64, 25111.94, -27519.62, 0.00, 0.00, 0.00, 0.00
23, 41566.96, 29138.47, 9489.57, 14431.29, 2960.62, 25166.03, -27510.08, 0.00, 0.00, 0.00, 0.00
24, 41536.96, 29116.59, 9477.99, 14394.43, 2913.30, 24984.20, -27483.64, 0.00, 0.00, 0.00, 0.00
25, 41517.40, 29099.13, 9482.21, 14392.51, 2898.78, 24894.59, -27471.30, 0.00, 0.00, 0.00, 0.00
26, 41545.48, 29118.71, 9499.78, 14432.66, 2954.03, 25080.02, -27487.48, 0.00, 0.00, 0.00, 0.00
27, 41571.58, 29139.81, 9504.86, 14436.52, 2988.88, 25177.07, -27506.14, 0.00, 0.00, 0.00, 0.00
28, 41543.04, 29116.66, 9486.88, 14393.76, 2939.12, 24999.26, -27533.12, 0.00, 0.00, 0.00, 0.00
29, 41515.52, 29090.46, 9485.57, 14381.20, 2891.18, 24868.33, -27561.38, 0.00, 0.00, 0.00, 0.00
30, 41540.54, 29109.08, 9505.03, 14425.46, 2930.94, 25042.60, -27499.60, 0.00, 0.00, 0.00, 0.00
31, 41575.36, 29137.80, 9516.12, 14437.01, 3001.97, 25185.99, -27442.69, 0.00, 0.18, 0.79, 0.61
32, 41551.98, 29118.94, 9492.63, 14391.57, 2957.67, 25024.92, -27467.88, 0.00, 0.00, 0.00, 0.00
33, 41514.12, 29084.85, 9472.36, 14365.44, 2892.36, 24865.15, -27447.47, 0.00, 0.00, 0.00, 0.00
34, 41526.72, 29093.10, 9490.01, 14411.13, 2924.21, 25018.13, -27411.62, 0.00, 0.00, 0.00, 0.00
35, 41560.59, 29121.80, 9499.16, 14442.15, 2976.94, 25208.77, -27444.61, 0.00, 0.00, 0.00, 0.00
36, 41546.64, 29112.54, 9482.46, 14407.06, 2950.09, 25107.69, -27448.88, 0.00, 0.00, 0.00, 0.00
37, 41501.89, 29076.42, 9464.53, 14368.86, 2889.21, 24901.83, -27458.87, 0.00, 0.00, 0.00, 0.00
38, 41499.70, 29072.71, 9469.18, 14386.12, 2891.38, 24944.61, -27480.82, 0.00, 0.00, 0.00, 0.00
39, 41542.26, 29105.17, 9483.42, 14419.89, 2945.74, 25153.71, -27494.05, 0.00, 0.00, 0.00, 0.00
40, 41542.41, 29107.47, 9473.97, 14395.57, 2938.38, 25115.04, -27485.36, 0.00, 0.00, 0.00, 0.00
41, 41501.93, 29075.13, 9457.98, 14359.83, 2883.08, 24910.35, -27458.25, 0.00, 0.17, 0.77, 0.60
42, 41484.23, 29060.20, 9457.92, 14367.59, 2877.18, 24898.93, -27464.55, 0.00, 0.00, 0.00, 0.00
43, 41515.75, 29083.60, 9466.17, 14399.69, 2931.79, 25108.12, -27496.94, 0.00, 0.00, 0.00, 0.00
44, 41524.36, 29089.61, 9454.09, 14386.72, 2929.89, 25118.58, -27509.77, 0.00, 0.00, 0.00, 0.00
45, 41491.18, 29064.58, 9443.50, 14354.92, 2875.40, 24921.93, -27490.52, 0.00, 0.00, 0.00, 0.00
46, 41470.29, 29046.38, 9445.69, 14355.61, 2856.49, 24864.41, -27515.24, 0.00, 0.00, 0.00, 0.00
47, 41505.80, 29073.34, 9468.78, 14398.14, 2909.77, 25064.75, -27580.02, 0.00, 0.00, 0.00, 0.00
48, 41524.02, 29088.38, 9462.86, 14390.59, 2914.76, 25117.64, -27619.42, 0.00, 0.00, 0.00, 0.00
49, 41502.29, 29072.09, 9454.88, 14362.45, 2878.84, 24960.46, -27507.71, 0.00, 0.00, 0.00, 0.00
50, 41480.34, 29050.43, 9461.07, 14354.38, 2872.67, 24852.43, -27481.87, 0.00, 0.00, 0.00, 0.00
51, 41511.05, 29070.16, 9479.40, 14391.04, 2915.36, 25012.07, -27518.86, 0.00, 0.17, 0.77, 0.60
52, 41531.68, 29089.54, 9482.15, 14393.07, 2949.49, 25136.08, -27484.84, 0.00, 0.00, 0.00, 0.00
53, 41511.61, 29078.54, 9473.43, 14366.18, 2918.47, 25000.63, -27429.10, 0.00, 0.00, 0.00, 0.00
54, 41482.69, 29053.67, 9467.86, 14363.97, 2872.29, 24892.56, -27396.29, 0.00, 0.00, 0.00, 0.00
55, 41506.76, 29076.36, 9489.81, 14415.67, 2929.40, 25046.69, -27399.91, 0.00, 0.00, 0.00, 0.00
56, 41542.64, 29106.35, 9490.19, 14430.20, 2961.40, 25186.71, -27463.05, 0.00, 0.00, 0.00, 0.00
57, 41522.86, 29093.30, 9467.21, 14387.77, 2915.85, 25052.53, -27461.26, 0.00, 0.00, 0.00, 0.00
58, 41484.43, 29059.23, 9454.03, 14364.77, 2864.17, 24874.23, -27464.97, 0.00, 0.00, 0.00, 0.00
59, 41488.64, 29055.34, 9461.90, 14392.98, 2886.57, 24963.63, -27470.38, 0.00, 0.00, 0.00, 0.00
60, 41520.27, 29075.95, 9466.05, 14406.79, 2937.11, 25141.22, -27537.84, 0.00, 0.16, 0.74, 0.60
61, 41508.80, 29067.08, 9443.52, 14369.69, 2892.09, 25051.01, -27628.10, 0.00, 0.00, 0.00, 0.00
62, 41469.59, 29036.79, 9429.66, 14334.26, 2840.97, 24831.92, -27477.31, 0.00, 0.00, 0.00, 0.00
63, 41467.58, 29034.42, 9444.13, 14354.51, 2883.55, 24873.04, -27452.05, 0.00, 0.00, 0.00, 0.00
64, 41505.49, 29064.96, 9449.33, 14387.93, 2921.13, 25092.31, -27545.51, 0.00, 0.00, 0.00, 0.00
65, 41513.34, 29079.15, 9443.97, 14381.98, 2913.46, 25093.61, -27484.20, 0.00, 0.00, 0.00, 0.00
66, 41479.18, 29052.75, 9432.19, 14348.01, 2864.44, 24893.47, -27465.96, 0.00, 0.00, 0.00, 0.00
67, 41470.15, 29043.30, 9438.78, 14357.62, 2864.02, 24855.72, -27440.16, 0.00, 0.00, 0.00, 0.00
68, 41507.95, 29071.35, 9453.13, 14399.57, 2920.86, 25088.42, -27450.22, 0.00, 0.00, 0.00, 0.00
69, 41523.08, 29083.93, 9449.29, 14389.40, 2919.45, 25115.51, -27477.74, 0.00, 0.00, 0.00, 0.00
70, 41492.50, 29060.35, 9436.73, 14346.22, 2864.91, 24888.49, -27474.45, 0.00, 0.18, 0.74, 0.62
71, 41467.00, 29042.09, 9435.77, 14345.62, 2839.59, 24820.45, -27474.52, 0.00, 0.00, 0.00, 0.00
72, 41506.29, 29073.31, 9452.42, 14395.60, 2899.54, 25030.38, -27495.88, 0.00, 0.00, 0.00, 0.00
73, 41529.07, 29090.73, 9445.36, 14401.68, 2913.37, 25122.29, -27519.00, 0.00, 0.00, 0.00, 0.00
74, 41494.74, 29061.31, 9428.28, 14359.32, 2860.44, 24934.58, -27514.35, 0.00, 0.00, 0.00, 0.00
75, 41471.56, 29042.04, 9430.36, 14350.31, 2840.01, 24819.44, -27479.95, 0.00, 0.00, 0.00, 0.00
76, 41496.32, 29059.93, 9442.18, 14385.94, 2884.22, 24980.89, -27520.41, 0.00, 0.00, 0.00, 0.00
77, 41522.41, 29080.94, 9440.50, 14399.24, 2918.42, 25112.72, -27553.62, 0.00, 0.00, 0.00, 0.00
78, 41498.11, 29061.76, 9422.04, 14360.77, 2877.09, 24956.75, -27516.38, 0.00, 0.00, 0.00, 0.00
79, 41469.61, 29040.32, 9417.39, 14344.90, 2838.58, 24809.90, -27510.53, 0.00, 0.00, 0.00, 0.00
80, 41481.17, 29047.95, 9429.04, 14372.80, 2869.65, 24941.17, -27502.86, 0.00, 0.18, 0.75, 0.63
81, 41517.00, 29079.39, 9438.45, 14392.47, 2925.87, 25105.01, -27495.08, 0.00, 0.00, 0.00, 0.00
82, 41501.15, 29070.41, 9418.51, 14359.94, 2875.15, 24985.12, -27547.16, 0.00, 0.00, 0.00, 0.00
83, 41459.58, 29032.99, 9410.84, 14328.63, 2828.39, 24798.63, -27516.76, 0.00, 0.00, 0.00, 0.00
84, 41466.75, 29037.55, 9429.87, 14357.60, 2869.32, 24877.18, -27482.47, 0.00, 0.00, 0.00, 0.00
85, 41498.98, 29061.47, 9435.41, 14381.25, 2908.77, 25069.13, -27533.17, 0.00, 0.00, 0.00, 0.00
86, 41489.22, 29056.35, 9422.40, 14358.33, 2890.21, 25023.36, -27541.42, 0.00, 0.00, 0.00, 0.00
87, 41449.32, 29023.98, 9403.47, 14325.08, 2820.75, 24823.71, -27567.86, 0.00, 0.00, 0.00, 0.00
88, 41448.25, 29018.44, 9413.93, 14339.34, 2828.10, 24837.12, -27558.92, 0.00, 0.00, 0.00, 0.00
89, 41494.78, 29056.91, 9436.48, 14383.79, 2904.74, 25064.93, -27526.78, 0.00, 0.00, 0.00, 0.00
90, 41504.06, 29070.66, 9432.79, 14376.04, 2907.87, 25076.35, -27485.34, 0.00, 0.17, 0.76, 0.62
91, 41464.68, 29038.36, 9417.39, 14333.30, 2850.07, 24858.85, -27496.60, 0.00, 0.00, 0.00, 0.00
92, 41448.94, 29019.45, 9420.68, 14336.43, 2837.69, 24823.44, -27490.23, 0.00, 0.00, 0.00, 0.00
93, 41482.64, 29044.28, 9436.10, 14375.28, 2892.81, 25041.66, -27508.47, 0.00, 0.00, 0.00, 0.00
94, 41497.82, 29059.05, 9432.17, 14372.71, 2899.54, 25091.91, -27535.89, 0.00, 0.00, 0.00, 0.00
95, 41465.46, 29036.10, 9418.42, 14342.20, 2844.71, 24902.95, -27530.46, 0.00, 0.00, 0.00, 0.00
96, 41444.29, 29018.22, 9420.77, 14345.68, 2826.49, 24825.05, -27523.31, 0.00, 0.00, 0.00, 0.00
97, 41471.52, 29038.00, 9433.78, 14386.28, 2872.62, 25011.56, -27565.04, 0.00, 0.00, 0.00, 0.00
98, 41499.21, 29061.96, 9437.49, 14393.70, 2904.65, 25118.76, -27502.72, 0.00, 0.00, 0.00, 0.00
99, 41475.14, 29044.44, 9426.94, 14355.90, 2859.64, 24953.51, -27484.89, 0.00, 0.16, 0.76, 0.62
100, 41445.36, 29019.20, 9424.03, 14343.16, 2819.94, 24829.12, -27494.25, 0.00, 0.00, 0.00, 0.00
101, 41468.88, 29036.68, 9438.94, 14379.79, 2869.65, 24981.18, -27527.56, 0.00, 0.00, 0.00, 0.00
102, 41499.12, 29061.40, 9443.52, 14387.88, 2914.47, 25118.13, -27532.30, 0.00, 0.00, 0.00, 0.00
103, 41481.13, 29049.27, 9429.96, 14358.49, 2875.80, 24988.02, -27525.77, 0.00, 0.00, 0.00, 0.00
104, 41444.49, 29016.50, 9418.44, 14332.27, 2825.33, 24816.83, -27542.15, 0.00, 0.00, 0.00, 0.00
105, 41453.48, 29018.40, 9427.88, 14360.73, 2850.32, 24934.96, -27543.32, 0.00, 0.00, 0.00, 0.00
106, 41496.93, 29054.90, 9446.05, 14395.84, 2912.19, 25128.59, -27511.13, 0.00, 0.00, 0.00, 0.00
107, 41489.82, 29053.02, 9440.84, 14375.61, 2892.05, 25041.02, -27500.71, 0.00, 0.00, 0.00, 0.00
108, 41448.09, 29018.73, 9431.03, 14342.40, 2844.13, 24849.37, -27489.38, 0.00, 0.00, 0.00, 0.00
109, 41440.91, 29010.91, 9433.44, 14353.53, 2851.99, 24902.48, -27507.84, 0.00, 0.16, 0.77, 0.61
110, 41484.30, 29046.78, 9445.71, 14385.76, 2903.69, 25101.14, -27541.04, 0.00, 0.00, 0.00, 0.00
111, 41481.93, 29046.18, 9431.00, 14355.50, 2877.52, 25037.62, -27588.87, 0.00, 0.00, 0.00, 0.00
112, 41440.58, 29016.01, 9419.18, 14317.99, 2823.56, 24818.68, -27558.74, 0.00, 0.00, 0.00, 0.00
113, 41433.45, 29012.96, 9429.37, 14344.01, 2842.40, 24830.08, -27534.35, 0.00, 0.00, 0.00, 0.00
114, 41476.21, 29048.84, 9445.42, 14398.93, 2906.64, 25096.83, -27509.27, 0.00, 0.00, 0.00, 0.00
115, 41493.38, 29067.66, 9444.01, 14390.95, 2920.26, 25105.28, -27474.85, 0.00, 0.00, 0.00, 0.00
116, 41463.02, 29043.43, 9433.71, 14356.84, 2866.79, 24902.64, -27485.89, 0.00, 0.00, 0.00, 0.00
117, 41444.29, 29021.79, 9441.89, 14365.09, 2856.40, 24875.12, -27474.92, 0.00, 0.00, 0.00, 0.00
118, 41485.64, 29050.67, 9457.29, 14402.64, 2904.05, 25080.69, -27527.45, 0.00, 0.00, 0.00, 0.00
119, 41519.77, 29075.17, 9456.82, 14404.87, 2919.23, 25155.10, -27521.34, 0.00, 0.16, 0.78, 0.61
120, 41495.74, 29053.24, 9446.90, 14371.79, 2870.03, 24967.46, -27510.30, 0.00, 0.00, 0.00, 0.00
121, 41471.18, 29026.89, 9448.48, 14359.25, 2845.87, 24859.50, -27505.88, 0.00, 0.00, 0.00, 0.00
122, 41502.49, 29045.78, 9470.88, 14396.38, 2899.80, 25038.83, -27527.83, 0.00, 0.00, 0.00, 0.00
123, 41534.84, 29070.21, 9481.21, 14399.73, 2944.93, 25145.33, -27500.69, 0.00, 0.00, 0.00, 0.00
124, 41515.70, 29051.28, 9468.18, 14355.76, 2904.54, 24978.14, -27495.64, 0.00, 0.00, 0.00, 0.00
125, 41492.68, 29029.39, 9465.27, 14339.05, 2866.97, 24835.58, -27486.77, 0.00, 0.00, 0.00, 0.00
126, 41525.72, 29051.79, 9489.72, 14377.51, 2912.45, 24983.06, -27476.78, 0.00, 0.00, 0.00, 0.00
127, 41573.21, 29085.86, 9502.53, 14393.99, 2950.79, 25132.21, -27506.44, 0.00, 0.00, 0.00, 0.00
128, 41568.23, 29079.42, 9485.61, 14348.01, 2906.46, 24989.88, -27524.18, 0.00, 0.00, 0.00, 0.00
129, 41550.37, 29065.78, 9483.98, 14328.05, 2860.71, 24827.58, -27499.60, 0.00, 0.16, 0.79, 0.62
130, 41570.51, 29084.11, 9497.66, 14359.77, 2901.90, 24925.59, -27499.51, 0.00, 0.00, 0.00, 0.00
131, 41614.48, 29116.79, 9505.10, 14377.49, 2946.03, 25100.18, -27574.61, 0.00, 0.00, 0.00, 0.00
132, 41614.16, 29116.28, 9490.91, 14354.33, 2905.57, 25047.45, -27511.80, 0.00, 0.00, 0.00, 0.00
133, 41591.23, 29101.63, 9486.93, 14332.79, 2874.52, 24856.70, -27452.34, 0.00, 0.00, 0.00, 0.00
134, 41598.20, 29107.22, 9503.34, 14362.45, 2891.04, 24909.48, -27504.98, 0.00, 0.00, 0.00, 0.00
135, 41645.99, 29147.52, 9523.03, 14402.64, 2964.60, 25136.19, -27461.89, 0.00, 0.00, 0.00, 0.00
136, 41659.87, 29161.11, 9522.60, 14384.38, 2970.59, 25103.67, -27457.42, 0.00, 0.00, 0.00, 0.00
137, 41627.89, 29136.68, 9508.41, 14354.60, 2904.03, 24903.08, -27438.08, 0.00, 0.00, 0.00, 0.00
138, 41617.05, 29127.99, 9509.28, 14368.91, 2892.27, 24897.18, -27452.95, 0.00, 0.00, 0.00, 0.00
139, 41662.40, 29166.25, 9531.16, 14415.49, 2957.29, 25117.19, -27473.76, 0.00, 0.16, 0.76, 0.62
140, 41678.52, 29183.76, 9526.16, 14408.34, 2968.07, 25139.03, -27450.56, 0.00, 0.00, 0.00, 0.00
141, 41641.97, 29153.09, 9506.17, 14371.32, 2909.55, 24939.72, -27436.59, 0.00, 0.00, 0.00, 0.00
142, 41620.20, 29131.38, 9507.96, 14370.00, 2891.62, 24869.98, -27443.52, 0.00, 0.00, 0.00, 0.00
143, 41650.55, 29154.70, 9523.00, 14406.46, 2943.12, 25066.72, -27491.73, 0.00, 0.00, 0.00, 0.00
144, 41669.93, 29169.70, 9522.60, 14393.58, 2958.14, 25129.28, -27481.09, 0.00, 0.00, 0.00, 0.00
145, 41639.24, 29146.00, 9508.12, 14349.06, 2901.03, 24938.06, -27476.37, 0.00, 0.00, 0.00, 0.00
146, 41621.09, 29132.19, 9519.67, 14358.63, 2876.78, 24845.88, -27470.25, 0.00, 0.00, 0.00, 0.00
147, 41642.62, 29145.06, 9518.67, 14398.68, 2908.14, 25020.83, -27577.89, 0.00, 0.00, 0.00, 0.00
148, 41675.96, 29172.31, 9520.81, 14402.19, 2946.76, 25138.11, -27493.18, 0.00, 0.17, 0.74, 0.62
149, 41660.79, 29165.43, 9522.98, 14372.37, 2942.36, 24987.53, -27397.90, 0.00, 0.00, 0.00, 0.00
150, 41630.93, 29140.42, 9518.54, 14357.64, 2898.78, 24825.03, -27420.52, 0.00, 0.00, 0.00, 0.00
151, 41649.43, 29150.38, 9531.63, 14395.08, 2931.16, 24965.18, -27437.57, 0.00, 0.00, 0.00, 0.00
152, 41686.09, 29180.60, 9535.50, 14420.21, 2969.94, 25154.52, -27456.35, 0.00, 0.00, 0.00, 0.00
153, 41672.34, 29174.79, 9522.00, 14391.42, 2934.34, 25035.14, -27459.23, 0.00, 0.00, 0.00, 0.00
154, 41641.45, 29150.99, 9521.82, 14372.64, 2888.52, 24860.79, -27473.13, 0.00, 0.00, 0.00, 0.00
155, 41645.63, 29152.48, 9528.53, 14388.51, 2894.22, 24917.79, -27567.23, 0.00, 0.00, 0.00, 0.00
156, 41693.02, 29189.52, 9543.77, 14421.46, 2953.47, 25113.99, -27509.10, 0.00, 0.00, 0.00, 0.00
157, 41695.25, 29196.94, 9546.18, 14413.08, 2963.13, 25089.63, -27428.27, 0.00, 0.00, 0.00, 0.00
158, 41660.61, 29173.65, 9536.57, 14388.67, 2905.26, 24910.82, -27410.59, 0.00, 0.17, 0.74, 0.62
159, 41663.67, 29176.20, 9551.82, 14414.62, 2916.19, 24948.88, -27417.19, 0.00, 0.00, 0.00, 0.00
160, 41701.78, 29205.30, 9565.79, 14445.80, 2971.51, 25150.83, -27465.91, 0.00, 0.00, 0.00, 0.00
161, 41702.39, 29206.98, 9553.11, 14427.07, 2959.64, 25126.11, -27482.72, 0.00, 0.00, 0.00, 0.00
162, 41667.85, 29178.14, 9534.94, 14390.34, 2904.92, 24921.52, -27443.43, 0.00, 0.00, 0.00, 0.00
163, 41658.55, 29168.44, 9540.48, 14398.84, 2906.51, 24902.66, -27423.29, 0.00, 0.00, 0.00, 0.00
164, 41698.43, 29201.23, 9561.34, 14448.55, 2966.84, 25133.48, -27447.85, 0.00, 0.00, 0.00, 0.00
165, 41709.79, 29210.73, 9555.06, 14437.53, 2959.30, 25160.33, -27492.78, 0.00, 0.00, 0.00, 0.00
166, 41676.32, 29182.71, 9542.96, 14392.35, 2911.78, 24947.41, -27487.75, 0.00, 0.00, 0.00, 0.00
167, 41651.65, 29158.70, 9540.26, 14380.91, 2891.09, 24859.14, -27478.83, 0.00, 0.00, 0.00, 0.00
168, 41692.24, 29188.54, 9560.47, 14428.18, 2949.16, 25065.63, -27468.26, 0.00, 0.17, 0.75, 0.62
169, 41720.16, 29214.69, 9562.48, 14430.42, 2976.56, 25148.30, -27465.55, 0.00, 0.00, 0.00, 0.00
170, 41678.52, 29184.47, 9541.13, 14387.50, 2919.29, 24966.32, -27464.50, 0.00, 0.00, 0.00, 0.00
171, 41644.67, 29154.12, 9534.67, 14387.57, 2879.42, 24876.89, -27469.76, 0.00, 0.00, 0.00, 0.00
172, 41661.15, 29164.51, 9550.32, 14422.19, 2938.99, 25055.30, -27400.82, 0.00, 0.00, 0.00, 0.00
173, 41685.40, 29181.90, 9555.17, 14427.92, 2981.63, 25174.61, -27427.69, 0.00, 0.00, 0.00, 0.00
174, 41665.44, 29166.54, 9542.14, 14392.42, 2932.46, 25017.37, -27437.68, 0.00, 0.00, 0.00, 0.00
175, 41637.57, 29143.90, 9536.75, 14372.28, 2887.09, 24846.62, -27448.43, 0.00, 0.00, 0.00, 0.00
176, 41654.93, 29154.14, 9551.24, 14405.50, 2928.61, 24958.18, -27485.83, 0.00, 0.00, 0.00, 0.00
177, 41694.00, 29188.94, 9557.47, 14436.05, 2969.72, 25154.41, -27487.71, 0.00, 0.00, 0.00, 0.00
178, 41678.94, 29179.78, 9539.81, 14403.33, 2931.45, 25055.48, -27480.15, 0.00, 0.18, 0.75, 0.61
179, 41640.36, 29149.89, 9526.60, 14370.03, 2873.94, 24850.38, -27466.74, 0.00, 0.00, 0.00, 0.00
180, 41650.82, 29154.63, 9545.45, 14403.87, 2914.38, 24933.84, -27406.79, 0.00, 0.00, 0.00, 0.00
181, 41689.09, 29182.48, 9549.33, 14431.94, 2965.07, 25148.62, -27452.46, 0.00, 0.00, 0.00, 0.00
182, 41687.19, 29184.78, 9537.24, 14409.41, 2939.39, 25091.13, -27483.35, 0.00, 0.00, 0.00, 0.00
183, 41652.27, 29159.84, 9530.34, 14380.08, 2888.43, 24893.14, -27451.79, 0.00, 0.00, 0.00, 0.00
184, 41648.25, 29149.31, 9538.14, 14392.13, 2892.18, 24900.13, -27469.76, 0.00, 0.00, 0.00, 0.00
185, 41685.91, 29178.90, 9551.24, 14430.49, 2943.57, 25105.08, -27503.66, 0.00, 0.00, 0.00, 0.00
186, 41695.81, 29190.62, 9543.30, 14411.93, 2941.22, 25080.98, -27514.48, 0.00, 0.00, 0.00, 0.00
187, 41664.23, 29170.10, 9527.86, 14388.80, 2871.26, 24900.47, -27494.63, 0.00, 0.00, 0.00, 0.00
188, 41662.49, 29171.64, 9542.58, 14420.25, 2870.43, 24914.62, -27456.12, 0.00, 0.17, 0.76, 0.61
189, 41703.17, 29205.53, 9563.46, 14458.38, 2936.44, 25126.69, -27437.19, 0.00, 0.00, 0.00, 0.00
190, 41720.27, 29222.24, 9557.14, 14448.64, 2943.46, 25157.36, -27478.83, 0.00, 0.00, 0.00, 0.00
191, 41679.45, 29189.16, 9534.14, 14403.75, 2884.43, 24953.73, -27477.76, 0.00, 0.00, 0.00, 0.00
192, 41652.74, 29163.53, 9531.14, 14390.32, 2862.54, 24852.01, -27456.77, 0.00, 0.00, 0.00, 0.00
193, 41675.23, 29175.75, 9547.41, 14419.62, 2916.12, 25034.67, -27485.20, 0.00, 0.00, 0.00, 0.00
194, 41699.01, 29194.22, 9544.89, 14419.13, 2942.20, 25133.89, -27507.49, 0.00, 0.00, 0.00, 0.00
195, 41666.64, 29170.08, 9526.07, 14376.17, 2892.41, 24957.33, -27512.20, 0.00, 0.00, 0.00, 0.00
196, 41632.89, 29140.97, 9522.80, 14364.21, 2860.75, 24831.51, -27471.88, 0.00, 0.00, 0.00, 0.00
197, 41651.45, 29150.47, 9533.04, 14397.05, 2901.57, 24981.27, -27506.39, 0.00, 0.18, 0.76, 0.62
198, 41678.07, 29172.56, 9529.22, 14409.92, 2916.17, 25129.93, -27569.20, 0.00, 0.00, 0.00, 0.00
199, 41663.72, 29164.82, 9523.32, 14381.94, 2898.10, 25001.41, -27499.37, 0.00, 0.00, 0.00, 0.00
200, 41627.80, 29135.47, 9521.73, 14356.01, 2871.64, 24812.31, -27493.27, 0.00, 0.00, 0.00, 0.00
201, 41641.70, 29145.11, 9533.67, 14398.68, 2901.82, 24950.89, -27441.12, 0.00, 0.00, 0.00, 0.00
202, 41683.01, 29178.82, 9545.04, 14430.40, 2953.54, 25158.81, -27462.11, 0.00, 0.00, 0.00, 0.00
203, 41671.65, 29173.56, 9531.57, 14397.96, 2917.35, 25055.68, -27480.71, 0.00, 0.00, 0.00, 0.00
204, 41632.02, 29143.63, 9520.64, 14370.25, 2867.55, 24867.57, -27457.57, 0.00, 0.00, 0.00, 0.00
205, 41632.87, 29140.75, 9531.63, 14385.27, 2886.46, 24911.55, -27479.46, 0.00, 0.00, 0.00, 0.00
206, 41670.64, 29168.06, 9543.46, 14412.16, 2944.08, 25113.99, -27479.99, 0.00, 0.00, 0.00, 0.00
207, 41667.29, 29165.81, 9530.25, 14389.63, 2925.98, 25076.78, -27485.25, 0.00, 0.17, 0.75, 0.62
208, 41630.26, 29138.38, 9520.79, 14357.46, 2877.59, 24868.75, -27473.06, 0.00, 0.00, 0.00, 0.00
209, 41628.54, 29136.95, 9535.68, 14386.77, 2893.84, 24894.34, -27428.63, 0.00, 0.00, 0.00, 0.00
210, 41667.09, 29163.35, 9546.43, 14429.12, 2944.06, 25128.93, -27472.46, 0.00, 0.00, 0.00, 0.00
211, 41674.58, 29167.86, 9530.25, 14404.04, 2932.35, 25111.25, -27528.70, 0.00, 0.00, 0.00, 0.00
212, 41645.32, 29147.19, 9522.76, 14374.72, 2891.15, 24909.48, -27437.30, 0.00, 0.00, 0.00, 0.00
213, 41628.80, 29136.08, 9532.59, 14387.26, 2885.70, 24880.44, -27395.91, 0.00, 0.00, 0.00, 0.00
214, 41657.79, 29158.41, 9546.18, 14424.83, 2934.09, 25087.35, -27472.73, 0.00, 0.00, 0.00, 0.00
215, 41674.16, 29172.38, 9537.62, 14418.35, 2935.43, 25138.00, -27526.75, 0.00, 0.00, 0.00, 0.00
216, 41647.45, 29152.40, 9529.17, 14379.75, 2892.65, 24939.27, -27455.12, 0.00, 0.00, 0.00, 0.00
217, 41627.51, 29134.87, 9536.66, 14373.51, 2882.35, 24836.74, -27410.30, 0.00, 0.17, 0.74, 0.62
218, 41651.80, 29153.92, 9547.59, 14413.05, 2926.31, 25028.74, -27435.85, 0.00, 0.00, 0.00, 0.00
219, 41673.89, 29173.03, 9540.35, 14420.45, 2940.13, 25141.87, -27494.79, 0.00, 0.00, 0.00, 0.00
220, 41652.79, 29155.57, 9523.27, 14386.39, 2887.35, 24985.32, -27499.15, 0.00, 0.00, 0.00, 0.00
221, 41624.71, 29127.81, 9521.57, 14367.14, 2851.72, 24833.88, -27473.80, 0.00, 0.00, 0.00, 0.00
222, 41654.93, 29144.51, 9544.26, 14401.00, 2898.73, 24976.75, -27479.52, 0.00, 0.00, 0.00, 0.00
223, 41704.51, 29191.44, 9557.85, 14431.92, 2956.31, 25166.12, -27471.10, 0.00, 0.00, 0.00, 0.00
224, 41673.66, 29180.67, 9539.01, 14404.31, 2926.69, 25035.76, -27477.71, 0.00, 0.00, 0.00, 0.00
225, 41623.75, 29142.29, 9519.16, 14379.61, 2869.20, 24832.65, -27512.29, 0.00, 0.00, 0.00, 0.00
226, 41637.16, 29157.04, 9530.60, 14420.65, 2888.43, 24948.14, -27497.16, 0.00, 0.00, 0.00, 0.00
227, 41680.75, 29191.47, 9551.19, 14456.59, 2954.86, 25176.13, -27448.81, 0.00, 0.16, 0.76, 0.61
228, 41670.36, 29183.13, 9543.30, 14423.45, 2937.13, 25072.80, -27470.65, 0.00, 0.00, 0.00, 0.00
229, 41632.89, 29150.14, 9529.96, 14393.25, 2878.03, 24881.98, -27495.82, 0.00, 0.00, 0.00, 0.00
230, 41637.81, 29149.42, 9539.37, 14416.72, 2893.68, 24940.01, -27459.47, 0.00, 0.00, 0.00, 0.00
231, 41682.52, 29183.91, 9554.61, 14450.45, 2954.90, 25155.95, -27452.26, 0.00, 0.00, 0.00, 0.00
232, 41685.69, 29191.11, 9542.83, 14429.53, 2940.80, 25118.08, -27449.64, 0.00, 0.00, 0.00, 0.00
233, 41650.44, 29164.76, 9531.72, 14392.31, 2889.19, 24898.05, -27443.38, 0.00, 0.00, 0.00, 0.00
234, 41636.05, 29151.30, 9532.01, 14399.49, 2879.93, 24872.75, -27478.54, 0.00, 0.00, 0.00, 0.00
235, 41678.02, 29187.71, 9550.07, 14448.08, 2938.00, 25097.61, -27498.81, 0.00, 0.00, 0.00, 0.00
236, 41686.16, 29196.45, 9542.76, 14432.28, 2942.76, 25115.29, -27494.39, 0.00, 0.16, 0.77, 0.61
237, 41650.35, 29167.35, 9534.67, 14388.64, 2909.66, 24885.67, -27460.88, 0.00, 0.00, 0.00, 0.00
238, 41629.70, 29146.92, 9535.19, 14397.74, 2888.96, 24844.25, -27439.43, 0.00, 0.00, 0.00, 0.00
239, 41664.86, 29174.75, 9549.98, 14452.12, 2933.35, 25088.00, -27468.37, 0.00, 0.00, 0.00, 0.00
240, 41682.00, 29189.48, 9541.98, 14450.38, 2937.98, 25168.60, -27502.61, 0.00, 0.00, 0.00, 0.00
241, 41655.89, 29170.90, 9528.30, 14407.44, 2899.22, 24970.32, -27478.32, 0.00, 0.00, 0.00, 0.00
242, 41631.96, 29150.88, 9529.24, 14391.30, 2875.55, 24827.27, -27466.52, 0.00, 0.00, 0.00, 0.00
243, 41660.34, 29170.61, 9548.80, 14439.85, 2927.74, 25023.60, -27415.58, 0.00, 0.00, 0.00, 0.00
244, 41691.12, 29195.42, 9548.96, 14459.97, 2966.66, 25173.99, -27408.02, 0.00, 0.00, 0.00, 0.00
245, 41669.21, 29180.07, 9533.91, 14422.84, 2918.29, 25014.28, -27438.73, 0.00, 0.00, 0.00, 0.00
246, 41636.07, 29149.40, 9534.36, 14401.41, 2891.04, 24856.66, -27412.02, 0.00, 0.17, 0.76, 0.63
247, 41654.57, 29161.07, 9547.84, 14443.05, 2924.99, 25000.52, -27439.25, 0.00, 0.00, 0.00, 0.00
248, 41691.16, 29188.65, 9545.80, 14457.85, 2952.06, 25162.45, -27467.10, 0.00, 0.00, 0.00, 0.00
249, 41678.83, 29183.08, 9535.32, 14426.17, 2919.50, 25047.77, -27454.13, 0.00, 0.00, 0.00, 0.00
250, 41642.21, 29154.52, 9527.70, 14394.01, 2862.45, 24854.16, -27476.75, 0.00, 0.00, 0.00, 0.00
251, 41652.16, 29159.10, 9546.63, 14421.81, 2893.46, 24927.47, -27472.44, 0.00, 0.00, 0.00, 0.00
252, 41687.10, 29185.95, 9551.57, 14448.30, 2936.44, 25127.56, -27496.11, 0.00, 0.00, 0.00, 0.00
253, 41679.09, 29181.63, 9537.89, 14415.00, 2907.31, 25038.74, -27522.22, 0.00, 0.00, 0.00, 0.00
254, 41645.28, 29155.55, 9541.80, 14385.87, 2875.62, 24841.64, -27447.54, 0.00, 0.00, 0.00, 0.00
255, 41642.55, 29153.54, 9550.54, 14411.87, 2891.78, 24888.26, -27434.02, 0.00, 0.00, 0.00, 0.00
0, 41675.99, 29177.56, 9551.66, 14439.36, 2943.08, 25093.03, -27475.39, 0.00, 0.18, 0.75, 0.64
1, 41681.89, 29183.80, 9542.03, 14424.25, 2930.63, 25084.60, -27482.88, 0.00, 0.00, 0.00, 0.00
2, 41642.73, 29151.93, 9528.41, 14385.72, 2879.42, 24879.79, -27460.77, 0.00, 0.00, 0.00, 0.00
3, 41627.84, 29136.75, 9534.38, 14393.38, 2881.68, 24850.02, -27436.12, 0.00, 0.00, 0.00, 0.00
4, 41658.98, 29160.67, 9545.27, 14432.34, 2935.36, 25073.83, -27472.26, 0.00, 0.00, 0.00, 0.00
5, 41673.29, 29174.64, 9541.54, 14430.80, 2934.16, 25119.89, -27492.98, 0.00, 0.00, 0.00, 0.00
6, 41640.14, 29149.87, 9531.30, 14395.98, 2876.42, 24920.29, -27468.53, 0.00, 0.00, 0.00, 0.00
7, 41627.57, 29134.96, 9536.06, 14396.40, 2864.13, 24840.37, -27446.51, 0.00, 0.00, 0.00, 0.00
8, 41664.88, 29159.88, 9552.15, 14429.97, 2919.27, 25025.41, -27503.55, 0.00, 0.00, 0.00, 0.00
9, 41688.21, 29179.06, 9546.34, 14419.24, 2937.71, 25083.87, -27524.47, 0.00, 0.00, 0.00, 0.00
10, 41635.78, 29143.50, 9531.92, 14387.68, 2906.02, 24914.55, -27444.52, 0.00, 0.19, 0.74, 0.63
11, 41583.12, 29098.82, 9529.64, 14388.80, 2874.30, 24817.77, -27402.81, 0.00, 0.00, 0.00, 0.00
12, 41585.40, 29094.91, 9551.19, 14426.06, 2918.87, 25001.54, -27420.47, 0.00, 0.00, 0.00, 0.00
13, 41584.52, 29088.16, 9554.99, 14427.20, 2942.03, 25134.38, -27461.15, 0.00, 0.00, 0.00, 0.00
14, 41542.13, 29055.28, 9531.81, 14396.58, 2894.42, 24987.21, -27471.01, 0.00, 0.00, 0.00, 0.00
15, 41478.78, 29005.21, 9516.30, 14373.92, 2859.37, 24829.93, -27435.40, 0.00, 0.00, 0.00, 0.00
16, 41470.09, 28992.11, 9526.74, 14398.01, 2891.33, 24930.20, -27456.23, 0.00, 0.00, 0.00, 0.00
17, 41485.53, 29006.53, 9535.41, 14430.60, 2935.95, 25124.86, -27456.23, 0.00, 0.00, 0.00, 0.00
18, 41449.77, 28978.28, 9518.80, 14396.85, 2895.69, 25018.64, -27472.91, 0.00, 0.00, 0.00, 0.00
19, 41393.13, 28933.97, 9504.50, 14364.91, 2843.66, 24825.03, -27461.80, 0.00, 0.00, 0.00, 0.00
20, 41383.43, 28926.40, 9517.17, 14393.54, 2871.44, 24889.02, -27466.58, 0.00, 0.18, 0.73, 0.63
21, 41410.65, 28950.16, 9526.42, 14421.12, 2921.24, 25088.11, -27517.88, 0.00, 0.00, 0.00, 0.00
22, 41391.70, 28942.60, 9509.37, 14401.43, 2897.93, 25046.27, -27517.28, 0.00, 0.00, 0.00, 0.00
23, 41345.27, 28905.63, 9491.02, 14368.17, 2837.06, 24846.85, -27486.74, 0.00, 0.00, 0.00, 0.00
24, 41334.43, 28897.52, 9498.73, 14385.52, 2851.37, 24865.60, -27485.22, 0.00, 0.00, 0.00, 0.00
25, 41378.06, 28932.79, 9512.63, 14424.00, 2915.45, 25073.83, -27513.48, 0.00, 0.00, 0.00, 0.00
26, 41400.46, 28950.80, 9504.83, 14415.27, 2908.07, 25077.74, -27495.53, 0.00, 0.00, 0.00, 0.00
27, 41380.21, 28935.07, 9492.20, 14388.67, 2851.55, 24891.64, -27468.26, 0.00, 0.00, 0.00, 0.00
28, 41369.86, 28927.38, 9497.43, 14392.47, 2854.16, 24850.20, -27460.93, 0.00, 0.00, 0.00, 0.00
29, 41405.84, 28955.39, 9512.46, 14428.39, 2910.73, 25053.18, -27511.08, 0.00, 0.17, 0.75, 0.61
30, 41427.50, 28972.15, 9505.15, 14418.91, 2913.19, 25100.45, -27519.82, 0.00, 0.00, 0.00, 0.00
31, 41407.75, 28958.27, 9494.57, 14387.95, 2859.17, 24909.99, -27474.76, 0.00, 0.00, 0.00, 0.00
32, 41390.71, 28940.90, 9493.99, 14381.13, 2836.17, 24831.80, -27489.22, 0.00, 0.00, 0.00, 0.00
33, 41427.32, 28966.38, 9509.50, 14414.21, 2890.28, 25010.39, -27479.21, 0.00, 0.00, 0.00, 0.00
34, 41462.33, 28996.31, 9510.04, 14421.64, 2908.12, 25117.10, -27505.32, 0.00, 0.00, 0.00, 0.00
35, 41446.30, 28988.24, 9501.68, 14400.69, 2880.13, 24986.54, -27474.65, 0.00, 0.00, 0.00, 0.00
36, 41423.55, 28968.93, 9502.69, 14398.77, 2855.90, 24873.38, -27455.00, 0.00, 0.00, 0.00, 0.00
37, 41452.63, 28992.80, 9525.44, 14438.62, 2902.22, 25027.96, -27436.56, 0.00, 0.00, 0.00, 0.00
38, 41486.42, 29019.63, 9529.17, 14441.73, 2933.58, 25158.32, -27471.39, 0.00, 0.00, 0.00, 0.00
39, 41469.93, 29009.84, 9510.02, 14401.18, 2889.81, 25009.90, -27478.43, 0.00, 0.16, 0.76, 0.61
40, 41438.75, 28983.60, 9501.75, 14379.79, 2840.66, 24838.67, -27488.04, 0.00, 0.00, 0.00, 0.00
41, 41445.70, 28983.91, 9510.96, 14409.57, 2865.07, 24941.60, -27526.51, 0.00, 0.00, 0.00, 0.00
42, 41483.50, 29013.66, 9516.68, 14428.23, 2917.22, 25121.66, -27510.84, 0.00, 0.00, 0.00, 0.00
43, 41482.73, 29016.65, 9505.95, 14396.49, 2889.75, 25024.95, -27500.69, 0.00, 0.00, 0.00, 0.00
44, 41443.17, 28983.93, 9493.12, 14361.46, 2833.71, 24831.76, -27487.97, 0.00, 0.00, 0.00, 0.00
45, 41449.95, 28988.87, 9508.57, 14389.38, 2859.32, 24892.06, -27499.51, 0.00, 0.00, 0.00, 0.00
46, 41498.40, 29030.51, 9525.06, 14430.91, 2921.40, 25116.83, -27540.05, 0.00, 0.00, 0.00, 0.00
47, 41492.57, 29024.37, 9504.77, 14400.04, 2894.46, 25066.38, -27546.87, 0.00, 0.00, 0.00, 0.00
48, 41449.74, 28989.90, 9488.76, 14359.05, 2827.25, 24842.31, -27544.43, 0.00, 0.00, 0.00, 0.00
49, 41448.05, 28988.76, 9505.50, 14383.24, 2836.17, 24853.87, -27508.56, 0.00, 0.16, 0.79, 0.60
50, 41492.14, 29023.47, 9526.72, 14430.20, 2900.21, 25097.97, -27494.77, 0.00, 0.00, 0.00, 0.00
51, 41508.89, 29040.88, 9524.91, 14424.27, 2911.27, 25106.69, -27472.55, 0.00, 0.00, 0.00, 0.00
52, 41472.16, 29015.78, 9509.26, 14390.52, 2858.16, 24904.40, -27477.47, 0.00, 0.00, 0.00, 0.00
53, 41454.95, 28999.13, 9510.91, 14393.27, 2841.42, 24857.24, -27462.49, 0.00, 0.00, 0.00, 0.00
54, 41491.18, 29026.98, 9531.59, 14436.99, 2901.21, 25078.84, -27474.56, 0.00, 0.00, 0.00, 0.00
55, 41507.99, 29043.30, 9524.66, 14431.96, 2912.12, 25142.43, -27491.19, 0.00, 0.00, 0.00, 0.00
56, 41478.45, 29021.53, 9506.80, 14392.98, 2859.53, 24949.44, -27485.87, 0.00, 0.00, 0.00, 0.00
57, 41452.52, 28995.53, 9505.97, 14383.88, 2838.29, 24846.27, -27469.29, 0.00, 0.00, 0.00, 0.00
58, 41478.60, 29009.39, 9520.28, 14414.10, 2886.79, 25013.37, -27492.02, 0.00, 0.00, 0.00, 0.00
59, 41506.36, 29033.22, 9520.90, 14425.01, 2911.34, 25119.31, -27524.43, 0.00, 0.16, 0.79, 0.61
60, 41487.38, 29025.15, 9510.40, 14401.43, 2872.91, 24980.62, -27485.25, 0.00, 0.00, 0.00, 0.00
61, 41451.58, 28994.17, 9502.93, 14382.65, 2827.25, 24838.26, -27498.66, 0.00, 0.00, 0.00, 0.00
62, 41468.27, 29005.19, 9519.07, 14419.29, 2873.16, 24987.33, -27498.84, 0.00, 0.00, 0.00, 0.00
63, 41506.14, 29037.46, 9529.08, 14438.24, 2920.77, 25143.28, -27494.92, 0.00, 0.00, 0.00, 0.00
64, 41491.05, 29025.64, 9514.89, 14398.37, 2890.57, 25003.71, -27468.30, 0.00, 0.00, 0.00, 0.00
65, 41456.61, 28998.15, 9502.15, 14377.51, 2839.03, 24829.10, -27480.04, 0.00, 0.00, 0.00, 0.00
66, 41461.66, 28999.35, 9510.42, 14404.89, 2852.84, 24934.13, -27534.26, 0.00, 0.00, 0.00, 0.00
67, 41504.93, 29033.04, 9530.65, 14429.70, 2920.57, 25115.31, -27508.07, 0.00, 0.00, 0.00, 0.00
68, 41506.50, 29035.47, 9524.53, 14410.01, 2913.35, 25051.28, -27429.77, 0.00, 0.15, 0.79, 0.61
69, 41464.63, 29004.63, 9508.50, 14384.87, 2847.72, 24874.47, -27462.56, 0.00, 0.00, 0.00, 0.00
70, 41457.68, 28996.43, 9516.34, 14401.72, 2848.91, 24901.07, -27509.05, 0.00, 0.00, 0.00, 0.00
71, 41499.97, 29027.38, 9533.29, 14434.55, 2911.52, 25111.83, -27509.72, 0.00, 0.00, 0.00, 0.00
72, 41509.73, 29037.69, 9531.32, 14421.86, 2913.95, 25083.71, -27490.01, 0.00, 0.00, 0.00, 0.00
73, 41469.39, 29006.42, 9516.28, 14388.20, 2868.82, 24888.55, -27435.49, 0.00, 0.00, 0.00, 0.00
74, 41457.10, 28994.99, 9517.91, 14403.04, 2861.51, 24899.62, -27450.04, 0.00, 0.00, 0.00, 0.00
75, 41494.71, 29024.52, 9532.55, 14437.57, 2915.00, 25105.54, -27490.05, 0.00, 0.00, 0.00, 0.00
76, 41512.46, 29041.22, 9530.29, 14428.01, 2919.65, 25117.95, -27482.59, 0.00, 0.00, 0.00, 0.00
77, 41475.16, 29015.18, 9516.10, 14385.38, 2867.28, 24914.91, -27446.20, 0.00, 0.00, 0.00, 0.00
78, 41457.28, 29000.56, 9518.31, 14388.06, 2855.55, 24858.11, -27438.42, 0.00, 0.14, 0.77, 0.60
79, 41489.13, 29021.37, 9530.40, 14427.13, 2909.44, 25058.90, -27467.39, 0.00, 0.00, 0.00, 0.00
80, 41510.52, 29041.04, 9528.91, 14431.81, 2934.47, 25134.22, -27486.77, 0.00, 0.00, 0.00, 0.00
81, 41479.65, 29020.36, 9512.32, 14397.00, 2884.60, 24955.99, -27481.80, 0.00, 0.00, 0.00, 0.00
82, 41447.69, 28991.31, 9508.21, 14389.49, 2850.63, 24844.16, -27476.91, 0.00, 0.00, 0.00, 0.00
83, 41468.36, 29002.71, 9521.82, 14419.74, 2895.91, 25001.61, -27510.17, 0.00, 0.00, 0.00, 0.00
84, 41497.93, 29025.75, 9521.73, 14421.50, 2922.54, 25109.41, -27563.77, 0.00, 0.00, 0.00, 0.00
85, 41481.55, 29017.01, 9508.36, 14393.58, 2868.98, 24968.62, -27522.86, 0.00, 0.00, 0.00, 0.00
86, 41459.60, 29001.92, 9510.64, 14396.13, 2852.42, 24873.65, -27409.50, 0.00, 0.00, 0.00, 0.00
87, 41471.96, 29010.82, 9526.72, 14431.34, 2898.98, 25017.84, -27412.87, 0.00, 0.00, 0.00, 0.00
88, 41505.15, 29037.57, 9531.57, 14440.99, 2940.26, 25157.29, -27450.89, 0.00, 0.13, 0.78, 0.60
89, 41490.38, 29028.86, 9513.89, 14403.26, 2901.37, 25012.14, -27502.52, 0.00, 0.00, 0.00, 0.00
90, 41445.34, 28992.49, 9502.08, 14374.99, 2849.94, 24828.50, -27465.22, 0.00, 0.00, 0.00, 0.00
91, 41451.02, 28994.79, 9516.99, 14404.22, 2873.52, 24929.97, -27443.81, 0.00, 0.00, 0.00, 0.00
92, 41491.09, 29022.53, 9528.12, 14428.81, 2921.10, 25134.69, -27490.92, 0.00, 0.00, 0.00, 0.00
93, 41483.74, 29019.22, 9509.50, 14399.53, 2885.59, 25051.37, -27523.91, 0.00, 0.00, 0.00, 0.00
94, 41446.75, 28993.12, 9497.55, 14373.02, 2830.27, 24857.64, -27512.69, 0.00, 0.00, 0.00, 0.00
95, 41445.72, 28992.65, 9513.86, 14395.89, 2855.08, 24894.23, -27476.35, 0.00, 0.00, 0.00, 0.00
96, 41480.95, 29017.55, 9524.97, 14421.64, 2919.54, 25087.28, -27465.96, 0.00, 0.00, 0.00, 0.00
97, 41483.61, 29020.92, 9511.07, 14398.75, 2908.77, 25042.02, -27491.73, 0.00, 0.00, 0.00, 0.00
98, 41450.14, 28997.99, 9499.98, 14372.26, 2852.84, 24855.16, -27493.27, 0.00, 0.14, 0.78, 0.60
99, 41433.63, 28983.13, 9498.60, 14379.37, 2844.75, 24839.25, -27497.65, 0.00, 0.00, 0.00, 0.00
100, 41471.71, 29013.79, 9514.02, 14422.22, 2904.16, 25046.11, -27524.07, 0.00, 0.00, 0.00, 0.00
101, 41482.20, 29022.42, 9502.26, 14403.33, 2895.98, 25048.73, -27570.25, 0.00, 0.00, 0.00, 0.00
102, 41454.62, 29004.32, 9494.48, 14379.30, 2840.59, 24890.63, -27525.30, 0.00, 0.00, 0.00, 0.00
103, 41445.68, 28997.92, 9501.61, 14394.61, 2828.34, 24849.30, -27473.13, 0.00, 0.00, 0.00, 0.00
104, 41488.30, 29029.35, 9524.28, 14437.06, 2892.78, 25029.10, -27474.47, 0.00, 0.00, 0.00, 0.00
105, 41514.63, 29053.40, 9523.12, 14436.70, 2902.33, 25106.95, -27528.47, 0.00, 0.00, 0.00, 0.00
106, 41472.97, 29021.93, 9488.34, 14382.43, 2815.76, 24906.88, -27572.71, 0.00, 0.00, 0.00, 0.00
107, 41445.92, 29001.86, 9482.30, 14369.67, 2791.78, 24772.84, -27528.23, 0.00, 0.00, 0.00, 0.00
108, 41475.88, 29021.41, 9507.18, 14409.70, 2859.28, 24940.93, -27516.74, 0.00, 0.15, 0.79, 0.60
109, 41491.45, 29025.71, 9511.76, 14418.80, 2902.51, 25093.43, -27486.54, 0.00, 0.00, 0.00, 0.00
110, 41459.27, 28995.26, 9490.13, 14373.33, 2861.34, 24939.72, -27497.34, 0.00, 0.00, 0.00, 0.00
111, 41423.10, 28964.80, 9480.31, 14343.05, 2811.49, 24764.97, -27511.42, 0.00, 0.00, 0.00, 0.00
112, 41437.18, 28972.35, 9496.65, 14372.48, 2847.46, 24887.84, -27519.87, 0.00, 0.00, 0.00, 0.00
113, 41473.77, 29001.86, 9501.55, 14393.79, 2893.52, 25063.39, -27547.16, 0.00, 0.00, 0.00, 0.00
114, 41455.42, 28992.13, 9481.79, 14356.73, 2861.51, 24937.97, -27551.50, 0.00, 0.00, 0.00, 0.00
115, 41416.02, 28964.15, 9474.43, 14338.44, 2818.78, 24760.28, -27509.92, 0.00, 0.00, 0.00, 0.00
116, 41423.48, 28966.94, 9488.05, 14373.15, 2847.05, 24864.62, -27515.02, 0.00, 0.00, 0.00, 0.00
117, 41467.58, 29004.07, 9504.05, 14411.22, 2906.26, 25090.46, -27524.41, 0.00, 0.16, 0.79, 0.61
118, 41465.79, 29007.04, 9489.54, 14390.75, 2878.93, 25018.73, -27530.84, 0.00, 0.00, 0.00, 0.00
119, 41429.70, 28979.57, 9475.49, 14365.76, 2813.57, 24820.87, -27552.55, 0.00, 0.00, 0.00, 0.00
120, 41432.80, 28979.93, 9493.88, 14388.15, 2833.46, 24855.05, -27500.49, 0.00, 0.00, 0.00, 0.00
121, 41478.04, 29015.20, 9515.12, 14428.18, 2899.49, 25091.02, -27516.61, 0.00, 0.00, 0.00, 0.00
122, 41483.41, 29018.87, 9498.13, 14405.65, 2882.99, 25063.41, -27548.21, 0.00, 0.00, 0.00, 0.00
123, 41450.66, 28992.04, 9486.84, 14370.61, 2840.77, 24856.97, -27479.86, 0.00, 0.00, 0.00, 0.00
124, 41430.66, 28977.83, 9490.62, 14376.28, 2838.67, 24823.20, -27508.04, 0.00, 0.00, 0.00, 0.00
125, 41465.05, 29003.98, 9503.04, 14413.59, 2890.91, 25026.00, -27511.80, 0.00, 0.00, 0.00, 0.00
126, 41481.89, 29020.34, 9493.19, 14404.38, 2881.74, 25067.90, -27530.17, 0.00, 0.00, 0.00, 0.00
127, 41454.64, 29001.74, 9482.86, 14373.09, 2841.96, 24882.03, -27480.98, 0.00, 0.14, 0.78, 0.62
128, 41434.50, 28982.79, 9489.66, 14376.02, 2838.25, 24817.39, -27461.84, 0.00, 0.00, 0.00, 0.00
129, 41463.96, 29003.15, 9504.97, 14411.73, 2881.88, 25004.61, -27535.81, 0.00, 0.00, 0.00, 0.00
130, 41495.21, 29030.09, 9506.78, 14411.60, 2909.03, 25083.98, -27526.78, 0.00, 0.00, 0.00, 0.00
131, 41468.83, 29011.74, 9492.96, 14369.58, 2862.61, 24896.65, -27491.46, 0.00, 0.00, 0.00, 0.00
132, 41439.04, 28986.79, 9487.11, 14355.41, 2826.71, 24767.63, -27476.39, 0.00, 0.00, 0.00, 0.00
133, 41461.99, 29003.42, 9505.10, 14404.71, 2876.42, 24956.26, -27487.55, 0.00, 0.00, 0.00, 0.00
134, 41497.67, 29036.46, 9513.82, 14429.19, 2918.71, 25115.00, -27488.76, 0.00, 0.00, 0.00, 0.00
135, 41480.79, 29027.72, 9501.19, 14394.95, 2876.76, 24958.72, -27498.81, 0.00, 0.00, 0.00, 0.00
136, 41453.61, 29008.94, 9497.84, 14379.95, 2831.74, 24802.21, -27499.95, 0.00, 0.00, 0.00, 0.00
137, 41472.25, 29020.90, 9519.67, 14422.71, 2876.51, 24934.51, -27480.11, 0.00, 0.14, 0.76, 0.60
138, 41509.16, 29049.78, 9531.41, 14443.67, 2927.65, 25109.55, -27535.65, 0.00, 0.00, 0.00, 0.00
139, 41504.04, 29048.35, 9517.24, 14414.24, 2893.08, 24988.51, -27536.12, 0.00, 0.00, 0.00, 0.00
140, 41476.97, 29026.73, 9514.00, 14401.14, 2855.44, 24825.17, -27456.79, 0.00, 0.00, 0.00, 0.00
141, 41479.61, 29029.97, 9534.52, 14433.33, 2882.17, 24915.33, -27444.68, 0.00, 0.00, 0.00, 0.00
142, 41511.39, 29057.71, 9541.49, 14456.50, 2929.17, 25116.01, -27497.25, 0.00, 0.00, 0.00, 0.00
143, 41510.34, 29060.53, 9523.23, 14431.47, 2896.76, 25051.14, -27558.22, 0.00, 0.00, 0.00, 0.00
144, 41481.73, 29043.25, 9522.78, 14417.90, 2863.66, 24874.76, -27450.06, 0.00, 0.00, 0.00, 0.00
145, 41480.03, 29040.12, 9539.23, 14442.65, 2892.27, 24898.26, -27434.11, 0.00, 0.00, 0.00, 0.00
146, 41522.86, 29070.92, 9552.89, 14475.08, 2951.35, 25102.86, -27486.90, 0.00, 0.00, 0.00, 0.00
147, 41537.77, 29083.93, 9548.06, 14460.46, 2946.94, 25098.84, -27463.77, 0.00, 0.14, 0.78, 0.59
148, 41502.36, 29055.46, 9533.91, 14423.60, 2882.66, 24898.14, -27456.48, 0.00, 0.00, 0.00, 0.00
149, 41484.01, 29038.11, 9536.73, 14427.36, 2866.79, 24849.19, -27468.82, 0.00, 0.00, 0.00, 0.00
150, 41523.10, 29065.85, 9561.63, 14477.54, 2941.96, 25076.00, -27430.66, 0.00, 0.00, 0.00, 0.00
151, 41543.80, 29083.84, 9554.39, 14472.91, 2952.87, 25132.21, -27449.71, 0.00, 0.00, 0.00, 0.00
152, 41509.02, 29056.95, 9535.77, 14430.55, 2895.22, 24935.90, -27452.68, 0.00, 0.00, 0.00, 0.00
153, 41481.17, 29031.23, 9533.00, 14421.43, 2866.41, 24843.81, -27447.49, 0.00, 0.00, 0.00, 0.00
154, 41510.16, 29048.75, 9550.43, 14461.09, 2910.93, 25037.30, -27488.89, 0.00, 0.00, 0.00, 0.00
155, 41532.87, 29062.70, 9546.41, 14453.15, 2937.65, 25119.13, -27532.19, 0.00, 0.00, 0.00, 0.00
156, 41502.25, 29040.95, 9523.03, 14415.65, 2881.97, 24938.38, -27506.99, 0.00, 0.00, 0.00, 0.00
157, 41468.39, 29015.67, 9516.34, 14412.27, 2840.41, 24828.34, -27480.33, 0.00, 0.14, 0.79, 0.59
158, 41489.93, 29030.67, 9526.96, 14450.22, 2881.30, 24985.88, -27474.18, 0.00, 0.00, 0.00, 0.00
159, 41524.98, 29060.57, 9532.30, 14459.37, 2930.51, 25116.39, -27485.40, 0.00, 0.00, 0.00, 0.00
160, 41509.20, 29055.21, 9519.54, 14430.31, 2901.66, 24996.09, -27462.25, 0.00, 0.00, 0.00, 0.00
161, 41469.37, 29021.97, 9506.82, 14406.06, 2844.37, 24829.28, -27481.76, 0.00, 0.00, 0.00, 0.00
162, 41474.51, 29019.58, 9518.74, 14427.45, 2865.45, 24906.86, -27533.79, 0.00, 0.00, 0.00, 0.00
163, 41506.16, 29039.18, 9519.36, 14441.04, 2908.48, 25089.03, -27547.72, 0.00, 0.00, 0.00, 0.00
164, 41498.29, 29034.60, 9504.27, 14407.84, 2882.17, 25002.41, -27506.75, 0.00, 0.00, 0.00, 0.00
165, 41462.39, 29006.37, 9496.34, 14383.82, 2833.66, 24813.32, -27495.06, 0.00, 0.00, 0.00, 0.00
166, 41468.25, 29007.02, 9510.73, 14411.35, 2852.13, 24868.93, -27471.01, 0.00, 0.14, 0.79, 0.60
167, 41510.45, 29040.26, 9522.80, 14446.96, 2907.40, 25088.18, -27496.47, 0.00, 0.00, 0.00, 0.00
168, 41504.19, 29042.09, 9504.81, 14424.23, 2886.93, 25041.02, -27528.23, 0.00, 0.00, 0.00, 0.00
169, 41458.86, 29007.00, 9484.69, 14387.01, 2827.18, 24825.39, -27543.03, 0.00, 0.00, 0.00, 0.00
170, 41448.58, 28996.56, 9492.43, 14403.11, 2827.36, 24827.54, -27515.24, 0.00, 0.00, 0.00, 0.00
171, 41491.25, 29029.28, 9512.77, 14445.26, 2899.87, 25066.94, -27483.90, 0.00, 0.00, 0.00, 0.00
172, 41506.25, 29040.46, 9501.93, 14424.00, 2898.60, 25066.65, -27520.85, 0.00, 0.00, 0.00, 0.00
173, 41468.18, 29013.21, 9484.22, 14386.21, 2839.32, 24858.00, -27508.74, 0.00, 0.00, 0.00, 0.00
174, 41454.80, 29003.47, 9490.51, 14399.87, 2830.18, 24823.47, -27490.61, 0.00, 0.00, 0.00, 0.00
175, 41490.38, 29031.50, 9511.90, 14443.43, 2891.15, 25043.52, -27487.88, 0.00, 0.00, 0.00, 0.00
176, 41504.91, 29047.57, 9504.90, 14435.94, 2899.16, 25097.79, -27530.31, 0.00, 0.15, 0.78, 0.61
177, 41474.82, 29027.05, 9492.43, 14399.44, 2852.44, 24902.97, -27503.06, 0.00, 0.00, 0.00, 0.00
178, 41451.15, 29008.85, 9496.54, 14401.90, 2836.73, 24810.59, -27462.29, 0.00, 0.00, 0.00, 0.00
179, 41479.67, 29028.28, 9512.14, 14443.32, 2888.87, 25000.04, -27482.27, 0.00, 0.00, 0.00, 0.00
180, 41508.44, 29050.61, 9511.09, 14442.87, 2914.02, 25108.52, -27498.57, 0.00, 0.00, 0.00, 0.00
181, 41484.10, 29030.82, 9498.51, 14408.74, 2874.12, 24952.08, -27491.01, 0.00, 0.00, 0.00, 0.00
182, 41451.78, 29004.43, 9496.09, 14392.94, 2835.99, 24802.77, -27493.56, 0.00, 0.00, 0.00, 0.00
183, 41476.43, 29020.39, 9515.50, 14426.13, 2876.58, 24947.52, -27487.24, 0.00, 0.00, 0.00, 0.00
184, 41519.32, 29054.50, 9529.49, 14448.23, 2931.39, 25112.09, -27510.41, 0.00, 0.00, 0.00, 0.00
185, 41502.65, 29049.69, 9518.13, 14419.45, 2901.52, 24993.25, -27483.84, 0.00, 0.00, 0.00, 0.00
186, 41461.70, 29016.74, 9507.81, 14393.20, 2856.06, 24815.76, -27471.28, 0.00, 0.15, 0.78, 0.61
187, 41472.48, 29020.92, 9520.90, 14430.53, 2880.74, 24919.24, -27481.27, 0.00, 0.00, 0.00, 0.00
188, 41518.52, 29053.62, 9531.97, 14457.98, 2926.89, 25120.48, -27496.02, 0.00, 0.00, 0.00, 0.00
189, 41526.03, 29060.33, 9525.84, 14438.87, 2916.97, 25032.25, -27486.14, 0.00, 0.00, 0.00, 0.00
190, 41491.25, 29032.43, 9518.92, 14409.66, 2878.03, 24856.68, -27455.96, 0.00, 0.00, 0.00, 0.00
191, 41487.81, 29031.52, 9531.14, 14434.04, 2889.77, 24906.06, -27450.38, 0.00, 0.00, 0.00, 0.00
192, 41527.86, 29064.51, 9549.98, 14469.18, 2952.46, 25121.88, -27444.63, 0.00, 0.00, 0.00, 0.00
193, 41534.84, 29072.82, 9534.81, 14449.87, 2936.68, 25091.91, -27462.04, 0.00, 0.00, 0.00, 0.00
194, 41495.77, 29040.19, 9517.39, 14415.31, 2878.95, 24893.83, -27464.57, 0.00, 0.00, 0.00, 0.00
195, 41483.09, 29028.99, 9524.28, 14427.07, 2878.17, 24877.83, -27454.31, 0.00, 0.00, 0.00, 0.00
196, 41521.29, 29057.67, 9540.19, 14471.61, 2939.50, 25089.32, -27462.04, 0.00, 0.15, 0.76, 0.61
197, 41533.25, 29068.20, 9531.59, 14462.14, 2942.45, 25127.29, -27457.66, 0.00, 0.00, 0.00, 0.00
198, 41497.44, 29039.94, 9514.58, 14421.23, 2882.93, 24926.06, -27473.47, 0.00, 0.00, 0.00, 0.00
199, 41473.57, 29019.54, 9515.88, 14424.65, 2865.07, 24851.96, -27466.22, 0.00, 0.00, 0.00, 0.00
200, 41501.00, 29038.80, 9533.47, 14457.40, 2925.75, 25027.49, -27481.89, 0.00, 0.00, 0.00, 0.00
201, 41529.05, 29059.70, 9536.42, 14460.57, 2938.92, 25116.68, -27479.55, 0.00, 0.00, 0.00, 0.00
202, 41498.05, 29032.70, 9522.65, 14419.29, 2891.51, 24954.29, -27464.39, 0.00, 0.00, 0.00, 0.00
203, 41459.54, 29000.05, 9515.52, 14402.55, 2858.41, 24831.42, -27486.36, 0.00, 0.00, 0.00, 0.00
204, 41477.15, 29011.87, 9527.41, 14435.38, 2902.35, 24992.29, -27489.89, 0.00, 0.00, 0.00, 0.00
205, 41510.18, 29036.55, 9529.78, 14443.09, 2932.64, 25122.26, -27506.32, 0.00, 0.14, 0.77, 0.60
206, 41490.71, 29023.81, 9515.16, 14410.71, 2898.64, 24964.91, -27497.41, 0.00, 0.00, 0.00, 0.00
207, 41450.04, 28992.11, 9504.83, 14383.53, 2855.86, 24794.28, -27479.41, 0.00, 0.00, 0.00, 0.00
208, 41463.80, 29000.45, 9519.50, 14414.17, 2887.04, 24950.54, -27453.69, 0.00, 0.00, 0.00, 0.00
209, 41503.81, 29035.65, 9528.77, 14437.73, 2930.74, 25125.57, -27459.65, 0.00, 0.00, 0.00, 0.00
210, 41488.17, 29025.44, 9507.83, 14401.92, 2891.60, 25001.45, -27491.59, 0.00, 0.00, 0.00, 0.00
211, 41446.19, 28989.52, 9488.70, 14368.62, 2829.53, 24810.21, -27512.43, 0.00, 0.00, 0.00, 0.00
212, 41438.46, 28980.33, 9493.37, 14380.26, 2841.55, 24862.13, -27537.66, 0.00, 0.00, 0.00, 0.00
213, 41478.46, 29009.30, 9503.80, 14409.52, 2898.37, 25065.31, -27554.85, 0.00, 0.00, 0.00, 0.00
214, 41479.79, 29012.52, 9491.87, 14392.44, 2877.88, 25013.41, -27554.11, 0.00, 0.00, 0.00, 0.00
215, 41439.60, 28982.95, 9481.45, 14356.88, 2823.29, 24810.39, -27517.59, 0.00, 0.14, 0.78, 0.60
216, 41434.90, 28974.74, 9490.39, 14373.31, 2832.61, 24832.88, -27500.31, 0.00, 0.00, 0.00, 0.00
