%OpenBCI Raw EEG Data
%
%Sample Rate = 250.0 Hz
%First Column = SampleIndex
%Other Columns = EEG data in microvolts followed by Accel Data (in G) interleaved with Aux Data
0, 48825.62, 48922.80, -11802.17, -5472.51, -4606.85, 50542.52, -11247.24, 0.00, 0.10, 0.95, 0.25
1, 49102.22, 49012.34, -11796.36, -5482.23, -4569.57, 51146.11, -11263.60, 0.00, 0.00, 0.00, 0.00
2, 49361.28, 49070.32, -11842.76, -5537.44, -4626.68, 51765.97, -11316.73, 0.00, 0.00, 0.00, 0.00
3, 49095.25, 48987.31, -11852.17, -5533.60, -4655.67, 51146.78, -11301.20, 0.00, 0.00, 0.00, 0.00
4, 48829.20, 48912.81, -11827.85, -5499.91, -4626.27, 50540.73, -11272.45, 0.00, 0.00, 0.00, 0.00
5, 49022.71, 48978.21, -11802.77, -5478.95, -4584.03, 50947.80, -11255.49, 0.00, 0.00, 0.00, 0.00
6, 49368.88, 49074.57, -11828.86, -5516.95, -4616.62, 51743.48, -11292.15, 0.00, 0.09, 0.96, 0.25
7, 49158.91, 49015.50, -11841.39, -5524.32, -4646.39, 51273.09, -11296.21, 0.00, 0.00, 0.00, 0.00
8, 48853.63, 48927.07, -11819.02, -5493.52, -4622.47, 50580.23, -11268.48, 0.00, 0.00, 0.00, 0.00
9, 48934.16, 48957.80, -11788.40, -5471.64, -4582.93, 50774.22, -11273.93, 0.00, 0.00, 0.00, 0.00
10, 49341.27, 49072.89, -11810.46, -5493.10, -4592.08, 51692.97, -11307.61, 0.00, 0.00, 0.00, 0.00
11, 49216.57, 49030.74, -11844.93, -5514.06, -4640.71, 51428.75, -11310.18, 0.00, 0.00, 0.00, 0.00
12, 48892.00, 48932.57, -11828.39, -5481.99, -4632.91, 50670.87, -11284.21, 0.00, 0.00, 0.00, 0.00
13, 48883.78, 48939.23, -11809.28, -5463.12, -4602.13, 50660.14, -11280.95, 0.00, 0.00, 0.00, 0.00
14, 49301.46, 49066.41, -11819.11, -5483.98, -4598.20, 51588.65, -11305.71, 0.00, 0.00, 0.00, 0.00
15, 49281.75, 49062.17, -11847.07, -5502.13, -4653.32, 51559.28, -11300.13, 0.00, 0.00, 0.00, 0.00
16, 48956.44, 48963.80, -11826.20, -5475.93, -4643.95, 50784.37, -11281.68, 0.00, 0.11, 0.96, 0.26
17, 48854.16, 48934.96, -11805.72, -5452.48, -4605.76, 50584.61, -11256.25, 0.00, 0.00, 0.00, 0.00
18, 49249.43, 49049.80, -11806.77, -5472.87, -4585.73, 51452.39, -11295.61, 0.00, 0.00, 0.00, 0.00
19, 49328.76, 49073.63, -11836.90, -5505.32, -4638.23, 51654.61, -11325.49, 0.00, 0.00, 0.00, 0.00
20, 49007.90, 48981.54, -11821.81, -5472.80, -4646.01, 50898.68, -11319.42, 0.00, 0.00, 0.00, 0.00
21, 48838.58, 48935.99, -11801.36, -5436.37, -4610.54, 50542.57, -11290.58, 0.00, 0.00, 0.00, 0.00
22, 49182.53, 49045.49, -11791.64, -5439.43, -4577.17, 51286.10, -11244.47, 0.00, 0.00, 0.00, 0.00
23, 49369.37, 49094.40, -11831.14, -5482.01, -4633.56, 51744.89, -11273.55, 0.00, 0.00, 0.00, 0.00
24, 49075.33, 49006.69, -11827.38, -5460.11, -4640.07, 51057.08, -11264.52, 0.00, 0.00, 0.00, 0.00
25, 48845.80, 48946.16, -11795.28, -5438.40, -4596.01, 50543.77, -11249.32, 0.00, 0.00, 0.00, 0.00
26, 49096.68, 49021.35, -11778.74, -5447.92, -4558.33, 51090.79, -11283.29, 0.00, 0.11, 0.95, 0.26
27, 49381.35, 49089.04, -11816.12, -5493.30, -4605.17, 51762.19, -11317.11, 0.00, 0.00, 0.00, 0.00
28, 49133.58, 49012.66, -11828.83, -5495.65, -4632.09, 51173.07, -11295.30, 0.00, 0.00, 0.00, 0.00
29, 48850.38, 48930.18, -11793.88, -5463.82, -4599.12, 50557.59, -11263.51, 0.00, 0.00, 0.00, 0.00
30, 49012.01, 48989.34, -11767.54, -5435.16, -4557.34, 50924.34, -11262.80, 0.00, 0.00, 0.00, 0.00
31, 49372.30, 49083.82, -11814.51, -5480.16, -4585.55, 51744.31, -11313.67, 0.00, 0.00, 0.00, 0.00
32, 49186.89, 49019.90, -11835.85, -5501.37, -4630.81, 51323.14, -11287.16, 0.00, 0.00, 0.00, 0.00
33, 48875.42, 48925.20, -11815.44, -5476.33, -4622.14, 50614.65, -11273.33, 0.00, 0.00, 0.00, 0.00
34, 48930.45, 48945.94, -11791.91, -5459.41, -4583.54, 50743.55, -11292.01, 0.00, 0.00, 0.00, 0.00
35, 49344.11, 49057.52, -11806.84, -5491.85, -4588.86, 51653.85, -11327.28, 0.00, 0.00, 0.00, 0.00
36, 49243.53, 49023.48, -11836.32, -5515.14, -4642.50, 51434.96, -11320.24, 0.00, 0.10, 0.95, 0.26
37, 48916.32, 48930.27, -11816.16, -5476.47, -4626.72, 50671.02, -11256.09, 0.00, 0.00, 0.00, 0.00
38, 48873.65, 48926.43, -11797.41, -5449.73, -4594.80, 50613.27, -11244.02, 0.00, 0.00, 0.00, 0.00
39, 49290.82, 49052.20, -11809.25, -5473.52, -4587.16, 51539.59, -11317.63, 0.00, 0.00, 0.00, 0.00
40, 49298.02, 49048.73, -11843.27, -5508.36, -4634.32, 51574.68, -11322.43, 0.00, 0.00, 0.00, 0.00
41, 48965.23, 48947.66, -11828.36, -5487.02, -4635.71, 50795.77, -11270.60, 0.00, 0.00, 0.00, 0.00
42, 48842.32, 48921.84, -11798.57, -5456.78, -4606.74, 50543.91, -11264.74, 0.00, 0.00, 0.00, 0.00
43, 49221.78, 49042.83, -11799.20, -5462.01, -4581.86, 51377.29, -11305.53, 0.00, 0.00, 0.00, 0.00
44, 49333.50, 49065.86, -11833.73, -5488.29, -4633.56, 51664.31, -11326.63, 0.00, 0.00, 0.00, 0.00
45, 49009.30, 48965.23, -11825.50, -5479.06, -4641.34, 50921.12, -11279.16, 0.00, 0.00, 0.00, 0.00
46, 48811.76, 48917.84, -11806.93, -5456.37, -4602.05, 50508.08, -11241.74, 0.00, 0.10, 0.96, 0.27
47, 49130.79, 49014.54, -11802.21, -5452.42, -4569.93, 51193.45, -11282.51, 0.00, 0.00, 0.00, 0.00
48, 49349.34, 49059.89, -11842.36, -5502.69, -4621.85, 51716.53, -11312.98, 0.00, 0.00, 0.00, 0.00
49, 49065.52, 48972.69, -11841.55, -5494.53, -4635.91, 51063.56, -11271.92, 0.00, 0.00, 0.00, 0.00
50, 48818.67, 48904.25, -11817.30, -5460.78, -4607.83, 50531.61, -11239.78, 0.00, 0.00, 0.00, 0.00
51, 49046.34, 48974.08, -11798.84, -5451.88, -4574.17, 51022.95, -11267.51, 0.00, 0.00, 0.00, 0.00
52, 49360.32, 49053.27, -11825.28, -5499.80, -4611.14, 51742.36, -11322.05, 0.00, 0.00, 0.00, 0.00
53, 49130.99, 48982.08, -11843.23, -5501.46, -4638.01, 51213.30, -11297.93, 0.00, 0.00, 0.00, 0.00
54, 48840.28, 48897.14, -11824.12, -5472.71, -4615.25, 50573.64, -11249.43, 0.00, 0.00, 0.00, 0.00
55, 48961.92, 48934.40, -11808.69, -5467.55, -4587.65, 50850.80, -11278.96, 0.00, 0.10, 0.95, 0.26
56, 49344.47, 49040.66, -11825.84, -5503.42, -4601.71, 51709.98, -11318.03, 0.00, 0.00, 0.00, 0.00
57, 49189.57, 48999.52, -11843.16, -5503.27, -4644.18, 51390.41, -11273.37, 0.00, 0.00, 0.00, 0.00
58, 48870.93, 48910.24, -11821.14, -5464.42, -4629.74, 50672.95, -11241.83, 0.00, 0.00, 0.00, 0.00
59, 48887.69, 48920.77, -11797.65, -5451.57, -4594.22, 50724.22, -11251.06, 0.00, 0.00, 0.00, 0.00
60, 49296.23, 49036.95, -11818.01, -5485.79, -4597.91, 51630.43, -11299.05, 0.00, 0.00, 0.00, 0.00
61, 49243.71, 49017.11, -11841.82, -5509.03, -4646.44, 51512.16, -11296.55, 0.00, 0.00, 0.00, 0.00
62, 48910.51, 48916.63, -11832.88, -5488.56, -4640.49, 50759.18, -11273.50, 0.00, 0.00, 0.00, 0.00
63, 48833.13, 48902.69, -11817.46, -5468.51, -4604.66, 50623.97, -11267.22, 0.00, 0.00, 0.00, 0.00
64, 49243.55, 49029.09, -11814.91, -5488.49, -4582.38, 51502.53, -11285.71, 0.00, 0.00, 0.00, 0.00
65, 49288.30, 49036.91, -11849.04, -5522.24, -4636.11, 51609.59, -11292.01, 0.00, 0.09, 0.95, 0.26
66, 48960.96, 48936.98, -11842.65, -5504.21, -4649.14, 50852.32, -11272.41, 0.00, 0.00, 0.00, 0.00
67, 48812.70, 48911.34, -11815.11, -5471.93, -4612.39, 50545.09, -11253.03, 0.00, 0.00, 0.00, 0.00
68, 49182.91, 49030.36, -11804.36, -5486.28, -4579.34, 51329.62, -11274.42, 0.00, 0.00, 0.00, 0.00
69, 49334.43, 49067.20, -11840.99, -5531.54, -4632.71, 51681.43, -11313.27, 0.00, 0.00, 0.00, 0.00
70, 49028.53, 48977.01, -11836.19, -5504.50, -4648.29, 50968.39, -11280.92, 0.00, 0.00, 0.00, 0.00
71, 48818.78, 48918.00, -11815.44, -5475.08, -4627.24, 50527.93, -11250.46, 0.00, 0.00, 0.00, 0.00
72, 49103.14, 49003.76, -11803.87, -5491.44, -4583.16, 51161.44, -11276.70, 0.00, 0.00, 0.00, 0.00
73, 49346.57, 49064.94, -11834.29, -5528.44, -4621.51, 51735.21, -11303.86, 0.00, 0.00, 0.00, 0.00
74, 49081.88, 48982.93, -11834.87, -5518.96, -4645.50, 51124.61, -11272.63, 0.00, 0.00, 0.00, 0.00
75, 48819.20, 48910.06, -11811.98, -5487.49, -4615.41, 50551.29, -11258.37, 0.00, 0.09, 0.96, 0.26
76, 49008.39, 48970.28, -11805.10, -5488.52, -4573.81, 50964.34, -11302.54, 0.00, 0.00, 0.00, 0.00
77, 49346.35, 49063.66, -11833.28, -5525.89, -4609.89, 51722.38, -11310.67, 0.00, 0.00, 0.00, 0.00
78, 49141.67, 48999.40, -11848.01, -5527.36, -4643.28, 51254.05, -11285.10, 0.00, 0.00, 0.00, 0.00
79, 48838.07, 48910.11, -11827.54, -5499.65, -4625.96, 50590.20, -11253.28, 0.00, 0.00, 0.00, 0.00
80, 48939.95, 48950.95, -11805.65, -5481.59, -4589.95, 50814.10, -11267.20, 0.00, 0.00, 0.00, 0.00
81, 49335.89, 49065.27, -11822.51, -5510.73, -4603.25, 51688.00, -11326.86, 0.00, 0.00, 0.00, 0.00
82, 49208.97, 49024.71, -11843.12, -5523.29, -4643.82, 51400.32, -11304.48, 0.00, 0.00, 0.00, 0.00
83, 48885.27, 48925.93, -11823.38, -5502.15, -4628.71, 50663.89, -11270.00, 0.00, 0.00, 0.00, 0.00
84, 48879.62, 48928.32, -11815.06, -5491.87, -4594.87, 50679.81, -11277.71, 0.00, 0.00, 0.00, 0.00
85, 49299.52, 49057.07, -11824.88, -5506.33, -4589.77, 51604.84, -11287.54, 0.00, 0.09, 0.96, 0.27
86, 49265.95, 49039.14, -11849.15, -5529.24, -4638.86, 51534.36, -11290.33, 0.00, 0.00, 0.00, 0.00
87, 48933.33, 48932.95, -11838.15, -5508.83, -4634.23, 50775.90, -11258.51, 0.00, 0.00, 0.00, 0.00
88, 48835.12, 48912.75, -11812.25, -5481.70, -4601.15, 50599.83, -11264.43, 0.00, 0.00, 0.00, 0.00
89, 49236.80, 49036.35, -11802.82, -5493.10, -4583.16, 51474.34, -11295.43, 0.00, 0.00, 0.00, 0.00
90, 49304.28, 49048.87, -11846.69, -5528.30, -4638.25, 51648.98, -11303.52, 0.00, 0.00, 0.00, 0.00
91, 48978.73, 48951.30, -11838.18, -5507.78, -4633.49, 50899.12, -11268.14, 0.00, 0.00, 0.00, 0.00
92, 48805.99, 48910.40, -11817.17, -5485.77, -4608.82, 50558.93, -11249.95, 0.00, 0.00, 0.00, 0.00
93, 49154.03, 49008.93, -11806.95, -5505.37, -4586.11, 51296.92, -11285.22, 0.00, 0.00, 0.00, 0.00
94, 49338.03, 49044.91, -11841.46, -5534.92, -4639.46, 51714.71, -11311.30, 0.00, 0.00, 0.00, 0.00
95, 49053.54, 48968.20, -11833.73, -5507.49, -4642.21, 51038.95, -11253.52, 0.00, 0.10, 0.95, 0.27
96, 48823.67, 48909.73, -11814.15, -5480.20, -4614.09, 50567.11, -11214.36, 0.00, 0.00, 0.00, 0.00
97, 49092.88, 49005.26, -11790.12, -5471.91, -4580.25, 51135.16, -11244.45, 0.00, 0.00, 0.00, 0.00
98, 49372.72, 49085.68, -11821.66, -5515.54, -4612.51, 51754.37, -11292.95, 0.00, 0.00, 0.00, 0.00
99, 49125.20, 49016.34, -11837.95, -5517.95, -4637.58, 51165.67, -11270.13, 0.00, 0.00, 0.00, 0.00
100, 48851.14, 48945.00, -11811.71, -5478.79, -4617.92, 50578.57, -11232.13, 0.00, 0.00, 0.00, 0.00
101, 49017.08, 48998.40, -11789.92, -5464.17, -4576.59, 50955.23, -11270.96, 0.00, 0.00, 0.00, 0.00
102, 49377.37, 49107.41, -11816.81, -5488.25, -4595.21, 51751.17, -11298.00, 0.00, 0.00, 0.00, 0.00
103, 49200.08, 49060.76, -11829.46, -5491.69, -4621.38, 51336.41, -11248.98, 0.00, 0.00, 0.00, 0.00
104, 48889.57, 48963.73, -11812.02, -5467.86, -4605.78, 50647.57, -11225.02, 0.00, 0.09, 0.96, 0.27
105, 48956.93, 48986.08, -11792.91, -5452.60, -4575.78, 50807.61, -11238.28, 0.00, 0.00, 0.00, 0.00
106, 49363.80, 49100.21, -11801.70, -5486.57, -4584.97, 51687.67, -11274.55, 0.00, 0.00, 0.00, 0.00
107, 49270.13, 49068.56, -11828.14, -5508.65, -4626.27, 51457.11, -11251.20, 0.00, 0.00, 0.00, 0.00
108, 48939.23, 48968.29, -11823.80, -5488.49, -4626.94, 50712.44, -11245.41, 0.00, 0.00, 0.00, 0.00
109, 48907.76, 48973.41, -11802.32, -5462.52, -4591.56, 50664.79, -11247.87, 0.00, 0.00, 0.00, 0.00
110, 49322.83, 49097.77, -11798.32, -5487.49, -4569.12, 51544.30, -11263.11, 0.00, 0.00, 0.00, 0.00
111, 49324.66, 49090.84, -11823.67, -5509.44, -4617.42, 51546.47, -11248.85, 0.00, 0.00, 0.00, 0.00
112, 49004.68, 48994.87, -11813.21, -5477.83, -4612.15, 50816.55, -11222.41, 0.00, 0.00, 0.00, 0.00
113, 48885.68, 48970.77, -11794.61, -5460.89, -4584.03, 50590.45, -11211.19, 0.00, 0.00, 0.00, 0.00
114, 49267.51, 49091.20, -11790.41, -5484.89, -4559.22, 51398.39, -11257.41, 0.00, 0.09, 0.95, 0.27
115, 49363.98, 49112.21, -11825.73, -5524.55, -4615.97, 51630.02, -11285.64, 0.00, 0.00, 0.00, 0.00
116, 49049.74, 49015.32, -11808.61, -5505.59, -4625.00, 50917.79, -11247.00, 0.00, 0.00, 0.00, 0.00
117, 48863.86, 48970.26, -11802.10, -5469.43, -4596.10, 50541.72, -11220.60, 0.00, 0.00, 0.00, 0.00
118, 49186.11, 49073.68, -11802.88, -5474.81, -4568.36, 51236.88, -11239.15, 0.00, 0.00, 0.00, 0.00
119, 49386.20, 49121.11, -11831.43, -5521.28, -4610.76, 51686.53, -11289.40, 0.00, 0.00, 0.00, 0.00
120, 49113.06, 49037.78, -11831.18, -5514.89, -4625.51, 51022.79, -11265.82, 0.00, 0.00, 0.00, 0.00
121, 48879.04, 48982.08, -11806.39, -5468.71, -4604.35, 50539.21, -11219.23, 0.00, 0.00, 0.00, 0.00
122, 49113.46, 49059.84, -11791.75, -5462.19, -4568.94, 51069.40, -11239.66, 0.00, 0.00, 0.00, 0.00
123, 49401.78, 49136.11, -11827.36, -5511.81, -4605.93, 51714.69, -11283.25, 0.00, 0.00, 0.00, 0.00
124, 49178.15, 49069.86, -11836.57, -5505.61, -4634.84, 51181.54, -11239.15, 0.00, 0.08, 0.95, 0.27
125, 48901.23, 48988.34, -11818.53, -5476.83, -4615.25, 50568.90, -11226.32, 0.00, 0.00, 0.00, 0.00
126, 49034.38, 49036.21, -11799.15, -5465.92, -4576.09, 50878.45, -11241.07, 0.00, 0.00, 0.00, 0.00
127, 49402.27, 49141.83, -11819.98, -5499.89, -4594.11, 51688.21, -11275.34, 0.00, 0.00, 0.00, 0.00
128, 49245.61, 49090.55, -11838.62, -5506.24, -4638.01, 51311.31, -11259.71, 0.00, 0.00, 0.00, 0.00
129, 48932.23, 48994.26, -11822.60, -5476.98, -4624.40, 50617.82, -11248.94, 0.00, 0.00, 0.00, 0.00
130, 48968.91, 49022.36, -11793.76, -5455.21, -4588.34, 50729.32, -11229.02, 0.00, 0.00, 0.00, 0.00
131, 49371.00, 49143.06, -11805.68, -5474.19, -4593.82, 51619.77, -11276.81, 0.00, 0.00, 0.00, 0.00
132, 49294.65, 49110.98, -11834.78, -5478.39, -4637.41, 51459.73, -11256.16, 0.00, 0.00, 0.00, 0.00
133, 48968.63, 49011.18, -11829.53, -5484.22, -4631.64, 50725.74, -11230.68, 0.00, 0.00, 0.00, 0.00
134, 48905.91, 49004.07, -11809.25, -5464.58, -4591.41, 50633.98, -11221.07, 0.00, 0.09, 0.94, 0.26
135, 49310.23, 49123.50, -11814.60, -5481.70, -4581.64, 51514.98, -11273.04, 0.00, 0.00, 0.00, 0.00
136, 49336.73, 49127.12, -11840.95, -5508.83, -4631.64, 51568.45, -11280.81, 0.00, 0.00, 0.00, 0.00
137, 49018.52, 49035.10, -11824.27, -5477.43, -4630.54, 50826.61, -11225.69, 0.00, 0.00, 0.00, 0.00
138, 48880.94, 49000.30, -11808.90, -5450.16, -4606.38, 50565.68, -11226.92, 0.00, 0.00, 0.00, 0.00
139, 49248.07, 49111.79, -11810.24, -5455.99, -4593.26, 51376.80, -11255.04, 0.00, 0.00, 0.00, 0.00
140, 49378.55, 49143.97, -11848.53, -5492.40, -4654.48, 51671.49, -11309.07, 0.00, 0.00, 0.00, 0.00
141, 49072.76, 49039.50, -11840.50, -5482.93, -4647.40, 50963.68, -11248.94, 0.00, 0.00, 0.00, 0.00
142, 48854.59, 48966.37, -11810.42, -5460.02, -4609.96, 50546.59, -11209.82, 0.00, 0.00, 0.00, 0.00
143, 49150.43, 49058.81, -11792.40, -5457.16, -4579.58, 51194.84, -11219.88, 0.00, 0.09, 0.95, 0.26
144, 49372.68, 49108.75, -11831.31, -5510.80, -4619.93, 51704.72, -11283.32, 0.00, 0.00, 0.00, 0.00
145, 49088.18, 48993.77, -11841.60, -5527.03, -4646.19, 51071.05, -11259.07, 0.00, 0.00, 0.00, 0.00
146, 48827.65, 48912.03, -11824.09, -5499.89, -4634.59, 50531.53, -11221.96, 0.00, 0.00, 0.00, 0.00
147, 49031.70, 48982.59, -11804.16, -5483.49, -4593.62, 50996.38, -11227.30, 0.00, 0.00, 0.00, 0.00
148, 49340.00, 49060.22, -11828.25, -5523.47, -4618.79, 51709.38, -11270.80, 0.00, 0.00, 0.00, 0.00
149, 49115.25, 48978.73, -11839.50, -5534.90, -4649.14, 51205.77, -11266.13, 0.00, 0.00, 0.00, 0.00
150, 48815.65, 48893.90, -11823.45, -5504.65, -4625.49, 50564.27, -11216.82, 0.00, 0.00, 0.00, 0.00
151, 48925.82, 48935.54, -11809.92, -5483.15, -4595.88, 50829.83, -11231.46, 0.00, 0.00, 0.00, 0.00
152, 49305.84, 49037.45, -11833.33, -5533.60, -4612.15, 51663.11, -11282.94, 0.00, 0.00, 0.00, 0.00
153, 49166.66, 48994.46, -11849.87, -5554.23, -4647.35, 51324.50, -11281.68, 0.00, 0.08, 0.96, 0.25
154, 48856.40, 48908.05, -11822.33, -5511.25, -4631.82, 50620.48, -11231.37, 0.00, 0.00, 0.00, 0.00
155, 48884.54, 48929.40, -11807.91, -5476.31, -4597.40, 50703.90, -11228.67, 0.00, 0.00, 0.00, 0.00
156, 49309.87, 49049.89, -11816.72, -5502.80, -4598.89, 51610.42, -11259.33, 0.00, 0.00, 0.00, 0.00
157, 49251.64, 49026.74, -11845.13, -5535.32, -4649.12, 51479.62, -11260.56, 0.00, 0.00, 0.00, 0.00
158, 48912.97, 48925.57, -11832.99, -5516.30, -4648.09, 50706.63, -11258.66, 0.00, 0.00, 0.00, 0.00
159, 48845.31, 48919.59, -11805.34, -5490.12, -4603.32, 50572.18, -11243.37, 0.00, 0.00, 0.00, 0.00
160, 49264.16, 49053.23, -11799.51, -5498.17, -4580.12, 51456.75, -11267.38, 0.00, 0.00, 0.00, 0.00
161, 49320.38, 49069.50, -11822.89, -5518.44, -4634.90, 51585.50, -11270.04, 0.00, 0.00, 0.00, 0.00
162, 48993.93, 48973.77, -11818.33, -5499.89, -4651.64, 50832.11, -11271.02, 0.00, 0.00, 0.00, 0.00
163, 48853.94, 48954.68, -11788.09, -5463.39, -4621.20, 50526.12, -11228.09, 0.00, 0.09, 0.96, 0.26
164, 49226.27, 49070.97, -11775.73, -5464.76, -4580.72, 51320.36, -11255.67, 0.00, 0.00, 0.00, 0.00
165, 49370.55, 49098.18, -11814.68, -5503.83, -4635.33, 51677.99, -11295.66, 0.00, 0.00, 0.00, 0.00
166, 49058.16, 49003.47, -11811.15, -5492.74, -4651.22, 50954.20, -11270.44, 0.00, 0.00, 0.00, 0.00
167, 48838.25, 48941.91, -11798.30, -5468.49, -4631.84, 50504.99, -11251.51, 0.00, 0.00, 0.00, 0.00
168, 49126.59, 49028.08, -11792.20, -5472.31, -4592.99, 51132.81, -11275.20, 0.00, 0.00, 0.00, 0.00
169, 49378.04, 49085.52, -11822.78, -5518.35, -4622.94, 51708.34, -11311.79, 0.00, 0.00, 0.00, 0.00
170, 49102.24, 48996.36, -11831.05, -5517.04, -4648.51, 51077.54, -11288.93, 0.00, 0.00, 0.00, 0.00
171, 48831.70, 48920.10, -11812.90, -5490.91, -4630.79, 50503.68, -11261.39, 0.00, 0.00, 0.00, 0.00
172, 49034.47, 48989.84, -11785.43, -5472.65, -4583.63, 50945.95, -11238.03, 0.00, 0.00, 0.00, 0.00
173, 49368.81, 49077.41, -11815.15, -5510.08, -4616.26, 51705.48, -11282.62, 0.00, 0.09, 0.96, 0.27
174, 49158.55, 49015.32, -11827.25, -5498.15, -4647.73, 51220.94, -11260.52, 0.00, 0.00, 0.00, 0.00
175, 48855.73, 48931.41, -11811.13, -5475.31, -4629.63, 50555.04, -11227.95, 0.00, 0.00, 0.00, 0.00
176, 48956.06, 48972.94, -11788.00, -5466.81, -4588.99, 50781.48, -11251.85, 0.00, 0.00, 0.00, 0.00
177, 49350.88, 49077.97, -11803.87, -5508.03, -4609.58, 51645.98, -11299.03, 0.00, 0.00, 0.00, 0.00
178, 49214.45, 49027.10, -11836.08, -5529.17, -4659.94, 51332.03, -11283.65, 0.00, 0.00, 0.00, 0.00
179, 48886.04, 48937.31, -11823.69, -5496.63, -4640.65, 50608.66, -11240.80, 0.00, 0.00, 0.00, 0.00
180, 48889.25, 48951.79, -11798.57, -5470.52, -4609.15, 50650.71, -11254.55, 0.00, 0.00, 0.00, 0.00
181, 49308.62, 49072.14, -11812.02, -5496.65, -4608.95, 51556.15, -11293.00, 0.00, 0.00, 0.00, 0.00
182, 49265.07, 49048.09, -11853.67, -5521.13, -4666.02, 51467.04, -11301.47, 0.00, 0.00, 0.00, 0.00
183, 48936.75, 48951.91, -11831.72, -5491.71, -4655.29, 50699.97, -11267.78, 0.00, 0.09, 0.96, 0.27
184, 48852.69, 48941.85, -11806.01, -5459.26, -4615.10, 50551.11, -11238.50, 0.00, 0.00, 0.00, 0.00
185, 49256.40, 49059.93, -11813.70, -5481.25, -4595.63, 51437.57, -11267.74, 0.00, 0.00, 0.00, 0.00
186, 49314.68, 49066.61, -11849.08, -5518.22, -4646.91, 51597.91, -11284.48, 0.00, 0.00, 0.00, 0.00
187, 48983.09, 48970.84, -11838.44, -5497.55, -4652.90, 50833.74, -11237.58, 0.00, 0.00, 0.00, 0.00
188, 48817.73, 48929.49, -11815.67, -5469.20, -4625.29, 50499.61, -11218.63, 0.00, 0.00, 0.00, 0.00
189, 49177.50, 49045.31, -11799.04, -5466.88, -4586.85, 51272.08, -11251.76, 0.00, 0.00, 0.00, 0.00
190, 49350.23, 49080.47, -11837.46, -5514.56, -4631.95, 51689.48, -11281.60, 0.00, 0.00, 0.00, 0.00
191, 49037.73, 48975.66, -11851.12, -5511.14, -4650.53, 50980.50, -11248.67, 0.00, 0.00, 0.00, 0.00
192, 48803.89, 48914.00, -11829.26, -5479.44, -4640.71, 50496.95, -11224.33, 0.00, 0.09, 0.95, 0.27
193, 49079.73, 49009.13, -11804.45, -5467.21, -4595.29, 51084.98, -11254.21, 0.00, 0.00, 0.00, 0.00
194, 49354.08, 49084.23, -11838.96, -5497.30, -4634.21, 51710.27, -11287.63, 0.00, 0.00, 0.00, 0.00
195, 49095.67, 49003.58, -11852.33, -5514.60, -4665.01, 51116.61, -11266.11, 0.00, 0.00, 0.00, 0.00
196, 48819.29, 48922.85, -11832.81, -5480.67, -4647.60, 50524.29, -11237.18, 0.00, 0.00, 0.00, 0.00
197, 48995.67, 48978.62, -11803.89, -5460.91, -4598.47, 50913.32, -11232.24, 0.00, 0.00, 0.00, 0.00
198, 49352.61, 49070.04, -11819.92, -5502.26, -4616.98, 51711.12, -11276.48, 0.00, 0.00, 0.00, 0.00
199, 49158.28, 49010.15, -11836.03, -5512.34, -4658.17, 51256.15, -11260.58, 0.00, 0.00, 0.00, 0.00
200, 48847.55, 48919.52, -11828.52, -5482.66, -4639.48, 50565.81, -11242.75, 0.00, 0.00, 0.00, 0.00
201, 48923.25, 48949.85, -11809.92, -5462.97, -4601.08, 50754.68, -11239.78, 0.00, 0.00, 0.00, 0.00
202, 49332.27, 49071.49, -11825.70, -5487.11, -4607.57, 51663.44, -11278.47, 0.00, 0.09, 0.96, 0.27
203, 49220.64, 49037.38, -11852.21, -5503.92, -4647.08, 51408.88, -11275.31, 0.00, 0.00, 0.00, 0.00
204, 48890.26, 48938.52, -11834.78, -5473.96, -4632.56, 50655.45, -11233.99, 0.00, 0.00, 0.00, 0.00
205, 48867.35, 48941.51, -11814.93, -5445.80, -4595.38, 50640.91, -11239.51, 0.00, 0.00, 0.00, 0.00
206, 49287.36, 49065.07, -11821.99, -5469.09, -4586.06, 51560.87, -11281.30, 0.00, 0.00, 0.00, 0.00
207, 49267.27, 49048.33, -11850.02, -5503.92, -4635.13, 51536.86, -11281.39, 0.00, 0.00, 0.00, 0.00
208, 48934.09, 48949.98, -11829.62, -5476.67, -4629.60, 50769.39, -11239.95, 0.00, 0.00, 0.00, 0.00
209, 48832.64, 48929.62, -11799.13, -5447.88, -4602.13, 50564.81, -11218.65, 0.00, 0.00, 0.00, 0.00
210, 49234.57, 49056.29, -11796.04, -5451.61, -4575.20, 51420.72, -11256.54, 0.00, 0.00, 0.00, 0.00
211, 49317.85, 49072.47, -11837.42, -5497.59, -4633.72, 51637.58, -11297.06, 0.00, 0.00, 0.00, 0.00
212, 48985.19, 48969.83, -11835.72, -5488.00, -4651.15, 50881.20, -11289.40, 0.00, 0.09, 0.96, 0.27
213, 48806.51, 48929.33, -11808.81, -5438.20, -4615.88, 50514.34, -11231.21, 0.00, 0.00, 0.00, 0.00
214, 49149.81, 49039.97, -11791.15, -5442.23, -4577.08, 51255.16, -11238.26, 0.00, 0.00, 0.00, 0.00
215, 49346.26, 49088.05, -11825.88, -5492.70, -4626.99, 51711.05, -11273.19, 0.00, 0.00, 0.00, 0.00
216, 49051.77, 48999.29, -11825.70, -5486.21, -4637.99, 51017.48, -11252.96, 0.00, 0.00, 0.00, 0.00
217, 48816.84, 48931.36, -11802.10, -5458.94, -4609.18, 50499.16, -11247.49, 0.00, 0.00, 0.00, 0.00
218, 49073.90, 49007.90, -11791.82, -5452.69, -4586.89, 51052.03, -11267.04, 0.00, 0.00, 0.00, 0.00
219, 49368.32, 49092.27, -11828.68, -5483.58, -4621.04, 51737.69, -11271.67, 0.00, 0.00, 0.00, 0.00
220, 49127.66, 49022.29, -11835.43, -5474.43, -4641.03, 51173.69, -11255.13, 0.00, 0.00, 0.00, 0.00
221, 48845.02, 48939.72, -11811.31, -5444.28, -4617.27, 50541.18, -11232.00, 0.00, 0.00, 0.00, 0.00
222, 49009.62, 49000.18, -11789.85, -5429.51, -4586.22, 50896.62, -11238.28, 0.00, 0.09, 0.96, 0.26
223, 49381.84, 49109.46, -11813.43, -5473.72, -4616.35, 51714.69, -11301.94, 0.00, 0.00, 0.00, 0.00
224, 49206.25, 49058.21, -11823.45, -5482.82, -4643.73, 51301.79, -11262.69, 0.00, 0.00, 0.00, 0.00
225, 48898.82, 48972.18, -11795.48, -5448.62, -4617.02, 50598.85, -11242.03, 0.00, 0.00, 0.00, 0.00
226, 48955.41, 48998.00, -11771.41, -5433.13, -4574.98, 50731.17, -11245.30, 0.00, 0.00, 0.00, 0.00
227, 49364.68, 49111.16, -11798.57, -5468.18, -4575.74, 51644.38, -11262.31, 0.00, 0.00, 0.00, 0.00
228, 49264.02, 49075.67, -11833.73, -5486.93, -4629.54, 51455.97, -11276.41, 0.00, 0.00, 0.00, 0.00
229, 48930.63, 48983.55, -11810.48, -5455.26, -4618.90, 50689.48, -11237.52, 0.00, 0.00, 0.00, 0.00
230, 48891.60, 48980.63, -11785.65, -5430.27, -4588.16, 50641.83, -11199.48, 0.00, 0.00, 0.00, 0.00
231, 49301.89, 49096.45, -11795.55, -5456.37, -4581.24, 51550.23, -11256.99, 0.00, 0.00, 0.00, 0.00
232, 49304.66, 49088.72, -11838.00, -5483.93, -4640.80, 51579.13, -11272.86, 0.00, 0.08, 0.95, 0.26
233, 48969.72, 48987.15, -11828.41, -5455.84, -4638.39, 50807.35, -11247.53, 0.00, 0.00, 0.00, 0.00
234, 48845.85, 48958.68, -11803.29, -5449.04, -4605.08, 50554.13, -11235.57, 0.00, 0.00, 0.00, 0.00
235, 49232.96, 49077.95, -11790.37, -5451.17, -4573.52, 51379.75, -11262.46, 0.00, 0.00, 0.00, 0.00
236, 49341.90, 49100.14, -11833.77, -5497.84, -4627.57, 51654.68, -11294.78, 0.00, 0.00, 0.00, 0.00
237, 49025.78, 48998.29, -11826.02, -5485.54, -4638.79, 50907.23, -11237.56, 0.00, 0.00, 0.00, 0.00
238, 48836.68, 48946.27, -11810.91, -5448.10, -4619.70, 50515.28, -11218.72, 0.00, 0.00, 0.00, 0.00
239, 49160.16, 49050.95, -11801.99, -5434.29, -4581.30, 51209.39, -11240.45, 0.00, 0.00, 0.00, 0.00
240, 49377.53, 49105.75, -11830.60, -5470.25, -4618.54, 51731.86, -11268.56, 0.00, 0.00, 0.00, 0.00
241, 49092.83, 49024.23, -11826.78, -5456.49, -4638.57, 51060.84, -11244.60, 0.00, 0.07, 0.95, 0.26
242, 48850.83, 48959.35, -11805.50, -5425.26, -4614.20, 50524.04, -11208.73, 0.00, 0.00, 0.00, 0.00
243, 49084.54, 49035.12, -11789.56, -5419.78, -4569.23, 51028.67, -11232.18, 0.00, 0.00, 0.00, 0.00
244, 49386.71, 49110.16, -11823.71, -5474.75, -4608.84, 51742.39, -11275.81, 0.00, 0.00, 0.00, 0.00
245, 49156.91, 49042.68, -11832.95, -5473.43, -4645.85, 51207.46, -11241.63, 0.00, 0.00, 0.00, 0.00
246, 48868.46, 48961.07, -11815.69, -5437.20, -4626.59, 50559.11, -11219.26, 0.00, 0.00, 0.00, 0.00
247, 48995.98, 49007.58, -11797.63, -5423.78, -4581.48, 50855.54, -11230.72, 0.00, 0.00, 0.00, 0.00
248, 49378.11, 49115.03, -11811.53, -5458.07, -4594.42, 51710.78, -11282.09, 0.00, 0.00, 0.00, 0.00
249, 49219.05, 49072.23, -11829.48, -5465.72, -4638.99, 51348.68, -11273.08, 0.00, 0.00, 0.00, 0.00
250, 48898.78, 48979.24, -11816.52, -5437.64, -4627.57, 50621.63, -11228.93, 0.00, 0.00, 0.00, 0.00
251, 48930.05, 48996.43, -11799.46, -5421.42, -4599.01, 50718.77, -11210.79, 0.00, 0.09, 0.95, 0.26
252, 49346.88, 49111.34, -11817.43, -5459.01, -4600.66, 51636.02, -11272.63, 0.00, 0.00, 0.00, 0.00
253, 49275.22, 49083.29, -11842.20, -5472.73, -4652.81, 51485.88, -11266.37, 0.00, 0.00, 0.00, 0.00
254, 48945.49, 48983.98, -11821.59, -5441.38, -4635.71, 50728.49, -11218.43, 0.00, 0.00, 0.00, 0.00
255, 48886.41, 48972.47, -11802.15, -5426.31, -4596.79, 50623.41, -11205.29, 0.00, 0.00, 0.00, 0.00
0, 49297.51, 49093.57, -11805.83, -5443.88, -4588.63, 51518.89, -11250.97, 0.00, 0.00, 0.00, 0.00
1, 49322.12, 49097.26, -11832.99, -5476.00, -4645.68, 51599.25, -11273.57, 0.00, 0.00, 0.00, 0.00
2, 48992.07, 48996.16, -11821.19, -5453.85, -4645.74, 50832.85, -11211.05, 0.00, 0.00, 0.00, 0.00
3, 48850.45, 48965.07, -11808.78, -5423.23, -4615.25, 50550.46, -11201.67, 0.00, 0.00, 0.00, 0.00
4, 49225.27, 49083.42, -11799.40, -5429.93, -4579.05, 51351.77, -11237.99, 0.00, 0.00, 0.00, 0.00
5, 49364.83, 49114.58, -11834.94, -5476.51, -4631.93, 51677.10, -11270.00, 0.00, 0.09, 0.95, 0.26
6, 49043.26, 49016.46, -11834.22, -5469.52, -4647.98, 50934.73, -11238.59, 0.00, 0.00, 0.00, 0.00
7, 48843.97, 48971.24, -11810.37, -5431.97, -4623.37, 50532.02, -11173.35, 0.00, 0.00, 0.00, 0.00
8, 49153.41, 49072.98, -11789.47, -5425.30, -4581.33, 51190.32, -11210.34, 0.00, 0.00, 0.00, 0.00
9, 49392.84, 49135.19, -11826.04, -5470.72, -4626.63, 51744.58, -11253.81, 0.00, 0.00, 0.00, 0.00
10, 49114.74, 49046.97, -11828.90, -5468.60, -4649.63, 51089.63, -11229.81, 0.00, 0.00, 0.00, 0.00
11, 48856.17, 48970.17, -11807.89, -5433.98, -4623.59, 50527.19, -11202.38, 0.00, 0.00, 0.00, 0.00
12, 49060.65, 49029.20, -11796.98, -5426.04, -4577.01, 50998.63, -11210.72, 0.00, 0.00, 0.00, 0.00
13, 49384.28, 49111.72, -11824.03, -5474.61, -4609.22, 51737.36, -11262.55, 0.00, 0.00, 0.00, 0.00
14, 49170.28, 49044.71, -11844.30, -5465.31, -4645.68, 51223.58, -11222.43, 0.00, 0.00, 0.00, 0.00
15, 48877.54, 48959.91, -11820.74, -5421.57, -4626.32, 50571.67, -11192.86, 0.00, 0.09, 0.95, 0.26
16, 48984.58, 49004.10, -11800.76, -5422.76, -4590.58, 50824.94, -11191.05, 0.00, 0.00, 0.00, 0.00
17, 49370.78, 49109.26, -11824.61, -5473.90, -4604.01, 51694.51, -11219.12, 0.00, 0.00, 0.00, 0.00
18, 49225.00, 49062.73, -11850.83, -5482.30, -4652.20, 51376.78, -11211.19, 0.00, 0.00, 0.00, 0.00
19, 48910.58, 48973.09, -11827.67, -5447.14, -4636.13, 50644.60, -11180.63, 0.00, 0.00, 0.00, 0.00
20, 48922.69, 48985.63, -11800.49, -5423.38, -4595.34, 50692.66, -11184.50, 0.00, 0.00, 0.00, 0.00
21, 49335.28, 49096.68, -11809.48, -5462.07, -4598.58, 51610.06, -11230.52, 0.00, 0.00, 0.00, 0.00
22, 49279.36, 49066.50, -11854.07, -5498.89, -4655.47, 51510.35, -11232.53, 0.00, 0.00, 0.00, 0.00
23, 48938.96, 48965.16, -11841.91, -5476.07, -4647.26, 50738.84, -11211.68, 0.00, 0.00, 0.00, 0.00
24, 48860.87, 48953.65, -11815.71, -5443.68, -4608.42, 50591.96, -11195.30, 0.00, 0.08, 0.96, 0.26
25, 49272.77, 49083.33, -11816.07, -5443.12, -4585.37, 51491.00, -11226.97, 0.00, 0.00, 0.00, 0.00
26, 49327.13, 49095.34, -11847.45, -5474.97, -4631.17, 51631.37, -11237.94, 0.00, 0.00, 0.00, 0.00
27, 49003.25, 48989.03, -11840.03, -5466.19, -4640.15, 50841.88, -11198.94, 0.00, 0.00, 0.00, 0.00
28, 48854.79, 48946.41, -11821.32, -5449.60, -4622.72, 50514.52, -11189.42, 0.00, 0.00, 0.00, 0.00
29, 49210.96, 49052.60, -11812.70, -5445.73, -4584.14, 51307.00, -11213.11, 0.00, 0.00, 0.00, 0.00
30, 49361.37, 49080.29, -11846.71, -5484.29, -4628.53, 51706.42, -11235.64, 0.00, 0.00, 0.00, 0.00
31, 49054.61, 48990.57, -11838.62, -5470.19, -4643.11, 50984.26, -11202.72, 0.00, 0.00, 0.00, 0.00
32, 48834.87, 48936.53, -11804.56, -5428.93, -4617.38, 50518.83, -11175.63, 0.00, 0.00, 0.00, 0.00
33, 49112.17, 49029.36, -11796.04, -5399.38, -4574.96, 51137.59, -11185.82, 0.00, 0.00, 0.00, 0.00
34, 49375.47, 49095.36, -11841.39, -5461.27, -4619.57, 51755.95, -11237.09, 0.00, 0.09, 0.96, 0.26
35, 49108.14, 49001.82, -11857.02, -5471.04, -4642.03, 51134.91, -11229.11, 0.00, 0.00, 0.00, 0.00
36, 48836.77, 48919.34, -11826.46, -5437.06, -4621.22, 50546.66, -11176.18, 0.00, 0.00, 0.00, 0.00
37, 49021.75, 48980.47, -11819.94, -5426.76, -4590.94, 50961.77, -11181.73, 0.00, 0.00, 0.00, 0.00
38, 49373.68, 49080.54, -11848.68, -5468.67, -4618.07, 51753.52, -11240.74, 0.00, 0.00, 0.00, 0.00
39, 49177.97, 49032.19, -11857.00, -5465.09, -4655.04, 51289.65, -11221.11, 0.00, 0.00, 0.00, 0.00
40, 48880.89, 48947.10, -11834.15, -5431.47, -4633.63, 50604.75, -11181.04, 0.00, 0.00, 0.00, 0.00
41, 48965.03, 48975.09, -11818.84, -5423.49, -4600.21, 50812.89, -11184.97, 0.00, 0.00, 0.00, 0.00
42, 49357.70, 49087.34, -11840.68, -5453.96, -4610.25, 51703.63, -11227.26, 0.00, 0.00, 0.00, 0.00
43, 49228.98, 49045.61, -11864.71, -5469.05, -4656.81, 51423.00, -11210.54, 0.00, 0.00, 0.00, 0.00
44, 48900.96, 48942.25, -11853.11, -5445.22, -4651.60, 50671.47, -11177.53, 0.00, 0.09, 0.96, 0.25
45, 48886.77, 48942.03, -11825.79, -5427.12, -4610.58, 50658.59, -11188.99, 0.00, 0.00, 0.00, 0.00
46, 49303.25, 49064.11, -11824.32, -5456.26, -4592.57, 51586.95, -11210.94, 0.00, 0.00, 0.00, 0.00
47, 49277.75, 49053.02, -11868.98, -5478.75, -4654.73, 51561.96, -11216.91, 0.00, 0.00, 0.00, 0.00
48, 48948.42, 48959.91, -11854.87, -5453.29, -4643.40, 50779.05, -11179.38, 0.00, 0.00, 0.00, 0.00
49, 48850.45, 48933.98, -11829.62, -5429.84, -4604.12, 50587.14, -11166.53, 0.00, 0.00, 0.00, 0.00
50, 49255.26, 49059.02, -11823.33, -5437.58, -4587.18, 51463.35, -11196.23, 0.00, 0.00, 0.00, 0.00
51, 49333.90, 49077.43, -11862.96, -5491.40, -4640.53, 51653.32, -11231.17, 0.00, 0.00, 0.00, 0.00
52, 49007.11, 48974.23, -11858.09, -5474.68, -4647.78, 50884.26, -11185.51, 0.00, 0.00, 0.00, 0.00
53, 48830.65, 48928.19, -11833.17, -5438.25, -4620.37, 50542.90, -11169.03, 0.00, 0.00, 0.00, 0.00
54, 49171.00, 49038.18, -11812.85, -5433.82, -4583.25, 51282.57, -11200.01, 0.00, 0.09, 0.96, 0.26
55, 49359.58, 49081.37, -11847.07, -5476.33, -4632.18, 51729.82, -11232.35, 0.00, 0.00, 0.00, 0.00
56, 49060.49, 48985.12, -11859.23, -5471.46, -4648.16, 51024.88, -11210.45, 0.00, 0.00, 0.00, 0.00
57, 48823.43, 48918.04, -11842.69, -5450.03, -4626.97, 50533.07, -11158.57, 0.00, 0.00, 0.00, 0.00
58, 49078.13, 49000.03, -11828.79, -5442.43, -4592.43, 51112.34, -11181.28, 0.00, 0.00, 0.00, 0.00
59, 49361.61, 49077.52, -11857.24, -5482.23, -4637.09, 51770.46, -11218.72, 0.00, 0.00, 0.00, 0.00
60, 49108.03, 48996.54, -11871.17, -5483.96, -4671.56, 51177.13, -11227.68, 0.00, 0.00, 0.00, 0.00
61, 48830.96, 48916.99, -11852.08, -5448.39, -4642.41, 50562.28, -11167.96, 0.00, 0.00, 0.00, 0.00
62, 48999.89, 48982.44, -11818.37, -5418.08, -4588.63, 50931.24, -11151.31, 0.00, 0.00, 0.00, 0.00
63, 49366.71, 49082.04, -11841.86, -5460.24, -4615.46, 51745.36, -11213.58, 0.00, 0.00, 0.00, 0.00
64, 49170.91, 49018.71, -11869.71, -5484.74, -4657.79, 51304.20, -11226.63, 0.00, 0.09, 0.96, 0.26
65, 48856.53, 48925.78, -11851.16, -5451.90, -4648.11, 50609.55, -11161.99, 0.00, 0.00, 0.00, 0.00
66, 48919.00, 48952.46, -11824.14, -5427.36, -4605.96, 50770.78, -11157.81, 0.00, 0.00, 0.00, 0.00
67, 49329.89, 49063.44, -11840.25, -5470.95, -4610.76, 51679.29, -11199.70, 0.00, 0.00, 0.00, 0.00
68, 49231.13, 49031.59, -11868.06, -5489.63, -4660.47, 51470.70, -11199.54, 0.00, 0.00, 0.00, 0.00
69, 48903.38, 48936.53, -11851.88, -5459.01, -4651.98, 50715.91, -11144.87, 0.00, 0.00, 0.00, 0.00
70, 48868.29, 48938.11, -11827.80, -5422.24, -4624.02, 50658.39, -11149.30, 0.00, 0.00, 0.00, 0.00
71, 49288.95, 49061.21, -11830.67, -5440.84, -4606.29, 51585.39, -11167.29, 0.00, 0.00, 0.00, 0.00
72, 49287.92, 49054.84, -11864.35, -5496.11, -4648.51, 51591.49, -11180.54, 0.00, 0.00, 0.00, 0.00
73, 48955.35, 48953.80, -11841.75, -5469.36, -4645.12, 50802.21, -11153.94, 0.00, 0.08, 0.96, 0.26
74, 48840.37, 48926.54, -11821.32, -5439.12, -4614.79, 50571.07, -11149.81, 0.00, 0.00, 0.00, 0.00
75, 49231.39, 49046.95, -11827.04, -5449.49, -4591.09, 51417.64, -11176.79, 0.00, 0.00, 0.00, 0.00
76, 49339.82, 49073.57, -11858.11, -5480.98, -4643.73, 51699.43, -11194.11, 0.00, 0.00, 0.00, 0.00
77, 49013.80, 48975.09, -11856.68, -5468.71, -4655.47, 50940.99, -11159.55, 0.00, 0.00, 0.00, 0.00
78, 48824.50, 48924.75, -11833.48, -5446.49, -4628.06, 50535.75, -11119.25, 0.00, 0.00, 0.00, 0.00
79, 49152.45, 49027.28, -11813.88, -5439.34, -4592.08, 51244.97, -11147.75, 0.00, 0.00, 0.00, 0.00
80, 49361.55, 49082.73, -11843.50, -5476.74, -4632.87, 51751.42, -11190.42, 0.00, 0.00, 0.00, 0.00
81, 49067.06, 48995.16, -11845.62, -5451.57, -4650.88, 51074.05, -11170.17, 0.00, 0.00, 0.00, 0.00
82, 48818.60, 48924.68, -11830.78, -5451.61, -4628.35, 50535.59, -11144.51, 0.00, 0.00, 0.00, 0.00
83, 49056.96, 49003.27, -11818.53, -5445.26, -4590.80, 51060.93, -11147.62, 0.00, 0.08, 0.96, 0.27
84, 49374.84, 49084.27, -11849.46, -5486.95, -4632.04, 51776.16, -11197.26, 0.00, 0.00, 0.00, 0.00
85, 49135.82, 49009.51, -11861.49, -5492.20, -4660.90, 51206.59, -11179.60, 0.00, 0.00, 0.00, 0.00
86, 48844.13, 48930.45, -11831.90, -5451.17, -4642.95, 50568.90, -11130.77, 0.00, 0.00, 0.00, 0.00
87, 48984.43, 48979.02, -11817.41, -5430.42, -4603.70, 50889.78, -11142.88, 0.00, 0.00, 0.00, 0.00
88, 49363.00, 49084.18, -11849.02, -5476.98, -4619.81, 51734.03, -11193.95, 0.00, 0.00, 0.00, 0.00
89, 49191.52, 49024.91, -11868.98, -5508.72, -4665.46, 51344.50, -11187.09, 0.00, 0.00, 0.00, 0.00
90, 48875.84, 48943.37, -11840.63, -5461.74, -4643.26, 50632.80, -11118.61, 0.00, 0.00, 0.00, 0.00
91, 48916.10, 48969.30, -11811.82, -5429.84, -4595.99, 50742.68, -11110.96, 0.00, 0.00, 0.00, 0.00
92, 49329.76, 49077.63, -11829.01, -5464.04, -4596.30, 51656.55, -11199.77, 0.00, 0.00, 0.00, 0.00
93, 49247.44, 49038.86, -11874.10, -5501.35, -4655.80, 51496.32, -11213.27, 0.00, 0.07, 0.96, 0.26
94, 48912.90, 48942.63, -11855.39, -5480.56, -4641.27, 50729.25, -11156.09, 0.00, 0.00, 0.00, 0.00
95, 48853.49, 48932.35, -11834.49, -5458.56, -4606.67, 50624.04, -11139.19, 0.00, 0.00, 0.00, 0.00
96, 49263.51, 49057.70, -11837.80, -5471.42, -4600.12, 51537.11, -11154.41, 0.00, 0.00, 0.00, 0.00
97, 49287.29, 49061.54, -11872.26, -5499.98, -4661.25, 51621.87, -11178.60, 0.00, 0.00, 0.00, 0.00
98, 48959.39, 48969.81, -11856.42, -5466.32, -4650.82, 50846.53, -11133.11, 0.00, 0.00, 0.00, 0.00
99, 48822.54, 48933.71, -11840.10, -5410.55, -4613.60, 50569.66, -11121.94, 0.00, 0.00, 0.00, 0.00
100, 49194.54, 49040.60, -11839.70, -5436.68, -4590.04, 51382.03, -11168.25, 0.00, 0.00, 0.00, 0.00
101, 49325.07, 49074.32, -11867.75, -5483.26, -4638.50, 51706.63, -11182.11, 0.00, 0.00, 0.00, 0.00
102, 49016.61, 48990.30, -11863.10, -5469.85, -4648.38, 50969.42, -11151.31, 0.00, 0.00, 0.00, 0.00
103, 48817.39, 48938.45, -11854.38, -5444.91, -4623.44, 50537.92, -11131.19, 0.00, 0.08, 0.96, 0.27
104, 49122.67, 49035.99, -11838.02, -5442.00, -4587.74, 51195.24, -11153.72, 0.00, 0.00, 0.00, 0.00
105, 49361.93, 49093.62, -11875.64, -5485.10, -4633.18, 51757.23, -11170.15, 0.00, 0.00, 0.00, 0.00
106, 49081.37, 49012.05, -11883.82, -5474.77, -4654.57, 51103.66, -11146.43, 0.00, 0.00, 0.00, 0.00
107, 48816.86, 48934.58, -11858.94, -5439.72, -4628.06, 50532.78, -11150.93, 0.00, 0.00, 0.00, 0.00
108, 49030.34, 48995.80, -11835.49, -5452.69, -4595.09, 51006.95, -11156.74, 0.00, 0.00, 0.00, 0.00
109, 49364.92, 49092.12, -11864.46, -5470.83, -4624.17, 51786.49, -11150.26, 0.00, 0.00, 0.00, 0.00
110, 49138.97, 49024.88, -11885.81, -5472.04, -4658.35, 51272.53, -11126.30, 0.00, 0.00, 0.00, 0.00
111, 48848.93, 48940.95, -11861.94, -5442.67, -4638.37, 50603.63, -11096.84, 0.00, 0.00, 0.00, 0.00
112, 48966.66, 48992.54, -11838.00, -5420.79, -4604.17, 50848.61, -11136.80, 0.00, 0.08, 0.96, 0.27
113, 49368.39, 49114.18, -11864.93, -5451.57, -4630.10, 51731.86, -11215.48, 0.00, 0.00, 0.00, 0.00
114, 49226.05, 49069.05, -11884.22, -5464.80, -4672.12, 51414.73, -11181.91, 0.00, 0.00, 0.00, 0.00
115, 48888.80, 48949.71, -11861.56, -5449.94, -4644.13, 50675.25, -11146.28, 0.00, 0.00, 0.00, 0.00
116, 48885.50, 48943.81, -11838.11, -5433.28, -4607.05, 50716.17, -11132.84, 0.00, 0.00, 0.00, 0.00
117, 49294.29, 49051.04, -11852.62, -5460.24, -4604.28, 51641.78, -11173.08, 0.00, 0.00, 0.00, 0.00
118, 49219.57, 49011.54, -11891.19, -5502.46, -4662.69, 51530.83, -11198.02, 0.00, 0.00, 0.00, 0.00
119, 48870.72, 48893.43, -11863.57, -5488.36, -4656.00, 50748.20, -11156.18, 0.00, 0.00, 0.00, 0.00
120, 48787.44, 48873.07, -11851.95, -5472.42, -4623.61, 50591.68, -11119.59, 0.00, 0.00, 0.00, 0.00
121, 49195.59, 48999.56, -11861.67, -5489.36, -4608.21, 51477.12, -11184.46, 0.00, 0.00, 0.00, 0.00
122, 49249.47, 49007.85, -11890.97, -5518.11, -4662.60, 51624.57, -11193.22, 0.00, 0.08, 0.95, 0.27
123, 48925.60, 48915.92, -11879.30, -5497.10, -4662.53, 50865.57, -11146.57, 0.00, 0.00, 0.00, 0.00
124, 48768.62, 48875.91, -11861.78, -5472.11, -4639.75, 50550.10, -11134.68, 0.00, 0.00, 0.00, 0.00
125, 49128.26, 48986.66, -11850.36, -5476.83, -4605.71, 51325.71, -11165.70, 0.00, 0.00, 0.00, 0.00
126, 49286.31, 49026.18, -11881.90, -5509.08, -4652.56, 51705.37, -11205.11, 0.00, 0.00, 0.00, 0.00
127, 48981.93, 48936.48, -11880.31, -5487.00, -4671.40, 50988.24, -11155.75, 0.00, 0.00, 0.00, 0.00
128, 48768.78, 48883.89, -11847.70, -5475.37, -4636.33, 50525.20, -11099.34, 0.00, 0.00, 0.00, 0.00
129, 49049.70, 48970.61, -11831.43, -5476.18, -4597.82, 51128.83, -11135.08, 0.00, 0.00, 0.00, 0.00
130, 49319.19, 49038.96, -11865.60, -5517.39, -4642.03, 51744.49, -11182.55, 0.00, 0.00, 0.00, 0.00
131, 49055.89, 48955.88, -11888.36, -5518.11, -4674.29, 51119.51, -11172.32, 0.00, 0.00, 0.00, 0.00
132, 48782.50, 48876.00, -11869.18, -5486.28, -4653.05, 50524.42, -11134.52, 0.00, 0.10, 0.95, 0.27
133, 48972.87, 48945.31, -11847.68, -5465.31, -4613.53, 50954.18, -11125.27, 0.00, 0.00, 0.00, 0.00
134, 49318.54, 49037.47, -11871.12, -5501.30, -4641.05, 51751.37, -11169.66, 0.00, 0.00, 0.00, 0.00
135, 49124.73, 48979.87, -11877.90, -5509.62, -4677.91, 51276.38, -11163.56, 0.00, 0.00, 0.00, 0.00
136, 48817.80, 48896.52, -11859.77, -5475.66, -4653.90, 50586.42, -11137.40, 0.00, 0.00, 0.00, 0.00
137, 48901.32, 48926.13, -11849.96, -5458.79, -4614.29, 50784.79, -11132.84, 0.00, 0.00, 0.00, 0.00
138, 49299.05, 49030.29, -11874.43, -5503.92, -4636.85, 51668.71, -11201.24, 0.00, 0.00, 0.00, 0.00
139, 49169.52, 48989.93, -11903.94, -5524.93, -4693.26, 51394.97, -11200.84, 0.00, 0.00, 0.00, 0.00
140, 48853.29, 48907.92, -11874.27, -5474.90, -4665.14, 50672.99, -11139.93, 0.00, 0.00, 0.00, 0.00
141, 48845.96, 48916.41, -11842.56, -5443.19, -4610.92, 50679.36, -11128.98, 0.00, 0.00, 0.00, 0.00
142, 49266.28, 49039.01, -11846.89, -5473.18, -4604.46, 51590.86, -11173.68, 0.00, 0.09, 0.95, 0.26
143, 49241.92, 49026.02, -11878.54, -5505.39, -4656.67, 51547.08, -11166.19, 0.00, 0.00, 0.00, 0.00
144, 48912.45, 48929.73, -11863.55, -5473.70, -4655.49, 50779.79, -11130.34, 0.00, 0.00, 0.00, 0.00
145, 48816.45, 48910.40, -11843.65, -5445.60, -4626.79, 50595.56, -11100.14, 0.00, 0.00, 0.00, 0.00
146, 49208.28, 49025.73, -11852.88, -5471.62, -4608.64, 51455.68, -11154.71, 0.00, 0.00, 0.00, 0.00
147, 49281.88, 49036.77, -11887.35, -5509.12, -4661.72, 51648.62, -11176.36, 0.00, 0.00, 0.00, 0.00
148, 48961.36, 48937.85, -11875.12, -5469.85, -4664.36, 50899.35, -11136.96, 0.00, 0.00, 0.00, 0.00
149, 48793.43, 48894.84, -11848.46, -5451.05, -4634.57, 50549.68, -11128.89, 0.00, 0.00, 0.00, 0.00
150, 49141.80, 49002.11, -11834.91, -5457.09, -4600.70, 51289.52, -11159.76, 0.00, 0.00, 0.00, 0.00
151, 49321.00, 49039.28, -11878.99, -5498.40, -4651.13, 51737.45, -11195.07, 0.00, 0.00, 0.00, 0.00
152, 49018.18, 48950.14, -11879.66, -5483.15, -4663.15, 51033.70, -11164.58, 0.00, 0.09, 0.96, 0.26
153, 48791.35, 48892.23, -11847.68, -5450.00, -4631.77, 50530.68, -11132.82, 0.00, 0.00, 0.00, 0.00
154, 49051.01, 48976.58, -11834.15, -5449.78, -4596.39, 51106.01, -11162.77, 0.00, 0.00, 0.00, 0.00
155, 49337.52, 49055.35, -11874.65, -5486.68, -4632.11, 51770.30, -11204.79, 0.00, 0.00, 0.00, 0.00
156, 49088.86, 48979.67, -11883.57, -5464.84, -4659.98, 51181.31, -11167.98, 0.00, 0.00, 0.00, 0.00
157, 48811.94, 48905.41, -11853.29, -5448.66, -4638.68, 50568.61, -11134.66, 0.00, 0.00, 0.00, 0.00
158, 48970.95, 48963.48, -11834.71, -5449.58, -4602.38, 50926.95, -11166.08, 0.00, 0.00, 0.00, 0.00
159, 49331.26, 49056.51, -11869.38, -5490.97, -4634.30, 51745.16, -11217.98, 0.00, 0.00, 0.00, 0.00
160, 49144.36, 48993.82, -11882.23, -5502.57, -4665.48, 51313.12, -11185.28, 0.00, 0.00, 0.00, 0.00
161, 48826.94, 48895.58, -11865.49, -5474.50, -4648.45, 50605.69, -11164.23, 0.00, 0.08, 0.97, 0.26
162, 48887.60, 48926.27, -11834.87, -5449.40, -4604.73, 50770.18, -11144.83, 0.00, 0.00, 0.00, 0.00
163, 49298.40, 49049.02, -11841.53, -5475.44, -4598.83, 51696.07, -11152.09, 0.00, 0.00, 0.00, 0.00
164, 49196.77, 49016.57, -11870.92, -5496.92, -4655.26, 51469.79, -11162.89, 0.00, 0.00, 0.00, 0.00
165, 48869.76, 48921.24, -11854.34, -5457.71, -4645.16, 50713.67, -11111.19, 0.00, 0.00, 0.00, 0.00
166, 48833.55, 48917.80, -11828.10, -5422.02, -4604.08, 50663.89, -11101.75, 0.00, 0.00, 0.00, 0.00
167, 49254.64, 49038.68, -11833.06, -5461.87, -4584.28, 51584.56, -11170.60, 0.00, 0.00, 0.00, 0.00
168, 49256.94, 49035.68, -11862.09, -5483.04, -4633.54, 51600.79, -11169.99, 0.00, 0.00, 0.00, 0.00
169, 48926.63, 48938.16, -11850.80, -5461.02, -4637.54, 50818.14, -11136.67, 0.00, 0.00, 0.00, 0.00
170, 48814.24, 48916.77, -11827.16, -5429.28, -4600.73, 50589.84, -11114.56, 0.00, 0.00, 0.00, 0.00
171, 49200.34, 49039.03, -11820.03, -5438.78, -4579.63, 51439.36, -11151.53, 0.00, 0.08, 0.95, 0.27
172, 49300.61, 49064.36, -11857.11, -5479.33, -4639.55, 51711.05, -11177.35, 0.00, 0.00, 0.00, 0.00
173, 48982.08, 48967.17, -11840.99, -5458.27, -4641.43, 50956.48, -11133.94, 0.00, 0.00, 0.00, 0.00
174, 48791.55, 48918.22, -11813.81, -5420.99, -4610.34, 50560.38, -11117.69, 0.00, 0.00, 0.00, 0.00
175, 49112.05, 49017.35, -11822.55, -5427.07, -4581.12, 51262.47, -11151.35, 0.00, 0.00, 0.00, 0.00
176, 49323.84, 49071.60, -11869.02, -5477.63, -4632.58, 51755.89, -11180.43, 0.00, 0.00, 0.00, 0.00
177, 49035.39, 48984.16, -11862.92, -5477.88, -4650.33, 51070.83, -11153.72, 0.00, 0.00, 0.00, 0.00
178, 48799.82, 48916.14, -11835.40, -5447.54, -4625.85, 50551.29, -11134.83, 0.00, 0.00, 0.00, 0.00
179, 49035.55, 48997.68, -11825.37, -5430.94, -4586.56, 51079.77, -11152.29, 0.00, 0.00, 0.00, 0.00
180, 49334.63, 49077.79, -11859.19, -5474.08, -4623.84, 51787.80, -11174.84, 0.00, 0.00, 0.00, 0.00
181, 49101.95, 49000.34, -11861.51, -5451.86, -4650.46, 51240.34, -11148.92, 0.00, 0.08, 0.96, 0.26
182, 48816.12, 48917.91, -11834.33, -5426.62, -4621.63, 50600.64, -11101.37, 0.00, 0.00, 0.00, 0.00
183, 48948.06, 48957.20, -11817.95, -5449.18, -4583.38, 50901.25, -11138.25, 0.00, 0.00, 0.00, 0.00
184, 49319.88, 49047.28, -11847.30, -5498.51, -4616.86, 51735.19, -11219.93, 0.00, 0.00, 0.00, 0.00
185, 49152.31, 48997.35, -11871.39, -5510.62, -4661.93, 51351.21, -11178.51, 0.00, 0.00, 0.00, 0.00
186, 48840.53, 48915.70, -11845.75, -5467.01, -4638.97, 50644.60, -11131.10, 0.00, 0.00, 0.00, 0.00
187, 48873.34, 48938.38, -11818.40, -5444.53, -4591.23, 50744.92, -11101.35, 0.00, 0.00, 0.00, 0.00
188, 49289.64, 49057.00, -11825.39, -5476.31, -4587.00, 51664.56, -11170.06, 0.00, 0.00, 0.00, 0.00
189, 49209.89, 49024.17, -11848.01, -5494.13, -4642.12, 51501.52, -11163.29, 0.00, 0.00, 0.00, 0.00
190, 48884.47, 48932.39, -11829.12, -5461.13, -4632.60, 50739.26, -11104.95, 0.00, 0.00, 0.00, 0.00
191, 48827.29, 48918.33, -11821.48, -5439.70, -4596.35, 50648.40, -11100.03, 0.00, 0.08, 0.95, 0.26
192, 49231.53, 49027.95, -11838.42, -5469.00, -4586.78, 51555.46, -11150.48, 0.00, 0.00, 0.00, 0.00
193, 49252.31, 49025.27, -11876.24, -5507.74, -4649.16, 51620.41, -11185.62, 0.00, 0.00, 0.00, 0.00
194, 48915.00, 48923.07, -11863.77, -5476.96, -4649.10, 50840.76, -11135.66, 0.00, 0.00, 0.00, 0.00
195, 48776.27, 48890.08, -11837.93, -5441.31, -4620.13, 50571.29, -11118.94, 0.00, 0.00, 0.00, 0.00
196, 49155.69, 49003.89, -11831.45, -5450.45, -4591.65, 51382.86, -11157.32, 0.00, 0.00, 0.00, 0.00
197, 49295.00, 49034.29, -11865.51, -5489.16, -4645.07, 51714.96, -11179.81, 0.00, 0.00, 0.00, 0.00
198, 48988.38, 48946.05, -11857.71, -5468.82, -4659.04, 50987.30, -11153.45, 0.00, 0.00, 0.00, 0.00
199, 48785.07, 48901.66, -11837.46, -5418.89, -4623.82, 50550.37, -11121.15, 0.00, 0.00, 0.00, 0.00
200, 49096.50, 48997.14, -11836.19, -5454.50, -4585.77, 51211.11, -11136.96, 0.00, 0.00, 0.00, 0.00
201, 49332.85, 49056.55, -11870.97, -5496.67, -4634.57, 51771.09, -11186.31, 0.00, 0.08, 0.96, 0.26
202, 49052.78, 48971.04, -11872.84, -5492.83, -4655.87, 51116.20, -11164.90, 0.00, 0.00, 0.00, 0.00
203, 48789.68, 48896.96, -11857.80, -5456.84, -4636.96, 50546.34, -11158.97, 0.00, 0.00, 0.00, 0.00
204, 49002.15, 48970.55, -11825.70, -5432.64, -4595.00, 51015.31, -11110.07, 0.00, 0.00, 0.00, 0.00
205, 49338.34, 49069.10, -11845.91, -5472.02, -4620.82, 51787.71, -11149.14, 0.00, 0.00, 0.00, 0.00
206, 49124.02, 49002.93, -11877.31, -5480.02, -4665.32, 51276.33, -11171.94, 0.00, 0.00, 0.00, 0.00
207, 48817.28, 48911.11, -11861.47, -5458.94, -4664.36, 50606.94, -11160.32, 0.00, 0.00, 0.00, 0.00
208, 48924.82, 48956.55, -11833.46, -5433.57, -4605.29, 50871.36, -11095.85, 0.00, 0.00, 0.00, 0.00
209, 49313.49, 49062.52, -11848.55, -5473.94, -4612.66, 51753.94, -11140.58, 0.00, 0.00, 0.00, 0.00
210, 49170.71, 49013.73, -11860.75, -5493.66, -4653.54, 51410.98, -11161.99, 0.00, 0.07, 0.95, 0.26
211, 48840.55, 48904.00, -11839.65, -5471.28, -4643.60, 50675.80, -11119.46, 0.00, 0.00, 0.00, 0.00
212, 48849.94, 48904.00, -11804.83, -5452.62, -4604.62, 50721.74, -11103.74, 0.00, 0.00, 0.00, 0.00
213, 49269.95, 49014.45, -11827.98, -5489.59, -4601.62, 51641.76, -11163.42, 0.00, 0.00, 0.00, 0.00
214, 49220.64, 48995.89, -11858.63, -5512.41, -4651.53, 51544.06, -11156.45, 0.00, 0.00, 0.00, 0.00
215, 48885.07, 48888.49, -11842.54, -5494.64, -4645.83, 50765.93, -11123.57, 0.00, 0.00, 0.00, 0.00
216, 48803.54, 48863.59, -11820.76, -5496.43, -4613.67, 50602.65, -11127.95, 0.00, 0.00, 0.00, 0.00
217, 49212.55, 48977.25, -11813.72, -5518.47, -4595.03, 51480.34, -11167.62, 0.00, 0.00, 0.00, 0.00
218, 49271.20, 48979.93, -11848.35, -5553.72, -4644.49, 51626.25, -11193.62, 0.00, 0.00, 0.00, 0.00
219, 48944.04, 48880.85, -11848.70, -5527.54, -4648.89, 50842.24, -11162.73, 0.00, 0.00, 0.00, 0.00
220, 48789.90, 48855.43, -11821.55, -5501.77, -4625.29, 50522.45, -11100.90, 0.00, 0.07, 0.96, 0.27
221, 49146.34, 48962.19, -11819.78, -5535.10, -4599.85, 51302.57, -11162.77, 0.00, 0.00, 0.00, 0.00
222, 49302.14, 48978.75, -11844.95, -5592.07, -4642.81, 51677.61, -11187.70, 0.00, 0.00, 0.00, 0.00
223, 49013.91, 48885.97, -11836.48, -5567.28, -4663.53, 50994.25, -11149.52, 0.00, 0.00, 0.00, 0.00
224, 48781.14, 48825.77, -11835.94, -5533.53, -4640.20, 50517.78, -11151.64, 0.00, 0.00, 0.00, 0.00
225, 49033.85, 48919.68, -11826.60, -5519.07, -4594.04, 51100.36, -11174.55, 0.00, 0.00, 0.00, 0.00
226, 49306.47, 48987.45, -11819.54, -5587.87, -4628.20, 51711.63, -11197.20, 0.00, 0.00, 0.00, 0.00
227, 49062.37, 48880.83, -11840.93, -5579.31, -4659.11, 51125.93, -11164.79, 0.00, 0.00, 0.00, 0.00
228, 48791.58, 48786.91, -11832.48, -5570.37, -4648.18, 50525.54, -11146.37, 0.00, 0.00, 0.00, 0.00
229, 48947.77, 48853.27, -11807.67, -5567.55, -4606.23, 50905.11, -11170.22, 0.00, 0.00, 0.00, 0.00
230, 49288.72, 48946.27, -11817.37, -5599.11, -4625.96, 51699.34, -11206.78, 0.00, 0.04, 0.96, 0.26
231, 49110.43, 48901.64, -11814.28, -5609.77, -4663.71, 51270.88, -11173.46, 0.00, 0.00, 0.00, 0.00
232, 48805.01, 48823.25, -11826.73, -5576.63, -4636.69, 50583.20, -11131.88, 0.00, 0.00, 0.00, 0.00
233, 48875.46, 48853.89, -11812.65, -5558.77, -4597.78, 50754.30, -11139.71, 0.00, 0.00, 0.00, 0.00
234, 49279.80, 48966.66, -11813.17, -5575.55, -4602.07, 51629.91, -11184.57, 0.00, 0.00, 0.00, 0.00
235, 49186.20, 48921.62, -11844.01, -5608.21, -4654.39, 51391.44, -11184.23, 0.00, 0.00, 0.00, 0.00
236, 48849.63, 48822.09, -11838.78, -5590.53, -4649.36, 50651.40, -11167.96, 0.00, 0.00, 0.00, 0.00
237, 48798.24, 48820.21, -11824.07, -5570.81, -4613.96, 50627.10, -11156.98, 0.00, 0.00, 0.00, 0.00
238, 49204.10, 48936.75, -11823.11, -5599.40, -4602.27, 51531.01, -11177.01, 0.00, 0.00, 0.00, 0.00
239, 49206.16, 48922.00, -11848.26, -5641.36, -4644.49, 51507.67, -11155.84, 0.00, 0.00, 0.00, 0.00
240, 48885.12, 48829.66, -11835.83, -5618.00, -4645.50, 50747.20, -11136.78, 0.00, 0.02, 0.96, 0.26
241, 48767.57, 48794.93, -11807.58, -5582.50, -4617.33, 50533.25, -11124.04, 0.00, 0.00, 0.00, 0.00
242, 49152.80, 48919.41, -11803.35, -5582.10, -4592.79, 51388.76, -11145.41, 0.00, 0.00, 0.00, 0.00
243, 49247.20, 48939.90, -11847.47, -5630.63, -4644.74, 51595.80, -11179.96, 0.00, 0.00, 0.00, 0.00
244, 48930.74, 48841.89, -11840.97, -5607.43, -4648.13, 50870.91, -11159.64, 0.00, 0.00, 0.00, 0.00
245, 48736.41, 48796.18, -11822.31, -5567.46, -4625.49, 50514.67, -11152.67, 0.00, 0.00, 0.00, 0.00
246, 49063.80, 48908.92, -11823.45, -5500.23, -4588.72, 51234.69, -11172.61, 0.00, 0.00, 0.00, 0.00
247, 49267.31, 48934.94, -11840.63, -5423.90, -4630.52, 51703.25, -11195.23, 0.00, 0.00, 0.00, 0.00
248, 48992.77, 48847.75, -11820.74, -5429.44, -4640.58, 51050.15, -11151.11, 0.00, 0.00, 0.00, 0.00
249, 48748.17, 48783.11, -11814.95, -5393.92, -4618.18, 50551.17, -11124.13, 0.00, -0.02, 0.95, 0.24
250, 48979.89, 48868.85, -11792.65, -5361.76, -4589.68, 51098.72, -11153.65, 0.00, 0.00, 0.00, 0.00
251, 49271.65, 48947.35, -11829.93, -5417.03, -4637.43, 51751.02, -11232.80, 0.00, 0.00, 0.00, 0.00
252, 49048.62, 48872.07, -11847.12, -5413.37, -4672.94, 51188.38, -11202.90, 0.00, 0.00, 0.00, 0.00
253, 48759.48, 48800.54, -11832.30, -5369.81, -4642.14, 50595.16, -11089.62, 0.00, 0.00, 0.00, 0.00
254, 48889.57, 48849.24, -11810.62, -5346.78, -4587.61, 50948.25, -11109.08, 0.00, 0.00, 0.00, 0.00
255, 49244.58, 48953.22, -11827.20, -5379.37, -4607.95, 51761.63, -11146.97, 0.00, 0.00, 0.00, 0.00
0, 49089.70, 48899.87, -11839.58, -5384.58, -4650.15, 51347.16, -11164.50, 0.00, 0.00, 0.00, 0.00
1, 48777.61, 48797.01, -11820.94, -5367.64, -4641.25, 50647.64, -11129.45, 0.00, 0.00, 0.00, 0.00
2, 48819.98, 48832.50, -11780.31, -5317.52, -4607.43, 50802.41, -11124.62, 0.00, 0.00, 0.00, 0.00
3, 49220.26, 48954.36, -11805.48, -5349.93, -4615.32, 51699.67, -11162.48, 0.00, 0.03, 0.96, 0.25
4, 49154.26, 48915.52, -11843.50, -5398.77, -4664.05, 51490.06, -11149.52, 0.00, 0.00, 0.00, 0.00
5, 48834.52, 48810.02, -11824.83, -5380.20, -4650.82, 50748.09, -11112.42, 0.00, 0.00, 0.00, 0.00
6, 48773.16, 48814.60, -11787.68, -5349.58, -4618.97, 50685.24, -11121.47, 0.00, 0.00, 0.00, 0.00
7, 49175.51, 48937.06, -11794.05, -5370.07, -4603.79, 51592.65, -11177.93, 0.00, 0.00, 0.00, 0.00
8, 49204.14, 48941.51, -11849.24, -5408.59, -4651.02, 51592.61, -11195.99, 0.00, 0.00, 0.00, 0.00
9, 48878.73, 48839.10, -11838.58, -5369.20, -4648.96, 50835.66, -11129.76, 0.00, 0.00, 0.00, 0.00
10, 48728.63, 48791.55, -11822.31, -5319.94, -4617.29, 50619.12, -11103.70, 0.00, 0.00, 0.00, 0.00
11, 49098.76, 48920.43, -11814.39, -5357.62, -4593.37, 51459.05, -11151.98, 0.00, 0.00, 0.00, 0.00
12, 49227.50, 48950.03, -11832.83, -5386.93, -4643.55, 51723.95, -11181.68, 0.00, 0.00, 0.00, 0.00
13, 48920.08, 48848.89, -11855.97, -5346.43, -4658.89, 50974.74, -11164.63, 0.00, 0.06, 0.95, 0.26
14, 48715.02, 48796.81, -11834.44, -5374.45, -4635.37, 50589.42, -11136.24, 0.00, 0.00, 0.00, 0.00
15, 49017.39, 48909.93, -11816.18, -5373.47, -4589.98, 51285.76, -11162.62, 0.00, 0.00, 0.00, 0.00
16, 49245.41, 48961.90, -11838.49, -5419.78, -4626.94, 51794.42, -11210.81, 0.00, 0.00, 0.00, 0.00
17, 48986.26, 48870.95, -11845.78, -5405.61, -4650.24, 51117.07, -11156.96, 0.00, 0.00, 0.00, 0.00
18, 48728.54, 48799.20, -11841.13, -5373.34, -4628.35, 50583.76, -11106.96, 0.00, 0.00, 0.00, 0.00
19, 48930.31, 48868.36, -11825.57, -5364.40, -4591.92, 51109.36, -11129.49, 0.00, 0.00, 0.00, 0.00
20, 49241.76, 48951.19, -11841.22, -5408.14, -4628.46, 51825.18, -11168.41, 0.00, 0.00, 0.00, 0.00
21, 49045.13, 48881.12, -11847.21, -5409.84, -4651.24, 51263.12, -11134.01, 0.00, 0.00, 0.00, 0.00
22, 48753.36, 48799.96, -11846.27, -5374.10, -4635.89, 50616.73, -11116.95, 0.00, 0.00, 0.00, 0.00
23, 48856.80, 48851.82, -11832.14, -5349.87, -4600.41, 50942.55, -11133.22, 0.00, 0.09, 0.96, 0.25
24, 49221.20, 48945.40, -11861.15, -5389.81, -4630.99, 51808.79, -11201.33, 0.00, 0.00, 0.00, 0.00
25, 49073.34, 48885.39, -11876.69, -5415.43, -4670.87, 51407.42, -11198.18, 0.00, 0.00, 0.00, 0.00
26, 48749.31, 48783.93, -11860.17, -5391.80, -4657.39, 50669.79, -11140.02, 0.00, 0.00, 0.00, 0.00
27, 48759.17, 48803.20, -11845.33, -5361.71, -4632.22, 50780.73, -11145.12, 0.00, 0.00, 0.00, 0.00
28, 49164.14, 48904.39, -11837.59, -5417.59, -4613.60, 51739.19, -11190.53, 0.00, 0.00, 0.00, 0.00
29, 49117.18, 48871.24, -11861.69, -5450.83, -4651.04, 51560.46, -11191.58, 0.00, 0.00, 0.00, 0.00
30, 48775.35, 48761.31, -11880.98, -5434.36, -4651.22, 50761.50, -11154.19, 0.00, 0.00, 0.00, 0.00
31, 48698.14, 48770.34, -11846.40, -5403.44, -4614.00, 50663.45, -11137.27, 0.00, 0.00, 0.00, 0.00
32, 49100.54, 48875.15, -11841.46, -5418.64, -4591.54, 51607.88, -11175.22, 0.00, 0.00, 0.00, 0.00
33, 49148.73, 48880.94, -11886.21, -5468.38, -4646.41, 51674.80, -11204.77, 0.00, 0.07, 0.93, 0.25
34, 48842.67, 48779.51, -11862.61, -5440.93, -4641.47, 50878.89, -11155.82, 0.00, 0.00, 0.00, 0.00
35, 48691.98, 48781.74, -11853.55, -5396.81, -4610.43, 50613.20, -11111.70, 0.00, 0.00, 0.00, 0.00
36, 49027.05, 48857.20, -11862.90, -5396.83, -4586.65, 51464.98, -11145.14, 0.00, 0.00, 0.00, 0.00
37, 49180.50, 48877.32, -11897.03, -5456.31, -4639.22, 51790.31, -11191.34, 0.00, 0.00, 0.00, 0.00
38, 48899.94, 48793.52, -11850.47, -5450.72, -4635.84, 51007.21, -11171.16, 0.00, 0.00, 0.00, 0.00
39, 48687.89, 48732.30, -11839.43, -5404.67, -4605.38, 50569.55, -11124.93, 0.00, 0.00, 0.00, 0.00
40, 48966.84, 48843.48, -11831.52, -5387.46, -4572.52, 51281.67, -11138.19, 0.00, 0.00, 0.00, 0.00
41, 49217.36, 48900.45, -11854.58, -5491.35, -4612.68, 51842.54, -11185.55, 0.00, 0.00, 0.00, 0.00
42, 48964.60, 48802.95, -11855.61, -5477.05, -4629.00, 51138.80, -11122.90, 0.00, 0.10, 0.95, 0.24
43, 48699.13, 48747.30, -11821.64, -5426.44, -4596.19, 50583.92, -11107.97, 0.00, 0.00, 0.00, 0.00
44, 48874.12, 48842.49, -11821.99, -5409.88, -4559.60, 51096.00, -11144.00, 0.00, 0.00, 0.00, 0.00
45, 49200.43, 48906.22, -11864.60, -5457.47, -4595.12, 51871.40, -11153.88, 0.00, 0.00, 0.00, 0.00
46, 49023.10, 48822.98, -11872.73, -5474.75, -4623.17, 51311.58, -11135.95, 0.00, 0.00, 0.00, 0.00
47, 48719.29, 48743.07, -11863.17, -5442.05, -4608.68, 50612.11, -11123.68, 0.00, 0.00, 0.00, 0.00
48, 48797.95, 48789.14, -11843.54, -5428.95, -4578.20, 50906.61, -11145.76, 0.00, 0.00, 0.00, 0.00
49, 49173.57, 48897.73, -11863.23, -5479.02, -4595.23, 51842.52, -11157.28, 0.00, 0.00, 0.00, 0.00
50, 49064.00, 48841.76, -11879.28, -5504.27, -4628.80, 51461.71, -11140.04, 0.00, 0.00, 0.00, 0.00
51, 48747.45, 48736.01, -11867.43, -5476.65, -4624.02, 50679.96, -11112.10, 0.00, 0.00, 0.00, 0.00
52, 48731.70, 48752.73, -11851.41, -5442.60, -4601.64, 50761.73, -11124.73, 0.00, 0.13, 0.95, 0.23
53, 49128.33, 48886.73, -11862.52, -5468.33, -4592.88, 51751.28, -11169.01, 0.00, 0.00, 0.00, 0.00
54, 49102.49, 48843.32, -11877.81, -5533.87, -4624.53, 51580.49, -11163.96, 0.00, 0.00, 0.00, 0.00
55, 48778.84, 48723.54, -11864.46, -5509.97, -4644.69, 50747.04, -11151.98, 0.00, 0.00, 0.00, 0.00
56, 48692.98, 48738.56, -11838.82, -5472.44, -4610.87, 50639.62, -11125.60, 0.00, 0.00, 0.00, 0.00
57, 49080.32, 48861.70, -11826.96, -5474.97, -4563.15, 51624.86, -11156.40, 0.00, 0.00, 0.00, 0.00
58, 49158.50, 48863.68, -11873.18, -5501.14, -4602.63, 51733.29, -11185.10, 0.00, 0.00, 0.00, 0.00
59, 48843.28, 48755.55, -11865.58, -5492.14, -4607.61, 50886.23, -11168.56, 0.00, 0.00, 0.00, 0.00
60, 48673.18, 48730.54, -11836.08, -5453.13, -4583.85, 50588.90, -11128.24, 0.00, 0.00, 0.00, 0.00
61, 49000.97, 48848.17, -11831.60, -5458.01, -4561.19, 51461.52, -11123.21, 0.00, 0.00, 0.00, 0.00
62, 49163.80, 48868.06, -11870.34, -5524.57, -4610.56, 51845.52, -11172.32, 0.00, 0.16, 0.93, 0.22
63, 48886.97, 48774.70, -11858.40, -5494.66, -4616.84, 51036.16, -11149.18, 0.00, 0.00, 0.00, 0.00
64, 48659.77, 48715.18, -11842.94, -5466.30, -4596.68, 50569.30, -11132.11, 0.00, 0.00, 0.00, 0.00
65, 48905.21, 48809.86, -11845.28, -5473.25, -4580.23, 51258.11, -11180.86, 0.00, 0.00, 0.00, 0.00
66, 49176.94, 48872.29, -11872.53, -5526.16, -4617.18, 51887.72, -11211.25, 0.00, 0.00, 0.00, 0.00
67, 48957.89, 48793.59, -11865.02, -5504.21, -4638.19, 51180.55, -11161.59, 0.00, 0.00, 0.00, 0.00
68, 48693.25, 48725.75, -11835.65, -5456.91, -4613.42, 50592.39, -11103.72, 0.00, 0.00, 0.00, 0.00
69, 48845.36, 48785.18, -11828.03, -5466.07, -4591.74, 51069.09, -11143.37, 0.00, 0.00, 0.00, 0.00
70, 49172.76, 48876.80, -11874.72, -5520.14, -4636.56, 51881.37, -11230.16, 0.00, 0.00, 0.00, 0.00
71, 48997.79, 48808.39, -11897.70, -5553.09, -4680.14, 51311.42, -11222.83, 0.00, 0.00, 0.00, 0.00
72, 48699.22, 48722.09, -11880.58, -5514.11, -4673.66, 50586.87, -11168.21, 0.00, 0.18, 0.96, 0.21
73, 48741.15, 48733.53, -11890.55, -5503.83, -4661.08, 50820.63, -11202.49, 0.00, 0.00, 0.00, 0.00
74, 49121.06, 48852.20, -11921.91, -5553.34, -4680.30, 51754.14, -11278.04, 0.00, 0.00, 0.00, 0.00
75, 49048.04, 48803.78, -11940.39, -5583.29, -4719.50, 51389.54, -11283.14, 0.00, 0.00, 0.00, 0.00
76, 48701.07, 48681.61, -11927.18, -5570.08, -4711.05, 50574.04, -11248.31, 0.00, 0.00, 0.00, 0.00
77, 48622.29, 48658.45, -11931.85, -5551.23, -4702.56, 50593.86, -11253.57, 0.00, 0.00, 0.00, 0.00
78, 49010.20, 48773.14, -11952.35, -5597.75, -4711.23, 51576.36, -11303.03, 0.00, 0.00, 0.00, 0.00
79, 49002.35, 48739.25, -11992.51, -5654.45, -4755.83, 51469.20, -11323.64, 0.00, 0.00, 0.00, 0.00
80, 48686.50, 48621.59, -11986.99, -5615.52, -4751.47, 50612.59, -11287.36, 0.00, 0.00, 0.00, 0.00
81, 48558.47, 48606.79, -11969.40, -5616.95, -4734.37, 50447.33, -11274.76, 0.00, 0.00, 0.00, 0.00
82, 48931.83, 48753.42, -11970.86, -5626.56, -4721.29, 51418.00, -11312.58, 0.00, 0.20, 0.97, 0.19
83, 49028.13, 48758.96, -12003.20, -5674.62, -4774.91, 51559.57, -11325.54, 0.00, 0.00, 0.00, 0.00
84, 48709.19, 48627.00, -12005.66, -5663.42, -4804.71, 50675.29, -11301.40, 0.00, 0.00, 0.00, 0.00
85, 48522.28, 48597.27, -11978.32, -5617.08, -4761.17, 50361.52, -11268.09, 0.00, 0.00, 0.00, 0.00
86, 48828.64, 48710.24, -11980.40, -5623.85, -4743.76, 51229.57, -11313.25, 0.00, 0.00, 0.00, 0.00
87, 49019.12, 48731.76, -12031.92, -5690.28, -4802.88, 51650.41, -11368.45, 0.00, 0.00, 0.00, 0.00
88, 48757.02, 48638.13, -12024.48, -5677.88, -4815.53, 50826.68, -11336.04, 0.00, 0.00, 0.00, 0.00
89, 48528.99, 48591.26, -11993.41, -5625.40, -4786.60, 50339.23, -11289.80, 0.00, 0.00, 0.00, 0.00
90, 48761.22, 48704.88, -11988.33, -5585.12, -4746.97, 51032.38, -11297.55, 0.00, 0.00, 0.00, 0.00
91, 49057.85, 48790.01, -12005.77, -5641.11, -4765.19, 51719.32, -11323.59, 0.00, 0.21, 0.94, 0.19
92, 48857.43, 48705.07, -11990.71, -5633.33, -4774.11, 51005.41, -11289.93, 0.00, 0.00, 0.00, 0.00
93, 48598.99, 48666.96, -11955.30, -5562.63, -4742.37, 50385.79, -11244.07, 0.00, 0.00, 0.00, 0.00
94, 48750.63, 48747.27, -11937.37, -5559.57, -4699.03, 50876.12, -11245.77, 0.00, 0.00, 0.00, 0.00
95, 49109.26, 48850.32, -11946.69, -5585.95, -4708.06, 51773.70, -11302.00, 0.00, 0.00, 0.00, 0.00
96, 48973.70, 48787.17, -11945.13, -5591.11, -4721.90, 51218.39, -11265.70, 0.00, 0.00, 0.00, 0.00
97, 48680.38, 48710.06, -11912.52, -5541.31, -4685.57, 50473.88, -11195.88, 0.00, 0.00, 0.00, 0.00
98, 48726.62, 48761.54, -11890.77, -5516.72, -4644.67, 50735.55, -11182.29, 0.00, 0.00, 0.00, 0.00
99, 49126.63, 48895.89, -11905.01, -5539.25, -4657.21, 51768.20, -11240.94, 0.00, 0.00, 0.00, 0.00
100, 49066.61, 48844.44, -11918.04, -5549.02, -4680.83, 51436.73, -11210.96, 0.00, 0.00, 0.00, 0.00
101, 48753.49, 48753.87, -11887.08, -5500.79, -4654.95, 50615.79, -11172.61, 0.00, 0.22, 0.97, 0.19
102, 48703.02, 48772.76, -11868.02, -5471.91, -4618.07, 50655.15, -11152.31, 0.00, 0.00, 0.00, 0.00
103, 49094.33, 48908.52, -11865.80, -5487.60, -4611.54, 51696.48, -11190.49, 0.00, 0.00, 0.00, 0.00
104, 49126.92, 48872.04, -11880.00, -5510.73, -4641.72, 51608.72, -11213.85, 0.00, 0.00, 0.00, 0.00
105, 48819.70, 48770.01, -11869.47, -5503.76, -4626.81, 50724.78, -11177.26, 0.00, 0.00, 0.00, 0.00
106, 48683.53, 48779.37, -11850.31, -5479.06, -4599.25, 50560.96, -11149.92, 0.00, 0.00, 0.00, 0.00
107, 49033.13, 48897.08, -11845.58, -5483.67, -4575.20, 51547.08, -11187.90, 0.00, 0.00, 0.00, 0.00
108, 49158.95, 48918.58, -11854.14, -5523.76, -4606.81, 51743.50, -11220.22, 0.00, 0.00, 0.00, 0.00
109, 48870.75, 48806.39, -11845.17, -5506.80, -4614.61, 50872.55, -11175.09, 0.00, 0.00, 0.00, 0.00
110, 48666.70, 48746.45, -11826.78, -5462.30, -4581.71, 50521.49, -11127.79, 0.00, 0.00, 0.00, 0.00
111, 48955.08, 48867.80, -11819.87, -5449.11, -4547.93, 51373.00, -11138.05, 0.00, 0.21, 0.98, 0.17
112, 49185.19, 48921.66, -11841.80, -5514.26, -4584.54, 51868.99, -11187.52, 0.00, 0.00, 0.00, 0.00
113, 48933.87, 48811.45, -11834.22, -5492.99, -4594.56, 51061.08, -11173.82, 0.00, 0.00, 0.00, 0.00
114, 48684.63, 48758.34, -11816.36, -5462.14, -4575.65, 50540.49, -11146.10, 0.00, 0.00, 0.00, 0.00
115, 48882.10, 48849.13, -11810.59, -5446.58, -4550.35, 51186.48, -11184.03, 0.00, 0.00, 0.00, 0.00
116, 49191.29, 48927.25, -11841.26, -5500.90, -4581.75, 51928.87, -11231.30, 0.00, 0.00, 0.00, 0.00
117, 49002.42, 48849.89, -11831.65, -5508.39, -4593.64, 51237.48, -11154.79, 0.00, 0.00, 0.00, 0.00
118, 48716.27, 48768.46, -11806.10, -5457.63, -4568.50, 50576.50, -11098.65, 0.00, 0.00, 0.00, 0.00
119, 48814.22, 48818.13, -11798.97, -5426.94, -4546.68, 51005.92, -11116.06, 0.00, 0.00, 0.00, 0.00
120, 49178.73, 48941.04, -11810.73, -5443.32, -4558.10, 51927.95, -11176.34, 0.00, 0.00, 0.00, 0.00
121, 49058.32, 48874.14, -11813.81, -5499.47, -4581.86, 51404.54, -11164.63, 0.00, 0.23, 0.98, 0.16
122, 48748.26, 48775.62, -11807.26, -5471.57, -4570.28, 50631.35, -11128.35, 0.00, 0.00, 0.00, 0.00
123, 48753.87, 48807.20, -11797.52, -5438.69, -4546.37, 50816.13, -11138.32, 0.00, 0.00, 0.00, 0.00
124, 49135.37, 48930.09, -11809.03, -5469.63, -4547.82, 51850.32, -11177.08, 0.00, 0.00, 0.00, 0.00
125, 49099.02, 48886.59, -11832.03, -5502.33, -4584.21, 51573.47, -11181.44, 0.00, 0.00, 0.00, 0.00
126, 48785.34, 48786.12, -11814.60, -5463.19, -4573.75, 50715.86, -11148.33, 0.00, 0.00, 0.00, 0.00
127, 48707.82, 48796.96, -11788.40, -5415.18, -4539.62, 50684.77, -11134.36, 0.00, 0.00, 0.00, 0.00
128, 49092.90, 48939.39, -11798.32, -5443.48, -4535.62, 51736.60, -11165.72, 0.00, 0.00, 0.00, 0.00
129, 49156.36, 48927.14, -11809.32, -5492.72, -4574.75, 51726.56, -11185.62, 0.00, 0.00, 0.00, 0.00
130, 48864.31, 48815.18, -11789.72, -5431.83, -4564.65, 50838.80, -11153.12, 0.00, 0.22, 0.97, 0.16
131, 48708.27, 48799.33, -11794.97, -5422.04, -4547.84, 50614.32, -11131.88, 0.00, 0.00, 0.00, 0.00
132, 49026.79, 48925.13, -11803.46, -5450.56, -4530.63, 51571.93, -11146.75, 0.00, 0.00, 0.00, 0.00
133, 49188.48, 48944.35, -11820.00, -5487.78, -4565.28, 51857.77, -11167.96, 0.00, 0.00, 0.00, 0.00
134, 48916.41, 48855.35, -11806.73, -5453.33, -4568.45, 50985.64, -11143.10, 0.00, 0.00, 0.00, 0.00
135, 48696.09, 48807.74, -11784.49, -5411.22, -4538.28, 50580.27, -11127.35, 0.00, 0.00, 0.00, 0.00
136, 48955.82, 48913.17, -11776.93, -5411.85, -4513.06, 51383.35, -11155.51, 0.00, 0.00, 0.00, 0.00
137, 49208.86, 48959.24, -11812.47, -5476.85, -4550.26, 51935.59, -11192.68, 0.00, 0.00, 0.00, 0.00
138, 48966.55, 48851.88, -11820.90, -5471.84, -4566.89, 51144.12, -11133.22, 0.00, 0.00, 0.00, 0.00
139, 48705.97, 48795.33, -11796.96, -5423.87, -4540.76, 50590.87, -11095.14, 0.00, 0.00, 0.00, 0.00
140, 48887.87, 48892.94, -11781.83, -5406.10, -4506.36, 51205.21, -11125.94, 0.00, 0.21, 0.95, 0.16
141, 49211.12, 48974.97, -11810.82, -5461.92, -4537.36, 52008.80, -11191.94, 0.00, 0.00, 0.00, 0.00
142, 49031.07, 48891.94, -11806.35, -5481.81, -4554.48, 51327.76, -11164.23, 0.00, 0.00, 0.00, 0.00
143, 48736.70, 48812.30, -11791.71, -5439.14, -4538.32, 50638.21, -11119.34, 0.00, 0.00, 0.00, 0.00
144, 48816.12, 48860.09, -11786.66, -5417.53, -4518.05, 51022.35, -11132.40, 0.00, 0.00, 0.00, 0.00
145, 49198.02, 48984.20, -11791.21, -5419.76, -4528.17, 52001.42, -11179.87, 0.00, 0.00, 0.00, 0.00
146, 49096.45, 48919.65, -11801.52, -5481.18, -4554.82, 51512.01, -11175.45, 0.00, 0.00, 0.00, 0.00
147, 48785.41, 48826.00, -11783.64, -5457.29, -4537.94, 50704.48, -11132.11, 0.00, 0.00, 0.00, 0.00
148, 48770.36, 48853.56, -11771.70, -5423.38, -4508.77, 50863.47, -11122.21, 0.00, 0.00, 0.00, 0.00
149, 49167.58, 48993.52, -11778.90, -5441.91, -4510.13, 51929.88, -11165.08, 0.00, 0.00, 0.00, 0.00
150, 49152.02, 48959.28, -11790.86, -5468.98, -4542.61, 51701.55, -11165.32, 0.00, 0.20, 0.96, 0.15
151, 48829.35, 48843.41, -11774.54, -5441.40, -4530.52, 50821.59, -11138.28, 0.00, 0.00, 0.00, 0.00
152, 48734.65, 48850.68, -11761.02, -5406.75, -4506.13, 50752.83, -11134.83, 0.00, 0.00, 0.00, 0.00
153, 49118.43, 49017.35, -11765.09, -5425.68, -4506.07, 51801.21, -11150.84, 0.00, 0.00, 0.00, 0.00
154, 49186.38, 48960.58, -11790.81, -5490.86, -4543.91, 51847.57, -11172.79, 0.00, 0.00, 0.00, 0.00
155, 48884.27, 48857.52, -11779.86, -5454.61, -4542.48, 50961.68, -11162.66, 0.00, 0.00, 0.00, 0.00
156, 48711.36, 48832.61, -11764.21, -5422.60, -4524.48, 50696.13, -11139.80, 0.00, 0.00, 0.00, 0.00
157, 49033.71, 48957.52, -11764.28, -5430.45, -4509.91, 51628.30, -11172.76, 0.00, 0.00, 0.00, 0.00
158, 49210.23, 48981.48, -11788.85, -5483.91, -4539.75, 51977.66, -11154.75, 0.00, 0.00, 0.00, 0.00
159, 48943.34, 48878.50, -11771.19, -5466.21, -4531.23, 51113.36, -11118.67, 0.00, 0.00, 0.00, 0.00
160, 48716.59, 48831.47, -11759.39, -5413.91, -4516.77, 50683.59, -11112.33, 0.00, 0.21, 0.98, 0.15
161, 48963.62, 48939.57, -11745.46, -5414.91, -4487.05, 51461.27, -11146.75, 0.00, 0.00, 0.00, 0.00
162, 49232.38, 49003.67, -11766.56, -5480.96, -4523.23, 52072.97, -11183.78, 0.00, 0.00, 0.00, 0.00
163, 49009.02, 48908.57, -11762.99, -5474.25, -4535.12, 51286.32, -11147.44, 0.00, 0.00, 0.00, 0.00
164, 48737.60, 48829.02, -11740.97, -5428.93, -4516.01, 50699.30, -11115.81, 0.00, 0.00, 0.00, 0.00
165, 48893.07, 48929.15, -11732.25, -5411.58, -4493.17, 51273.20, -11133.43, 0.00, 0.00, 0.00, 0.00
166, 49223.82, 49019.03, -11762.47, -5461.85, -4517.02, 52125.68, -11180.10, 0.00, 0.00, 0.00, 0.00
167, 49061.59, 48930.89, -11771.75, -5455.26, -4528.84, 51491.33, -11160.58, 0.00, 0.00, 0.00, 0.00
168, 48762.88, 48854.86, -11755.90, -5425.28, -4510.20, 50763.13, -11119.08, 0.00, 0.00, 0.00, 0.00
169, 48823.11, 48908.03, -11743.20, -5416.03, -4489.28, 51102.25, -11106.49, 0.00, 0.00, 0.00, 0.00
170, 49207.50, 49027.86, -11753.69, -5457.94, -4497.55, 52100.42, -11158.13, 0.00, 0.20, 0.97, 0.15
171, 49124.68, 48974.01, -11767.57, -5486.82, -4524.28, 51649.61, -11194.04, 0.00, 0.00, 0.00, 0.00
172, 48816.92, 48875.89, -11760.17, -5442.94, -4516.48, 50823.46, -11144.85, 0.00, 0.00, 0.00, 0.00
173, 48780.58, 48900.45, -11755.72, -5416.03, -4495.90, 50941.23, -11105.55, 0.00, 0.00, 0.00, 0.00
174, 49168.56, 49025.24, -11761.24, -5438.60, -4491.90, 52012.24, -11151.15, 0.00, 0.00, 0.00, 0.00
175, 49190.02, 48981.43, -11774.00, -5476.11, -4523.77, 51828.64, -11181.71, 0.00, 0.00, 0.00, 0.00
176, 48868.96, 48883.71, -11751.65, -5442.00, -4507.81, 50939.07, -11128.49, 0.00, 0.00, 0.00, 0.00
177, 48740.57, 48879.35, -11737.57, -5405.97, -4476.63, 50827.08, -11100.17, 0.00, 0.00, 0.00, 0.00
178, 49103.61, 49018.98, -11747.61, -5426.69, -4474.71, 51857.86, -11156.36, 0.00, 0.00, 0.00, 0.00
179, 49201.42, 49013.71, -11778.27, -5477.16, -4514.72, 51973.01, -11180.23, 0.00, 0.20, 0.98, 0.15
180, 48907.71, 48883.51, -11763.92, -5456.75, -4508.48, 51069.31, -11134.54, 0.00, 0.00, 0.00, 0.00
181, 48713.30, 48838.85, -11748.28, -5423.56, -4496.25, 50763.69, -11117.18, 0.00, 0.00, 0.00, 0.00
182, 49024.06, 48971.87, -11737.01, -5397.86, -4469.25, 51665.54, -11142.99, 0.00, 0.00, 0.00, 0.00
183, 49231.68, 49007.23, -11766.16, -5469.58, -4501.51, 52076.93, -11174.69, 0.00, 0.00, 0.00, 0.00
184, 48968.45, 48888.32, -11757.33, -5470.68, -4510.76, 51205.77, -11145.56, 0.00, 0.00, 0.00, 0.00
185, 48723.89, 48832.88, -11738.98, -5427.54, -4499.20, 50727.46, -11127.35, 0.00, 0.00, 0.00, 0.00
186, 48943.59, 48940.68, -11743.65, -5426.65, -4472.79, 51449.60, -11138.61, 0.00, 0.00, 0.00, 0.00
187, 49235.68, 49004.03, -11770.09, -5454.83, -4500.12, 52133.50, -11183.47, 0.00, 0.00, 0.00, 0.00
188, 49024.30, 48912.39, -11770.94, -5475.66, -4514.52, 51369.40, -11156.67, 0.00, 0.00, 0.00, 0.00
189, 48746.70, 48842.09, -11752.17, -5439.54, -4509.04, 50736.51, -11110.87, 0.00, 0.19, 0.98, 0.15
190, 48875.64, 48914.89, -11743.18, -5422.40, -4481.37, 51244.90, -11144.38, 0.00, 0.00, 0.00, 0.00
191, 49229.85, 49021.22, -11770.52, -5467.64, -4497.71, 52143.02, -11179.74, 0.00, 0.00, 0.00, 0.00
192, 49085.03, 48940.46, -11774.54, -5481.47, -4524.86, 51551.37, -11150.14, 0.00, 0.00, 0.00, 0.00
193, 48775.17, 48844.95, -11756.23, -5446.61, -4513.26, 50790.71, -11123.75, 0.00, 0.00, 0.00, 0.00
194, 48814.20, 48891.15, -11735.94, -5415.81, -4485.57, 51073.87, -11123.12, 0.00, 0.00, 0.00, 0.00
195, 49206.85, 49019.56, -11758.22, -5450.16, -4490.29, 52099.25, -11173.10, 0.00, 0.00, 0.00, 0.00
196, 49144.55, 48964.36, -11769.91, -5455.46, -4520.57, 51728.84, -11171.45, 0.00, 0.00, 0.00, 0.00
197, 48818.84, 48853.58, -11760.08, -5455.75, -4511.99, 50879.59, -11135.13, 0.00, 0.00, 0.00, 0.00
198, 48766.50, 48883.55, -11744.23, -5423.47, -4487.34, 50931.96, -11086.08, 0.00, 0.00, 0.00, 0.00
199, 49155.80, 49002.98, -11749.95, -5435.21, -4486.91, 51998.92, -11142.48, 0.00, 0.18, 0.96, 0.15
200, 49181.35, 48975.87, -11770.03, -5472.35, -4519.50, 51897.75, -11172.18, 0.00, 0.00, 0.00, 0.00
201, 48866.97, 48876.76, -11744.66, -5444.93, -4503.97, 50993.54, -11128.87, 0.00, 0.00, 0.00, 0.00
202, 48720.05, 48851.70, -11741.42, -5425.95, -4481.26, 50824.36, -11123.43, 0.00, 0.00, 0.00, 0.00
203, 49071.11, 48980.79, -11754.63, -5431.21, -4473.10, 51838.01, -11146.50, 0.00, 0.00, 0.00, 0.00
204, 49208.66, 48988.43, -11766.32, -5464.69, -4506.65, 52037.03, -11157.25, 0.00, 0.00, 0.00, 0.00
205, 48917.08, 48881.48, -11766.56, -5443.07, -4510.63, 51129.55, -11132.71, 0.00, 0.00, 0.00, 0.00
206, 48714.87, 48856.02, -11755.39, -5431.34, -4486.29, 50779.56, -11107.56, 0.00, 0.00, 0.00, 0.00
207, 49002.31, 48941.96, -11755.27, -5426.42, -4465.77, 51645.38, -11140.15, 0.00, 0.00, 0.00, 0.00
208, 49222.03, 49003.61, -11776.11, -5474.30, -4494.78, 52122.21, -11174.40, 0.00, 0.00, 0.00, 0.00
209, 48974.46, 48911.83, -11764.59, -5472.24, -4506.87, 51266.81, -11141.92, 0.00, 0.18, 0.97, 0.16
210, 48727.70, 48845.36, -11742.91, -5434.83, -4494.62, 50749.25, -11117.40, 0.00, 0.00, 0.00, 0.00
211, 48931.77, 48953.87, -11747.67, -5408.72, -4462.35, 51431.14, -11113.94, 0.00, 0.00, 0.00, 0.00
212, 49239.55, 49048.44, -11764.42, -5441.71, -4484.85, 52170.82, -11161.52, 0.00, 0.00, 0.00, 0.00
213, 49045.18, 48946.09, -11762.20, -5469.81, -4504.52, 51438.89, -11162.95, 0.00, 0.00, 0.00, 0.00
214, 48752.06, 48839.59, -11758.72, -5454.76, -4495.81, 50776.43, -11106.56, 0.00, 0.00, 0.00, 0.00
215, 48850.85, 48901.32, -11751.99, -5435.83, -4474.48, 51222.13, -11131.08, 0.00, 0.00, 0.00, 0.00
216, 49219.50, 49010.98, -11766.76, -5481.90, -4493.13, 52151.60, -11191.23, 0.00, 0.00, 0.00, 0.00
217, 49105.39, 48942.81, -11767.25, -5494.33, -4507.41, 51610.87, -11141.00, 0.00, 0.00, 0.00, 0.00
218, 48793.59, 48868.15, -11748.32, -5448.24, -4492.57, 50846.15, -11081.66, 0.00, 0.00, 0.00, 0.00
219, 48792.92, 48910.60, -11740.30, -5413.15, -4466.03, 51054.60, -11091.14, 0.00, 0.19, 0.96, 0.16
220, 49188.05, 49044.73, -11757.60, -5446.47, -4477.70, 52096.13, -11150.64, 0.00, 0.00, 0.00, 0.00
221, 49155.24, 48996.18, -11770.70, -5486.77, -4510.49, 51820.44, -11167.67, 0.00, 0.00, 0.00, 0.00
222, 48832.82, 48879.69, -11754.96, -5452.98, -4508.88, 50971.05, -11134.66, 0.00, 0.00, 0.00, 0.00
223, 48740.05, 48862.95, -11741.06, -5385.70, -4501.17, 50939.16, -11118.83, 0.00, 0.00, 0.00, 0.00
224, 49126.99, 49001.73, -11758.34, -5397.52, -4482.78, 51961.30, -11156.87, 0.00, 0.00, 0.00, 0.00
225, 49192.61, 49001.35, -11787.37, -5513.19, -4512.33, 51961.61, -11170.53, 0.00, 0.00, 0.00, 0.00
226, 48881.14, 48882.84, -11716.49, -5477.45, -4502.18, 51102.14, -11117.56, 0.00, 0.00, 0.00, 0.00
227, 48717.97, 48864.82, -11746.67, -5424.90, -4483.13, 50866.58, -11112.15, 0.00, 0.00, 0.00, 0.00
228, 49039.97, 48998.40, -11767.72, -5437.04, -4480.47, 51786.11, -11170.91, 0.00, 0.18, 0.97, 0.16
229, 49193.48, 49000.36, -11789.29, -5500.47, -4523.66, 52067.65, -11214.41, 0.00, 0.00, 0.00, 0.00
230, 48931.01, 48896.18, -11773.58, -5480.18, -4516.35, 51239.99, -11134.21, 0.00, 0.00, 0.00, 0.00
231, 48711.02, 48855.41, -11751.65, -5435.61, -4489.59, 50827.15, -11103.47, 0.00, 0.00, 0.00, 0.00
232, 48974.19, 48982.19, -11744.97, -5406.57, -4459.08, 51606.22, -11114.20, 0.00, 0.00, 0.00, 0.00
233, 49233.11, 49043.77, -11772.69, -5452.24, -4495.25, 52170.56, -11161.52, 0.00, 0.00, 0.00, 0.00
234, 49015.45, 48933.44, -11775.99, -5456.19, -4516.26, 51426.13, -11151.02, 0.00, 0.00, 0.00, 0.00
235, 48743.81, 48859.73, -11754.20, -5408.83, -4503.99, 50883.81, -11116.06, 0.00, 0.00, 0.00, 0.00
236, 48905.37, 48946.65, -11728.72, -5416.54, -4476.47, 51451.12, -11122.45, 0.00, 0.00, 0.00, 0.00
237, 49224.82, 49035.23, -11761.08, -5451.46, -4493.24, 52239.85, -11162.82, 0.00, 0.00, 0.00, 0.00
238, 49059.71, 48959.91, -11784.40, -5478.17, -4516.86, 51625.15, -11154.28, 0.00, 0.16, 0.95, 0.17
239, 48760.15, 48875.89, -11761.60, -5444.24, -4502.94, 50944.41, -11119.23, 0.00, 0.00, 0.00, 0.00
240, 48815.14, 48898.39, -11750.80, -5426.31, -4479.47, 51286.72, -11143.89, 0.00, 0.00, 0.00, 0.00
241, 49190.29, 49014.34, -11777.13, -5470.50, -4491.45, 52230.17, -11185.73, 0.00, 0.00, 0.00, 0.00
242, 49114.22, 48957.16, -11784.98, -5492.43, -4519.77, 51803.07, -11165.79, 0.00, 0.00, 0.00, 0.00
243, 48802.08, 48861.34, -11763.12, -5447.66, -4507.48, 51033.70, -11124.46, 0.00, 0.00, 0.00, 0.00
244, 48758.86, 48872.76, -11752.30, -5412.23, -4478.15, 51158.43, -11116.24, 0.00, 0.00, 0.00, 0.00
245, 49152.67, 49013.30, -11758.49, -5450.05, -4469.83, 52167.32, -11159.98, 0.00, 0.00, 0.00, 0.00
246, 49162.28, 48986.57, -11769.29, -5457.63, -4500.37, 51988.12, -11133.87, 0.00, 0.00, 0.00, 0.00
247, 48842.54, 48871.15, -11771.61, -5442.85, -4501.82, 51157.24, -11110.74, 0.00, 0.00, 0.00, 0.00
248, 48723.40, 48864.44, -11759.88, -5421.19, -4483.49, 51056.14, -11105.62, 0.00, 0.17, 0.97, 0.16
249, 49098.31, 49004.36, -11754.78, -5401.32, -4471.49, 52046.95, -11142.99, 0.00, 0.00, 0.00, 0.00
250, 49203.92, 49003.94, -11769.94, -5490.12, -4508.01, 52128.16, -11166.73, 0.00, 0.00, 0.00, 0.00
251, 48907.27, 48894.77, -11765.22, -5479.75, -4508.64, 51284.94, -11136.38, 0.00, 0.00, 0.00, 0.00
252, 48718.33, 48862.34, -11756.15, -5422.24, -4495.90, 51002.63, -11129.89, 0.00, 0.00, 0.00, 0.00
253, 49024.84, 48977.36, -11737.84, -5435.18, -4480.76, 51879.70, -11167.89, 0.00, 0.00, 0.00, 0.00
254, 49219.75, 49004.52, -11761.53, -5481.34, -4509.93, 52245.97, -11170.98, 0.00, 0.00, 0.00, 0.00
255, 48957.83, 48900.12, -11772.35, -5474.28, -4513.69, 51427.27, -11141.43, 0.00, 0.00, 0.00, 0.00
0, 48715.02, 48835.45, -11761.31, -5448.06, -4502.36, 50969.35, -11119.77, 0.00, 0.00, 0.00, 0.00
1, 48944.48, 48941.31, -11753.93, -5443.72, -4483.78, 51684.20, -11154.84, 0.00, 0.00, 0.00, 0.00
2, 49223.88, 49006.22, -11775.66, -5496.83, -4513.35, 52311.11, -11196.64, 0.00, 0.18, 0.97, 0.17
3, 49011.38, 48929.73, -11776.15, -5497.41, -4531.44, 51582.28, -11163.51, 0.00, 0.00, 0.00, 0.00
4, 48726.69, 48853.00, -11762.47, -5445.31, -4521.87, 50988.55, -11127.35, 0.00, 0.00, 0.00, 0.00
5, 48865.63, 48942.45, -11748.32, -5429.37, -4496.95, 51510.49, -11133.76, 0.00, 0.00, 0.00, 0.00
6, 49217.73, 49018.04, -11769.89, -5501.05, -4506.65, 52344.57, -11191.16, 0.00, 0.00, 0.00, 0.00
7, 49073.39, 48933.96, -11777.20, -5507.04, -4523.41, 51744.36, -11169.55, 0.00, 0.00, 0.00, 0.00
8, 48759.30, 48848.73, -11765.94, -5466.70, -4519.84, 51029.16, -11133.52, 0.00, 0.00, 0.00, 0.00
9, 48798.26, 48895.80, -11749.10, -5433.95, -4495.29, 51318.69, -11157.41, 0.00, 0.00, 0.00, 0.00
10, 49181.08, 49015.21, -11775.32, -5479.95, -4515.63, 52301.54, -11204.26, 0.00, 0.00, 0.00, 0.00
11, 49119.16, 48958.23, -11787.46, -5521.57, -4539.46, 51920.60, -11173.68, 0.00, 0.18, 0.97, 0.17
12, 48804.88, 48861.20, -11766.07, -5477.63, -4523.97, 51111.26, -11127.30, 0.00, 0.00, 0.00, 0.00
13, 48746.45, 48862.03, -11754.98, -5444.59, -4499.20, 51173.56, -11112.28, 0.00, 0.00, 0.00, 0.00
14, 49149.34, 49000.54, -11762.85, -5462.72, -4496.28, 52205.49, -11180.12, 0.00, 0.00, 0.00, 0.00
15, 49170.71, 48978.39, -11775.93, -5496.74, -4536.51, 52080.73, -11206.58, 0.00, 0.00, 0.00, 0.00
16, 48848.86, 48865.81, -11751.14, -5452.13, -4530.21, 51210.88, -11156.40, 0.00, 0.00, 0.00, 0.00
17, 48713.90, 48848.93, -11753.98, -5425.75, -4509.96, 51065.78, -11154.21, 0.00, 0.00, 0.00, 0.00
18, 49073.10, 48990.30, -11765.96, -5472.11, -4483.83, 52053.14, -11171.47, 0.00, 0.00, 0.00, 0.00
19, 49192.86, 49001.01, -11786.34, -5517.04, -4521.02, 52205.25, -11193.64, 0.00, 0.00, 0.00, 0.00
20, 48895.89, 48891.29, -11770.90, -5494.91, -4522.90, 51332.50, -11156.36, 0.00, 0.00, 0.00, 0.00
21, 48709.05, 48865.56, -11748.05, -5441.78, -4495.29, 51005.63, -11120.19, 0.00, 0.18, 0.96, 0.17
22, 49018.36, 48988.12, -11751.92, -5440.35, -4473.84, 51874.22, -11156.45, 0.00, 0.00, 0.00, 0.00
23, 49218.11, 49013.57, -11781.96, -5501.26, -4515.75, 52312.76, -11207.88, 0.00, 0.00, 0.00, 0.00
24, 48947.86, 48898.15, -11779.79, -5494.55, -4529.85, 51485.30, -11179.96, 0.00, 0.00, 0.00, 0.00
25, 48699.35, 48841.76, -11760.91, -5443.74, -4513.40, 50984.08, -11134.79, 0.00, 0.00, 0.00, 0.00
26, 48922.69, 48948.96, -11758.74, -5458.97, -4492.66, 51680.02, -11150.82, 0.00, 0.00, 0.00, 0.00
27, 49199.70, 49019.36, -11792.76, -5500.59, -4511.30, 52382.05, -11184.57, 0.00, 0.00, 0.00, 0.00
28, 48987.54, 48910.67, -11793.12, -5503.09, -4533.76, 51661.88, -11168.41, 0.00, 0.00, 0.00, 0.00
29, 48702.73, 48819.96, -11771.93, -5462.68, -4516.37, 51019.66, -11129.25, 0.00, 0.00, 0.00, 0.00
30, 48824.86, 48909.66, -11756.41, -5418.78, -4492.07, 51484.13, -11136.49, 0.00, 0.00, 0.00, 0.00
31, 49195.47, 49024.26, -11779.84, -5475.42, -4516.04, 52371.54, -11208.97, 0.00, 0.19, 0.96, 0.17
32, 49061.32, 48948.06, -11777.38, -5513.26, -4536.98, 51819.72, -11188.43, 0.00, 0.00, 0.00, 0.00
33, 48757.38, 48870.88, -11748.68, -5458.99, -4525.60, 51072.24, -11138.41, 0.00, 0.00, 0.00, 0.00
34, 48778.16, 48907.94, -11760.75, -5431.90, -4513.17, 51305.28, -11174.29, 0.00, 0.00, 0.00, 0.00
35, 49162.50, 49025.22, -11790.97, -5478.41, -4535.48, 52304.93, -11242.12, 0.00, 0.00, 0.00, 0.00
36, 49113.35, 48967.93, -11802.17, -5517.24, -4566.98, 51963.69, -11247.82, 0.00, 0.00, 0.00, 0.00
37, 48792.74, 48865.36, -11788.80, -5481.39, -4557.43, 51129.75, -11184.23, 0.00, 0.00, 0.00, 0.00
38, 48723.29, 48875.13, -11771.08, -5440.01, -4526.65, 51149.80, -11165.70, 0.00, 0.00, 0.00, 0.00
39, 49111.30, 49007.02, -11777.58, -5448.66, -4522.05, 52191.61, -11209.22, 0.00, 0.00, 0.00, 0.00
40, 49161.72, 48992.59, -11785.56, -5504.05, -4551.19, 52119.15, -11220.73, 0.00, 0.00, 0.00, 0.00
41, 48848.57, 48868.36, -11785.16, -5478.39, -4547.33, 51238.20, -11167.47, 0.00, 0.18, 0.97, 0.17
42, 48692.34, 48855.70, -11782.21, -5463.35, -4527.79, 51055.47, -11144.71, 0.00, 0.00, 0.00, 0.00
43, 49050.19, 48995.00, -11777.18, -5457.45, -4512.95, 52030.01, -11185.68, 0.00, 0.00, 0.00, 0.00
44, 49193.77, 49006.94, -11801.88, -5496.27, -4559.44, 52257.37, -11219.73, 0.00, 0.00, 0.00, 0.00
45, 48895.87, 48893.46, -11792.13, -5493.25, -4565.48, 51379.21, -11186.40, 0.00, 0.00, 0.00, 0.00
46, 48683.89, 48835.18, -11769.60, -5448.62, -4543.48, 51007.04, -11160.87, 0.00, 0.00, 0.00, 0.00
47, 48976.11, 48971.80, -11762.54, -5445.31, -4509.17, 51837.14, -11171.42, 0.00, 0.00, 0.00, 0.00
48, 49211.86, 49035.55, -11792.33, -5496.52, -4542.72, 52361.04, -11198.40, 0.00, 0.00, 0.00, 0.00
49, 48971.04, 48934.70, -11788.58, -5483.08, -4557.90, 51573.36, -11155.84, 0.00, 0.00, 0.00, 0.00
50, 48716.36, 48876.25, -11764.66, -5442.56, -4541.29, 51021.68, -11151.31, 0.00, 0.00, 0.00, 0.00
51, 48918.02, 48967.66, -11751.27, -5420.45, -4518.23, 51663.06, -11166.84, 0.00, 0.19, 0.96, 0.16
52, 49231.14, 49056.47, -11780.75, -5458.23, -4537.65, 52419.04, -11198.69, 0.00, 0.00, 0.00, 0.00
53, 49042.52, 48960.73, -11775.93, -5486.55, -4552.40, 51728.89, -11172.90, 0.00, 0.00, 0.00, 0.00
54, 48744.59, 48875.11, -11760.62, -5424.59, -4532.17, 51056.81, -11134.88, 0.00, 0.00, 0.00, 0.00
55, 48835.63, 48931.52, -11761.40, -5422.64, -4512.41, 51470.70, -11147.51, 0.00, 0.00, 0.00, 0.00
56, 49202.63, 49057.96, -11774.25, -5470.34, -4528.87, 52406.03, -11191.76, 0.00, 0.00, 0.00, 0.00
57, 49081.39, 48990.62, -11767.83, -5474.43, -4547.15, 51900.30, -11173.77, 0.00, 0.00, 0.00, 0.00
58, 48768.35, 48880.78, -11779.75, -5445.09, -4536.31, 51119.09, -11136.11, 0.00, 0.00, 0.00, 0.00
59, 48767.01, 48899.94, -11774.61, -5423.70, -4516.04, 51302.35, -11140.58, 0.00, 0.00, 0.00, 0.00
60, 49166.75, 49035.73, -11782.79, -5448.24, -4522.50, 52337.48, -11198.16, 0.00, 0.19, 0.96, 0.16
61, 49139.84, 48989.75, -11796.16, -5490.12, -4559.96, 52065.57, -11213.76, 0.00, 0.00, 0.00, 0.00
62, 48822.40, 48888.80, -11781.98, -5457.42, -4549.76, 51207.35, -11157.83, 0.00, 0.00, 0.00, 0.00
63, 48731.94, 48895.96, -11769.49, -5414.87, -4526.12, 51172.75, -11140.24, 0.00, 0.00, 0.00, 0.00
64, 49109.78, 49029.20, -11774.05, -5438.13, -4515.50, 52214.30, -11190.45, 0.00, 0.00, 0.00, 0.00
65, 49175.51, 49009.13, -11795.89, -5479.57, -4555.20, 52211.06, -11225.58, 0.00, 0.00, 0.00, 0.00
66, 48863.77, 48888.14, -11786.99, -5457.65, -4553.92, 51323.63, -11166.60, 0.00, 0.00, 0.00, 0.00
67, 48697.32, 48867.93, -11767.97, -5440.41, -4521.09, 51079.93, -11134.99, 0.00, 0.00, 0.00, 0.00
68, 49040.20, 49001.17, -11760.42, -5448.51, -4500.39, 52026.14, -11154.30, 0.00, 0.00, 0.00, 0.00
69, 49207.27, 49013.37, -11790.34, -5496.58, -4543.48, 52336.90, -11200.24, 0.00, 0.00, 0.00, 0.00
70, 48925.60, 48901.26, -11777.47, -5481.27, -4550.17, 51472.13, -11186.42, 0.00, 0.19, 0.96, 0.16
71, 48696.16, 48847.48, -11752.17, -5438.22, -4529.36, 51049.26, -11134.79, 0.00, 0.00, 0.00, 0.00
72, 48959.57, 48955.68, -11753.60, -5437.15, -4514.09, 51844.73, -11168.18, 0.00, 0.00, 0.00, 0.00
73, 49214.58, 49013.77, -11779.59, -5488.11, -4546.86, 52422.59, -11212.04, 0.00, 0.00, 0.00, 0.00
74, 48989.84, 48913.24, -11759.39, -5481.14, -4550.01, 51623.52, -11184.79, 0.00, 0.00, 0.00, 0.00
75, 48720.83, 48855.61, -11746.76, -5434.63, -4532.08, 51043.58, -11156.65, 0.00, 0.00, 0.00, 0.00
76, 48878.17, 48950.50, -11748.77, -5427.27, -4506.36, 51634.79, -11170.75, 0.00, 0.00, 0.00, 0.00
77, 49210.11, 49038.45, -11777.00, -5473.79, -4533.20, 52441.21, -11221.29, 0.00, 0.00, 0.00, 0.00
78, 49039.10, 48944.30, -11784.06, -5473.29, -4556.67, 51795.94, -11196.35, 0.00, 0.00, 0.00, 0.00
79, 48738.94, 48855.93, -11759.36, -5442.58, -4527.79, 51101.34, -11150.66, 0.00, 0.00, 0.00, 0.00
80, 48812.43, 48919.20, -11742.20, -5413.93, -4501.33, 51462.83, -11153.54, 0.00, 0.18, 0.97, 0.17
81, 49192.95, 49038.38, -11755.54, -5428.61, -4514.52, 52435.11, -11201.87, 0.00, 0.00, 0.00, 0.00
82, 49093.01, 48985.14, -11755.32, -5450.00, -4533.27, 51980.72, -11184.39, 0.00, 0.00, 0.00, 0.00
83, 48771.71, 48874.64, -11742.80, -5464.98, -4520.62, 51172.33, -11147.80, 0.00, 0.00, 0.00, 0.00
84, 48749.00, 48886.21, -11744.14, -5439.56, -4504.86, 51298.39, -11166.28, 0.00, 0.00, 0.00, 0.00
85, 49143.75, 49020.23, -11753.82, -5459.21, -4509.08, 52352.61, -11216.46, 0.00, 0.00, 0.00, 0.00
86, 49140.22, 48981.79, -11766.09, -5486.84, -4538.90, 52148.03, -11215.28, 0.00, 0.00, 0.00, 0.00
87, 48814.35, 48870.68, -11750.11, -5469.45, -4532.35, 51278.88, -11189.51, 0.00, 0.00, 0.00, 0.00
88, 48700.89, 48855.46, -11735.13, -5440.55, -4510.56, 51190.32, -11186.78, 0.00, 0.00, 0.00, 0.00
89, 49084.34, 49006.98, -11751.90, -5455.86, -4500.66, 52213.70, -11219.39, 0.00, 0.00, 0.00, 0.00
90, 49168.23, 48989.16, -11771.63, -5498.66, -4542.43, 52292.17, -11218.81, 0.00, 0.18, 0.96, 0.17
91, 48865.32, 48895.18, -11755.47, -5460.89, -4533.43, 51418.49, -11173.30, 0.00, 0.00, 0.00, 0.00
92, 48689.05, 48868.80, -11737.68, -5439.61, -4507.32, 51134.48, -11143.98, 0.00, 0.00, 0.00, 0.00
93, 49009.17, 48970.75, -11728.45, -5410.84, -4487.49, 52056.45, -11181.66, 0.00, 0.00, 0.00, 0.00
94, 49211.68, 49003.09, -11760.33, -5477.94, -4522.12, 52413.79, -11228.76, 0.00, 0.00, 0.00, 0.00
95, 48930.27, 48898.21, -11754.42, -5481.34, -4530.16, 51553.65, -11196.19, 0.00, 0.00, 0.00, 0.00
96, 48694.86, 48848.35, -11727.09, -5439.81, -4502.89, 51101.20, -11170.19, 0.00, 0.00, 0.00, 0.00
97, 48949.34, 48958.25, -11728.67, -5430.07, -4476.72, 51838.57, -11183.38, 0.00, 0.00, 0.00, 0.00
98, 49217.02, 49025.38, -11757.40, -5483.91, -4508.77, 52479.75, -11228.93, 0.00, 0.00, 0.00, 0.00
99, 48990.35, 48933.46, -11758.31, -5486.08, -4527.81, 51720.84, -11210.27, 0.00, 0.00, 0.00, 0.00
100, 48712.03, 48856.24, -11737.88, -5451.41, -4512.55, 51109.59, -11163.96, 0.00, 0.18, 0.96, 0.17
101, 48864.73, 48929.18, -11727.38, -5423.70, -4486.13, 51637.40, -11162.44, 0.00, 0.00, 0.00, 0.00
102, 49207.74, 49024.66, -11762.65, -5481.72, -4507.48, 52497.50, -11217.02, 0.00, 0.00, 0.00, 0.00
103, 49044.78, 48937.20, -11772.08, -5490.30, -4526.63, 51904.04, -11184.30, 0.00, 0.00, 0.00, 0.00
104, 48740.52, 48848.86, -11747.09, -5445.69, -4509.73, 51173.38, -11149.92, 0.00, 0.00, 0.00, 0.00
105, 48795.22, 48905.59, -11730.08, -5409.95, -4484.45, 51462.66, -11168.07, 0.00, 0.00, 0.00, 0.00
106, 49185.26, 49035.68, -11749.06, -5448.06, -4497.24, 52450.00, -11207.37, 0.00, 0.00, 0.00, 0.00
107, 49111.52, 48980.34, -11758.94, -5491.02, -4524.22, 52060.77, -11207.70, 0.00, 0.00, 0.00, 0.00
108, 48783.82, 48866.68, -11743.45, -5459.55, -4516.62, 51245.46, -11157.68, 0.00, 0.00, 0.00, 0.00
109, 48729.91, 48877.30, -11731.69, -5423.38, -4494.06, 51304.89, -11149.52, 0.00, 0.18, 0.95, 0.17
110, 49122.96, 49011.52, -11742.29, -5454.21, -4492.95, 52329.93, -11211.77, 0.00, 0.00, 0.00, 0.00
111, 49140.71, 48986.37, -11756.28, -5504.09, -4527.50, 52198.32, -11223.64, 0.00, 0.00, 0.00, 0.00
112, 48824.55, 48863.35, -11745.75, -5451.70, -4517.20, 51335.70, -11174.53, 0.00, 0.00, 0.00, 0.00
113, 48696.58, 48861.98, -11735.63, -5445.29, -4504.79, 51184.13, -11168.52, 0.00, 0.00, 0.00, 0.00
114, 49060.42, 48998.78, -11739.23, -5455.68, -4491.90, 52177.93, -11204.86, 0.00, 0.00, 0.00, 0.00
115, 49181.79, 48994.60, -11754.29, -5496.88, -4517.27, 52344.39, -11218.32, 0.00, 0.00, 0.00, 0.00
116, 48888.85, 48877.36, -11748.88, -5484.49, -4526.47, 51473.41, -11203.19, 0.00, 0.00, 0.00, 0.00
117, 48671.44, 48835.23, -11748.41, -5449.87, -4505.20, 51127.56, -11177.50, 0.00, 0.00, 0.00, 0.00
118, 48963.33, 48955.75, -11744.28, -5444.62, -4492.21, 51991.16, -11200.84, 0.00, 0.00, 0.00, 0.00
119, 49176.21, 49001.30, -11754.20, -5475.53, -4529.11, 52443.43, -11231.55, 0.00, 0.18, 0.96, 0.16
120, 48929.91, 48902.89, -11759.03, -5485.25, -4533.89, 51615.74, -11219.66, 0.00, 0.00, 0.00, 0.00
121, 48681.52, 48839.61, -11746.31, -5439.05, -4515.81, 51107.33, -11171.89, 0.00, 0.00, 0.00, 0.00
122, 48901.88, 48933.69, -11734.33, -5400.00, -4499.32, 51806.89, -11163.56, 0.00, 0.00, 0.00, 0.00
123, 49204.95, 49006.73, -11749.69, -5461.40, -4516.55, 52509.70, -11211.08, 0.00, 0.00, 0.00, 0.00
124, 49000.70, 48917.11, -11748.59, -5495.31, -4530.27, 51788.90, -11182.96, 0.00, 0.00, 0.00, 0.00
125, 48711.89, 48840.88, -11743.58, -5456.51, -4520.46, 51150.04, -11168.81, 0.00, 0.00, 0.00, 0.00
126, 48823.65, 48916.03, -11739.96, -5433.55, -4500.23, 51605.26, -11184.19, 0.00, 0.00, 0.00, 0.00
127, 49186.93, 49011.76, -11755.50, -5479.57, -4514.92, 52490.52, -11225.47, 0.00, 0.00, 0.00, 0.00
128, 49058.14, 48949.78, -11760.50, -5485.12, -4534.95, 51969.28, -11185.82, 0.00, 0.00, 0.00, 0.00
129, 48748.26, 48861.07, -11739.43, -5442.52, -4514.02, 51216.03, -11154.12, 0.00, 0.17, 0.96, 0.17
130, 48763.88, 48882.55, -11721.95, -5436.70, -4498.98, 51443.03, -11164.90, 0.00, 0.00, 0.00, 0.00
131, 49157.96, 49024.82, -11729.59, -5464.04, -4510.40, 52446.94, -11220.04, 0.00, 0.00, 0.00, 0.00
132, 49101.98, 48962.30, -11767.81, -5506.04, -4543.64, 52113.56, -11224.04, 0.00, 0.00, 0.00, 0.00
133, 48778.95, 48862.03, -11751.94, -5467.06, -4525.65, 51289.07, -11161.21, 0.00, 0.00, 0.00, 0.00
134, 48714.51, 48870.66, -11731.85, -5411.04, -4495.36, 51311.22, -11145.12, 0.00, 0.00, 0.00, 0.00
135, 49109.64, 48994.89, -11738.93, -5439.77, -4493.17, 52352.28, -11197.53, 0.00, 0.00, 0.00, 0.00
136, 49156.38, 48977.39, -11757.15, -5488.49, -4527.93, 52279.70, -11209.56, 0.00, 0.00, 0.00, 0.00
137, 48833.89, 48884.05, -11748.17, -5485.63, -4527.75, 51388.20, -11174.24, 0.00, 0.00, 0.00, 0.00
138, 48686.75, 48862.32, -11737.04, -5463.50, -4516.10, 51199.42, -11162.82, 0.00, 0.00, 0.00, 0.00
139, 49040.93, 48993.37, -11738.93, -5459.39, -4500.43, 52189.73, -11208.77, 0.00, 0.18, 0.97, 0.17
140, 49184.90, 49012.66, -11756.21, -5500.45, -4535.44, 52409.12, -11232.00, 0.00, 0.00, 0.00, 0.00
141, 48897.43, 48898.44, -11749.57, -5486.24, -4540.58, 51527.65, -11187.72, 0.00, 0.00, 0.00, 0.00
142, 48684.76, 48854.18, -11734.53, -5443.97, -4518.99, 51154.18, -11167.13, 0.00, 0.00, 0.00, 0.00
143, 48972.85, 48976.27, -11724.81, -5434.96, -4495.87, 51993.22, -11193.02, 0.00, 0.00, 0.00, 0.00
144, 49207.12, 49027.68, -11754.11, -5490.97, -4530.23, 52502.66, -11218.32, 0.00, 0.00, 0.00, 0.00
145, 48956.71, 48920.77, -11750.49, -5489.28, -4542.63, 51675.93, -11197.87, 0.00, 0.00, 0.00, 0.00
146, 48695.75, 48850.21, -11735.29, -5452.98, -4529.16, 51138.35, -11189.33, 0.00, 0.00, 0.00, 0.00
147, 48891.22, 48946.43, -11735.22, -5433.84, -4501.93, 51794.67, -11187.67, 0.00, 0.00, 0.00, 0.00
148, 49202.91, 49024.95, -11758.92, -5488.14, -4535.93, 52551.50, -11224.84, 0.00, 0.18, 0.97, 0.16
149, 49007.61, 48930.52, -11759.27, -5497.79, -4556.18, 51838.97, -11204.64, 0.00, 0.00, 0.00, 0.00
150, 48711.58, 48839.32, -11742.69, -5452.57, -4546.26, 51166.81, -11158.08, 0.00, 0.00, 0.00, 0.00
151, 48820.63, 48915.92, -11719.42, -5405.12, -4498.31, 51603.87, -11165.05, 0.00, 0.00, 0.00, 0.00
152, 49199.72, 49042.23, -11721.79, -5473.14, -4510.38, 52544.66, -11197.84, 0.00, 0.00, 0.00, 0.00
153, 49077.61, 48958.43, -11733.03, -5482.93, -4545.18, 52021.14, -11191.58, 0.00, 0.00, 0.00, 0.00
154, 48761.20, 48852.08, -11733.06, -5460.40, -4529.58, 51227.47, -11150.28, 0.00, 0.00, 0.00, 0.00
155, 48767.73, 48874.59, -11731.76, -5448.24, -4505.58, 51428.05, -11160.25, 0.00, 0.00, 0.00, 0.00
156, 49153.41, 49009.55, -11754.94, -5472.73, -4516.71, 52473.13, -11213.13, 0.00, 0.00, 0.00, 0.00
157, 49114.78, 48967.04, -11761.33, -5506.06, -4548.92, 52179.88, -11218.03, 0.00, 0.00, 0.00, 0.00
158, 48795.67, 48864.71, -11734.42, -5468.20, -4530.85, 51318.57, -11161.90, 0.00, 0.19, 0.97, 0.17
159, 48713.23, 48876.76, -11732.94, -5434.00, -4509.17, 51308.76, -11166.42, 0.00, 0.00, 0.00, 0.00
160, 49100.63, 49006.51, -11739.02, -5451.39, -4504.68, 52355.27, -11212.33, 0.00, 0.00, 0.00, 0.00
161, 49154.30, 48981.10, -11762.36, -5505.59, -4546.10, 52328.67, -11236.36, 0.00, 0.00, 0.00, 0.00
162, 48840.86, 48883.06, -11748.46, -5480.56, -4537.05, 51431.00, -11164.79, 0.00, 0.00, 0.00, 0.00
163, 48681.96, 48863.10, -11731.58, -5442.16, -4517.44, 51216.72, -11153.97, 0.00, 0.00, 0.00, 0.00
164, 49026.63, 48994.15, -11727.94, -5442.23, -4511.41, 52189.98, -11212.95, 0.00, 0.00, 0.00, 0.00
165, 49189.13, 49014.60, -11741.46, -5482.75, -4528.26, 52474.18, -11227.77, 0.00, 0.00, 0.00, 0.00
166, 48906.75, 48907.27, -11730.53, -5460.91, -4526.97, 51589.75, -11188.32, 0.00, 0.00, 0.00, 0.00
167, 48686.81, 48866.03, -11721.81, -5428.99, -4509.02, 51178.30, -11160.05, 0.00, 0.00, 0.00, 0.00
168, 48951.84, 48959.80, -11727.22, -5436.97, -4491.99, 51985.98, -11193.28, 0.00, 0.18, 0.97, 0.16
169, 49212.68, 49011.50, -11749.60, -5500.05, -4523.68, 52538.29, -11238.10, 0.00, 0.00, 0.00, 0.00
170, 48971.93, 48912.52, -11737.53, -5496.11, -4528.13, 51730.56, -11200.62, 0.00, 0.00, 0.00, 0.00
171, 48703.80, 48850.79, -11703.51, -5454.32, -4509.64, 51170.85, -11169.05, 0.00, 0.00, 0.00, 0.00
172, 48882.59, 48929.62, -11714.19, -5435.92, -4487.54, 51774.21, -11196.48, 0.00, 0.00, 0.00, 0.00
173, 49204.30, 49020.14, -11756.73, -5483.80, -4518.94, 52572.44, -11217.78, 0.00, 0.00, 0.00, 0.00
174, 49026.40, 48934.85, -11751.12, -5490.26, -4542.57, 51907.07, -11198.74, 0.00, 0.00, 0.00, 0.00
175, 48728.10, 48849.24, -11727.60, -5450.54, -4525.27, 51202.52, -11161.25, 0.00, 0.00, 0.00, 0.00
176, 48815.34, 48912.86, -11716.05, -5422.24, -4497.57, 51581.90, -11188.08, 0.00, 0.00, 0.00, 0.00
177, 49187.89, 49031.86, -11740.97, -5470.92, -4516.28, 52546.74, -11224.73, 0.00, 0.00, 0.00, 0.00
178, 49079.71, 48975.44, -11744.52, -5488.49, -4539.55, 52060.65, -11208.04, 0.00, 0.18, 0.97, 0.17
179, 48765.71, 48878.41, -11735.58, -5449.76, -4535.06, 51264.08, -11161.34, 0.00, 0.00, 0.00, 0.00
180, 48747.43, 48886.48, -11709.01, -5411.40, -4510.56, 51412.65, -11160.81, 0.00, 0.00, 0.00, 0.00
181, 49154.08, 49035.95, -11721.97, -5441.42, -4507.88, 52469.06, -11204.66, 0.00, 0.00, 0.00, 0.00
182, 49137.16, 48992.83, -11757.89, -5463.71, -4547.06, 52242.69, -11230.21, 0.00, 0.00, 0.00, 0.00
183, 48816.50, 48893.12, -11735.25, -5446.43, -4535.55, 51364.98, -11197.98, 0.00, 0.00, 0.00, 0.00
184, 48717.37, 48880.29, -11719.53, -5447.92, -4512.77, 51294.66, -11178.00, 0.00, 0.00, 0.00, 0.00
185, 49095.52, 49016.55, -11727.89, -5443.45, -4507.59, 52340.16, -11203.25, 0.00, 0.00, 0.00, 0.00
186, 49181.75, 49007.56, -11744.97, -5486.86, -4540.98, 52387.75, -11217.02, 0.00, 0.00, 0.00, 0.00
187, 48881.90, 48911.56, -11719.38, -5460.44, -4530.81, 51486.57, -11175.07, 0.00, 0.00, 0.00, 0.00
188, 48705.99, 48879.96, -11712.11, -5427.03, -4507.61, 51217.01, -11155.84, 0.00, 0.19, 0.97, 0.18
189, 49026.72, 49004.81, -11723.91, -5444.13, -4497.31, 52147.20, -11205.09, 0.00, 0.00, 0.00, 0.00
190, 49194.69, 49028.75, -11748.99, -5490.68, -4536.26, 52487.26, -11228.00, 0.00, 0.00, 0.00, 0.00
191, 48918.31, 48918.38, -11732.68, -5474.37, -4535.97, 51618.89, -11189.04, 0.00, 0.00, 0.00, 0.00
192, 48694.19, 48866.86, -11716.72, -5438.94, -4519.46, 51170.50, -11174.58, 0.00, 0.00, 0.00, 0.00
193, 48947.50, 48974.77, -11716.72, -5425.48, -4499.52, 51939.93, -11188.59, 0.00, 0.00, 0.00, 0.00
194, 49215.48, 49043.97, -11737.10, -5461.25, -4534.99, 52573.02, -11225.87, 0.00, 0.00, 0.00, 0.00
195, 48990.89, 48940.48, -11732.59, -5459.03, -4537.87, 51788.95, -11197.80, 0.00, 0.00, 0.00, 0.00
196, 48710.24, 48856.73, -11725.59, -5458.03, -4519.57, 51181.18, -11164.29, 0.00, 0.00, 0.00, 0.00
197, 48867.77, 48944.98, -11715.62, -5438.36, -4499.00, 51752.11, -11176.12, 0.00, 0.18, 0.97, 0.17
198, 49204.04, 49033.87, -11732.59, -5479.84, -4525.51, 52599.49, -11230.43, 0.00, 0.00, 0.00, 0.00
199, 49039.17, 48942.36, -11733.21, -5483.96, -4549.97, 51953.45, -11221.54, 0.00, 0.00, 0.00, 0.00
200, 48740.64, 48865.41, -11728.59, -5451.08, -4532.42, 51226.08, -11156.09, 0.00, 0.00, 0.00, 0.00
201, 48805.64, 48917.93, -11721.77, -5440.62, -4508.88, 51572.25, -11154.79, 0.00, 0.00, 0.00, 0.00
202, 49188.81, 49036.51, -11740.63, -5480.63, -4525.13, 52562.27, -11230.99, 0.00, 0.00, 0.00, 0.00
203, 49107.16, 48978.30, -11742.29, -5504.25, -4544.80, 52121.09, -11212.22, 0.00, 0.00, 0.00, 0.00
204, 48787.96, 48874.10, -11726.24, -5467.66, -4534.92, 51296.83, -11161.70, 0.00, 0.00, 0.00, 0.00
205, 48753.38, 48898.60, -11711.80, -5412.03, -4511.45, 51407.54, -11159.51, 0.00, 0.00, 0.00, 0.00
206, 49145.70, 49033.42, -11721.95, -5442.54, -4512.66, 52476.55, -11207.86, 0.00, 0.00, 0.00, 0.00
207, 49140.89, 48999.92, -11744.19, -5471.95, -4548.49, 52296.57, -11217.76, 0.00, 0.18, 0.97, 0.17
208, 48829.86, 48901.26, -11724.16, -5472.53, -4532.17, 51395.02, -11162.95, 0.00, 0.00, 0.00, 0.00
209, 48711.63, 48895.54, -11713.86, -5450.25, -4519.52, 51284.67, -11148.51, 0.00, 0.00, 0.00, 0.00
210, 49084.83, 49044.75, -11707.53, -5446.92, -4509.04, 52311.53, -11198.63, 0.00, 0.00, 0.00, 0.00
211, 49197.55, 49043.86, -11719.40, -5487.73, -4542.99, 52431.87, -11221.33, 0.00, 0.00, 0.00, 0.00
212, 48893.84, 48918.13, -11731.33, -5467.39, -4538.21, 51523.29, -11188.46, 0.00, 0.00, 0.00, 0.00
213, 48703.87, 48890.77, -11720.05, -5431.32, -4513.33, 51214.64, -11159.26, 0.00, 0.00, 0.00, 0.00
214, 49016.14, 49021.60, -11704.87, -5428.77, -4495.85, 52128.65, -11187.32, 0.00, 0.00, 0.00, 0.00
215, 49212.26, 49050.61, -11738.53, -5484.38, -4538.14, 52535.85, -11221.22, 0.00, 0.00, 0.00, 0.00
216, 48942.68, 48944.35, -11746.53, -5488.60, -4558.82, 51665.56, -11204.93, 0.00, 0.00, 0.00, 0.00
217, 48701.77, 48880.31, -11715.64, -5457.47, -4519.66, 51182.77, -11160.09, 0.00, 0.18, 0.97, 0.16
218, 48928.10, 48984.96, -11705.09, -5439.61, -4486.75, 51905.18, -11164.88, 0.00, 0.00, 0.00, 0.00
219, 49222.36, 49050.14, -11737.79, -5484.02, -4526.59, 52600.09, -11203.68, 0.00, 0.00, 0.00, 0.00
220, 49010.07, 48946.88, -11737.55, -5487.29, -4548.74, 51844.33, -11185.80, 0.00, 0.00, 0.00, 0.00
221, 48734.71, 48884.67, -11716.11, -5439.65, -4535.97, 51208.63, -11149.12, 0.00, 0.00, 0.00, 0.00
222, 48875.98, 48971.69, -11707.31, -5399.53, -4499.05, 51717.44, -11157.81, 0.00, 0.00, 0.00, 0.00
223, 49223.90, 49067.87, -11734.98, -5476.45, -4520.17, 52607.98, -11199.77, 0.00, 0.00, 0.00, 0.00
224, 49077.41, 48989.12, -11738.44, -5489.34, -4546.88, 52021.23, -11181.33, 0.00, 0.00, 0.00, 0.00
225, 48775.55, 48901.30, -11719.02, -5448.73, -4529.94, 51265.47, -11148.76, 0.00, 0.00, 0.00, 0.00
226, 48808.68, 48945.47, -11705.32, -5419.67, -4504.86, 51534.43, -11150.77, 0.00, 0.00, 0.00, 0.00
227, 49195.41, 49067.53, -11712.63, -5446.61, -4512.46, 52552.70, -11195.23, 0.00, 0.18, 0.96, 0.17
228, 49129.20, 49005.21, -11728.29, -5476.27, -4540.06, 52189.24, -11188.21, 0.00, 0.00, 0.00, 0.00
229, 48805.39, 48888.94, -11720.05, -5447.90, -4537.87, 51351.41, -11149.30, 0.00, 0.00, 0.00, 0.00
230, 48743.48, 48902.31, -11726.93, -5429.13, -4525.92, 51391.55, -11160.43, 0.00, 0.00, 0.00, 0.00
231, 49136.06, 49047.62, -11729.99, -5451.39, -4515.83, 52442.46, -11213.27, 0.00, 0.00, 0.00, 0.00
232, 49167.78, 49017.62, -11744.32, -5491.91, -4548.49, 52353.35, -11223.79, 0.00, 0.00, 0.00, 0.00
233, 48850.43, 48903.45, -11732.70, -5465.60, -4543.93, 51462.57, -11166.48, 0.00, 0.00, 0.00, 0.00
234, 48711.20, 48885.81, -11715.58, -5411.67, -4523.08, 51298.35, -11136.69, 0.00, 0.00, 0.00, 0.00
235, 49069.88, 49032.75, -11716.99, -5423.09, -4509.87, 52294.65, -11189.31, 0.00, 0.00, 0.00, 0.00
236, 49199.00, 49028.84, -11736.12, -5486.17, -4538.41, 52494.95, -11214.81, 0.00, 0.00, 0.00, 0.00
237, 48906.82, 48904.34, -11728.76, -5461.00, -4537.83, 51604.39, -11149.41, 0.00, 0.18, 0.97, 0.17
238, 48708.41, 48867.35, -11717.10, -5414.87, -4524.57, 51243.25, -11120.22, 0.00, 0.00, 0.00, 0.00
239, 48999.11, 48983.62, -11714.15, -5408.25, -4508.28, 52106.03, -11157.57, 0.00, 0.00, 0.00, 0.00
240, 49226.23, 49019.39, -11739.76, -5455.30, -4547.44, 52596.02, -11209.53, 0.00, 0.00, 0.00, 0.00
241, 48980.27, 48925.51, -11733.57, -5473.76, -4559.78, 51763.64, -11170.71, 0.00, 0.00, 0.00, 0.00
242, 48722.06, 48869.05, -11719.15, -5418.26, -4551.35, 51247.65, -11149.85, 0.00, 0.00, 0.00, 0.00
243, 48928.14, 48971.04, -11704.13, -5397.77, -4516.10, 51909.87, -11175.33, 0.00, 0.00, 0.00, 0.00
244, 49244.27, 49047.97, -11722.06, -5453.92, -4548.83, 52650.72, -11228.98, 0.00, 0.00, 0.00, 0.00
245, 49040.31, 48944.46, -11735.72, -5475.53, -4575.71, 51925.76, -11220.33, 0.00, 0.00, 0.00, 0.00
246, 48733.68, 48853.18, -11728.97, -5438.18, -4554.93, 51246.40, -11194.18, 0.00, 0.18, 0.96, 0.16
247, 48831.32, 48916.63, -11718.44, -5414.40, -4525.78, 51695.98, -11185.73, 0.00, 0.00, 0.00, 0.00
248, 49191.54, 49015.23, -11731.13, -5466.23, -4538.28, 52626.98, -11223.70, 0.00, 0.00, 0.00, 0.00
249, 49066.86, 48927.95, -11731.92, -5485.59, -4561.03, 52081.91, -11193.98, 0.00, 0.00, 0.00, 0.00
250, 48747.75, 48821.93, -11724.18, -5434.92, -4543.55, 51310.53, -11146.39, 0.00, 0.00, 0.00, 0.00
251, 48748.10, 48850.25, -11718.17, -5438.16, -4529.27, 51520.68, -11174.73, 0.00, 0.00, 0.00, 0.00
252, 49138.39, 48984.74, -11730.73, -5465.83, -4533.85, 52565.98, -11224.46, 0.00, 0.00, 0.00, 0.00
253, 49093.97, 48932.13, -11748.30, -5495.94, -4552.29, 52257.66, -11193.69, 0.00, 0.00, 0.00, 0.00
254, 48773.49, 48817.84, -11738.62, -5446.94, -4546.28, 51407.29, -11142.28, 0.00, 0.00, 0.00, 0.00
255, 48691.57, 48820.03, -11727.56, -5422.80, -4526.16, 51398.06, -11147.84, 0.00, 0.00, 0.00, 0.00
0, 49076.83, 48966.19, -11731.67, -5456.87, -4522.23, 52449.77, -11205.17, 0.00, 0.17, 0.95, 0.17
1, 49125.36, 48938.45, -11752.99, -5512.36, -4569.41, 52414.37, -11219.99, 0.00, 0.00, 0.00, 0.00
2, 48814.18, 48825.28, -11736.86, -5471.13, -4558.77, 51520.12, -11161.21, 0.00, 0.00, 0.00, 0.00
3, 48651.66, 48798.86, -11718.30, -5431.00, -4532.87, 51303.31, -11143.66, 0.00, 0.00, 0.00, 0.00
4, 48996.16, 48937.42, -11714.68, -5421.06, -4518.83, 52269.73, -11180.86, 0.00, 0.00, 0.00, 0.00
5, 49155.42, 48951.28, -11728.09, -5477.45, -4549.61, 52544.90, -11213.09, 0.00, 0.00, 0.00, 0.00
6, 48858.74, 48831.25, -11736.59, -5474.99, -4555.38, 51650.41, -11188.99, 0.00, 0.00, 0.00, 0.00
7, 48631.83, 48763.30, -11730.55, -5450.12, -4536.93, 51248.17, -11155.51, 0.00, 0.00, 0.00, 0.00
8, 48904.00, 48892.45, -11717.34, -5435.90, -4513.76, 52080.08, -11168.38, 0.00, 0.00, 0.00, 0.00
9, 49146.59, 48948.20, -11744.17, -5490.84, -4556.11, 52625.59, -11214.41, 0.00, 0.00, 0.00, 0.00
10, 48905.41, 48834.80, -11737.71, -5493.59, -4559.91, 51808.30, -11191.27, 0.00, 0.18, 0.97, 0.17
11, 48643.63, 48778.68, -11717.81, -5454.67, -4539.68, 51244.39, -11158.21, 0.00, 0.00, 0.00, 0.00
12, 48822.64, 48862.95, -11710.91, -5439.10, -4521.74, 51862.93, -11183.90, 0.00, 0.00, 0.00, 0.00
13, 49140.46, 48930.29, -11735.92, -5488.81, -4548.18, 52663.68, -11231.30, 0.00, 0.00, 0.00, 0.00
14, 48956.53, 48842.83, -11732.52, -5501.57, -4561.59, 51973.53, -11200.39, 0.00, 0.00, 0.00, 0.00
15, 48665.29, 48765.65, -11697.32, -5459.50, -4543.91, 51270.72, -11161.39, 0.00, 0.00, 0.00, 0.00
16, 48751.01, 48824.72, -11702.90, -5425.62, -4529.18, 51665.72, -11186.33, 0.00, 0.00, 0.00, 0.00
17, 49125.07, 48936.37, -11723.94, -5484.27, -4544.02, 52631.67, -11229.43, 0.00, 0.00, 0.00, 0.00
18, 49031.41, 48877.96, -11729.21, -5494.66, -4560.05, 52147.96, -11205.91, 0.00, 0.00, 0.00, 0.00
19, 48723.54, 48789.74, -11711.40, -5458.63, -4549.59, 51342.76, -11162.77, 0.00, 0.00, 0.00, 0.00
20, 48720.05, 48833.62, -11702.46, -5428.61, -4531.08, 51495.47, -11190.91, 0.00, 0.18, 0.97, 0.17
21, 49121.85, 48977.16, -11722.93, -5484.07, -4545.76, 52549.87, -11217.31, 0.00, 0.00, 0.00, 0.00
22, 49114.52, 48947.30, -11732.12, -5495.60, -4565.57, 52320.16, -11207.03, 0.00, 0.00, 0.00, 0.00
23, 48801.07, 48839.66, -11712.45, -5454.97, -4547.40, 51451.12, -11168.41, 0.00, 0.00, 0.00, 0.00
24, 48706.53, 48836.64, -11697.72, -5420.01, -4527.88, 51389.36, -11157.07, 0.00, 0.00, 0.00, 0.00
25, 49099.25, 48971.53, -11706.32, -5436.97, -4524.71, 52431.04, -11222.18, 0.00, 0.00, 0.00, 0.00
26, 49171.29, 48960.91, -11723.67, -5481.68, -4562.19, 52477.04, -11258.73, 0.00, 0.00, 0.00, 0.00
27, 48855.70, 48850.54, -11711.17, -5457.58, -4557.65, 51569.25, -11188.19, 0.00, 0.00, 0.00, 0.00
28, 48695.09, 48832.35, -11691.01, -5412.90, -4527.17, 51321.41, -11143.08, 0.00, 0.00, 0.00, 0.00
29, 49024.01, 48956.31, -11695.84, -5417.01, -4514.58, 52260.75, -11191.85, 0.00, 0.18, 0.96, 0.17
30, 49197.37, 48996.88, -11722.37, -5481.52, -4558.37, 52592.87, -11239.13, 0.00, 0.00, 0.00, 0.00
31, 48924.37, 48897.77, -11710.26, -5466.72, -4559.29, 51712.50, -11202.25, 0.00, 0.00, 0.00, 0.00
32, 48696.43, 48834.85, -11699.10, -5403.20, -4541.09, 51269.67, -11174.80, 0.00, 0.00, 0.00, 0.00
33, 48948.98, 48947.37, -11691.28, -5393.30, -4515.59, 52049.57, -11200.24, 0.00, 0.00, 0.00, 0.00
34, 49216.35, 49014.65, -11710.19, -5473.47, -4542.57, 52663.82, -11240.85, 0.00, 0.00, 0.00, 0.00
35, 48991.38, 48920.43, -11700.31, -5465.09, -4553.25, 51879.83, -11212.98, 0.00, 0.00, 0.00, 0.00
36, 48718.11, 48854.45, -11690.16, -5425.98, -4531.12, 51276.35, -11192.30, 0.00, 0.00, 0.00, 0.00
37, 48872.45, 48916.99, -11690.92, -5411.45, -4511.79, 51832.00, -11221.63, 0.00, 0.00, 0.00, 0.00
38, 49207.95, 48996.48, -11717.70, -5460.13, -4545.79, 52686.43, -11248.94, 0.00, 0.00, 0.00, 0.00
39, 49032.55, 48930.71, -11703.19, -5481.34, -4556.56, 52041.09, -11229.54, 0.00, 0.18, 0.97, 0.17
40, 48741.06, 48853.07, -11678.72, -5413.03, -4520.22, 51328.75, -11157.43, 0.00, 0.00, 0.00, 0.00
41, 48808.52, 48893.70, -11687.10, -5404.41, -4498.98, 51667.44, -11168.41, 0.00, 0.00, 0.00, 0.00
42, 49194.80, 49014.63, -11705.74, -5441.91, -4518.40, 52651.12, -11233.29, 0.00, 0.00, 0.00, 0.00
43, 49114.07, 48971.29, -11719.51, -5480.63, -4549.97, 52210.68, -11245.90, 0.00, 0.00, 0.00, 0.00
44, 48777.11, 48862.43, -11708.76, -5458.90, -4541.40, 51380.00, -11208.35, 0.00, 0.00, 0.00, 0.00
45, 48744.35, 48879.66, -11690.61, -5419.23, -4524.71, 51489.45, -11187.09, 0.00, 0.00, 0.00, 0.00
46, 49144.20, 49023.54, -11691.68, -5422.38, -4518.87, 52545.21, -11226.86, 0.00, 0.00, 0.00, 0.00
47, 49154.97, 48995.00, -11699.48, -5463.68, -4544.27, 52373.24, -11232.78, 0.00, 0.00, 0.00, 0.00
48, 48836.53, 48880.54, -11695.77, -5455.08, -4542.12, 51496.99, -11200.15, 0.00, 0.00, 0.00, 0.00
49, 48712.83, 48873.45, -11682.59, -5427.36, -4522.54, 51382.19, -11183.58, 0.00, 0.18, 0.96, 0.17
50, 49083.04, 49012.66, -11697.87, -5429.89, -4515.61, 52406.14, -11223.08, 0.00, 0.00, 0.00, 0.00
51, 49181.17, 49007.11, -11726.44, -5475.15, -4554.37, 52518.44, -11240.96, 0.00, 0.00, 0.00, 0.00
52, 48885.81, 48897.25, -11710.84, -5458.12, -4546.95, 51622.45, -11196.10, 0.00, 0.00, 0.00, 0.00
53, 48698.48, 48862.43, -11694.46, -5425.08, -4526.76, 51315.76, -11174.42, 0.00, 0.00, 0.00, 0.00
54, 49003.63, 48979.46, -11695.19, -5425.35, -4508.39, 52218.43, -11208.01, 0.00, 0.00, 0.00, 0.00
55, 49197.48, 49003.67, -11728.59, -5481.05, -4555.69, 52618.26, -11246.03, 0.00, 0.00, 0.00, 0.00
56, 48934.47, 48895.96, -11715.53, -5474.30, -4563.51, 51766.39, -11207.41, 0.00, 0.00, 0.00, 0.00
57, 48698.14, 48850.59, -11695.71, -5433.28, -4540.89, 51289.09, -11172.65, 0.00, 0.00, 0.00, 0.00
58, 48934.54, 48962.30, -11690.50, -5410.80, -4513.58, 52015.48, -11189.91, 0.00, 0.00, 0.00, 0.00
59, 49217.94, 49032.64, -11716.25, -5460.51, -4548.22, 52702.86, -11229.81, 0.00, 0.18, 0.97, 0.17
60, 48995.78, 48934.54, -11709.99, -5471.42, -4556.49, 51937.65, -11195.43, 0.00, 0.00, 0.00, 0.00
61, 48717.86, 48855.21, -11690.72, -5412.54, -4547.22, 51303.46, -11163.38, 0.00, 0.00, 0.00, 0.00
62, 48852.71, 48932.50, -11672.59, -5403.80, -4523.41, 51813.00, -11180.25, 0.00, 0.00, 0.00, 0.00
63, 49212.19, 49045.29, -11702.08, -5466.90, -4542.46, 52698.19, -11225.40, 0.00, 0.00, 0.00, 0.00
64, 49063.26, 48965.45, -11709.72, -5489.23, -4565.10, 52095.77, -11227.26, 0.00, 0.00, 0.00, 0.00
65, 48752.08, 48872.16, -11702.84, -5453.36, -4550.79, 51337.89, -11182.04, 0.00, 0.00, 0.00, 0.00
66, 48791.80, 48938.20, -11685.96, -5418.20, -4525.47, 51615.88, -11170.64, 0.00, 0.00, 0.00, 0.00
67, 49180.74, 49052.00, -11708.85, -5452.44, -4543.10, 52634.27, -11230.34, 0.00, 0.00, 0.00, 0.00
68, 49108.55, 48982.57, -11728.76, -5495.40, -4578.78, 52252.74, -11228.29, 0.00, 0.00, 0.00, 0.00
69, 48793.81, 48881.70, -11707.08, -5457.31, -4564.14, 51416.88, -11172.27, 0.00, 0.18, 0.96, 0.17
70, 48743.25, 48895.94, -11691.01, -5421.39, -4539.50, 51479.46, -11168.18, 0.00, 0.00, 0.00, 0.00
71, 49133.63, 49032.62, -11702.30, -5442.23, -4533.87, 52538.55, -11210.99, 0.00, 0.00, 0.00, 0.00
72, 49151.51, 48994.15, -11724.41, -5487.84, -4563.44, 52427.09, -11218.43, 0.00, 0.00, 0.00, 0.00
73, 48841.82, 48889.81, -11707.53, -5456.87, -4552.87, 51532.30, -11172.92, 0.00, 0.00, 0.00, 0.00
74, 48709.05, 48874.41, -11685.63, -5409.70, -4530.50, 51370.03, -11164.07, 0.00, 0.00, 0.00, 0.00
75, 49062.30, 49005.91, -11685.87, -5411.09, -4527.26, 52374.52, -11199.59, 0.00, 0.00, 0.00, 0.00
76, 49191.67, 49014.38, -11719.31, -5483.84, -4564.87, 52564.80, -11211.39, 0.00, 0.00, 0.00, 0.00
77, 48897.37, 48905.95, -11717.75, -5473.99, -4562.93, 51668.47, -11172.14, 0.00, 0.00, 0.00, 0.00
78, 48691.82, 48880.13, -11697.79, -5431.16, -4541.67, 51318.06, -11146.90, 0.00, 0.18, 0.96, 0.17
79, 48983.87, 48987.63, -11695.91, -5437.64, -4530.68, 52182.71, -11183.94, 0.00, 0.00, 0.00, 0.00
80, 49199.81, 49015.50, -11719.60, -5488.85, -4564.63, 52660.06, -11230.05, 0.00, 0.00, 0.00, 0.00
81, 48940.13, 48912.93, -11714.19, -5476.56, -4573.28, 51813.22, -11206.29, 0.00, 0.00, 0.00, 0.00
82, 48689.00, 48857.00, -11696.51, -5438.63, -4553.41, 51286.61, -11168.18, 0.00, 0.00, 0.00, 0.00
83, 48901.79, 48958.99, -11683.37, -5425.60, -4530.90, 51959.91, -11204.79, 0.00, 0.00, 0.00, 0.00
84, 49214.43, 49036.55, -11709.32, -5477.18, -4560.52, 52706.17, -11215.41, 0.00, 0.00, 0.00, 0.00
85, 49008.88, 48938.47, -11718.62, -5493.41, -4576.45, 51993.38, -11184.68, 0.00, 0.00, 0.00, 0.00
86, 48712.79, 48866.70, -11702.88, -5446.58, -4555.89, 51321.68, -11154.26, 0.00, 0.00, 0.00, 0.00
87, 48821.19, 48928.28, -11694.83, -5421.10, -4533.87, 51761.68, -11162.77, 0.00, 0.00, 0.00, 0.00
88, 49186.66, 49027.95, -11724.36, -5474.63, -4559.96, 52696.34, -11219.32, 0.00, 0.17, 0.96, 0.17
89, 49059.06, 48961.14, -11723.80, -5477.25, -4580.07, 52153.41, -11209.53, 0.00, 0.00, 0.00, 0.00
90, 48742.47, 48856.46, -11708.04, -5442.14, -4562.91, 51366.16, -11174.93, 0.00, 0.00, 0.00, 0.00
91, 48745.69, 48889.72, -11703.55, -5433.57, -4540.89, 51571.66, -11188.54, 0.00, 0.00, 0.00, 0.00
92, 49144.46, 49031.54, -11702.23, -5452.46, -4539.91, 52608.36, -11240.11, 0.00, 0.00, 0.00, 0.00
93, 49107.54, 48986.37, -11706.75, -5472.51, -4563.89, 52313.83, -11220.13, 0.00, 0.00, 0.00, 0.00
94, 48788.09, 48866.57, -11717.03, -5463.24, -4561.39, 51461.52, -11162.66, 0.00, 0.00, 0.00, 0.00
95, 48705.88, 48856.20, -11706.44, -5422.69, -4544.71, 51436.82, -11149.94, 0.00, 0.00, 0.00, 0.00
96, 49093.68, 48988.94, -11711.11, -5443.54, -4543.57, 52485.31, -11203.81, 0.00, 0.00, 0.00, 0.00
97, 49153.18, 48972.11, -11730.11, -5484.42, -4580.43, 52480.80, -11215.64, 0.00, 0.00, 0.00, 0.00
98, 48837.18, 48862.79, -11716.56, -5463.15, -4578.80, 51586.71, -11175.09, 0.00, 0.18, 0.96, 0.17
99, 48675.50, 48835.90, -11693.69, -5423.65, -4549.29, 51347.45, -11157.97, 0.00, 0.00, 0.00, 0.00
100, 49016.10, 48958.99, -11697.67, -5425.22, -4534.77, 52309.96, -11188.54, 0.00, 0.00, 0.00, 0.00
101, 49171.22, 48989.41, -11720.83, -5483.15, -4572.85, 52590.14, -11218.81, 0.00, 0.00, 0.00, 0.00
102, 48887.73, 48881.16, -11722.71, -5474.41, -4575.20, 51706.38, -11178.55, 0.00, 0.00, 0.00, 0.00
103, 48668.53, 48821.44, -11711.24, -5440.08, -4559.78, 51297.34, -11166.08, 0.00, 0.00, 0.00, 0.00
104, 48933.58, 48941.78, -11701.32, -5430.47, -4540.38, 52101.60, -11192.30, 0.00, 0.00, 0.00, 0.00
105, 49186.80, 49001.97, -11721.75, -5486.15, -4574.13, 52663.28, -11221.51, 0.00, 0.00, 0.00, 0.00
106, 48955.19, 48902.33, -11709.56, -5495.96, -4574.89, 51857.59, -11196.37, 0.00, 0.00, 0.00, 0.00
107, 48688.49, 48829.82, -11703.71, -5436.39, -4557.88, 51294.91, -11170.98, 0.00, 0.00, 0.00, 0.00
108, 48853.25, 48918.16, -11701.67, -5445.20, -4538.83, 51892.08, -11187.47, 0.00, 0.18, 0.96, 0.17
109, 49188.54, 49017.60, -11720.36, -5484.92, -4555.89, 52696.49, -11226.63, 0.00, 0.00, 0.00, 0.00
110, 49014.65, 48934.20, -11720.07, -5482.93, -4580.23, 52038.70, -11213.38, 0.00, 0.00, 0.00, 0.00
111, 48720.43, 48835.72, -11690.41, -5440.66, -4555.80, 51335.27, -11149.14, 0.00, 0.00, 0.00, 0.00
112, 48801.75, 48900.79, -11691.17, -5419.94, -4531.12, 51704.25, -11158.84, 0.00, 0.00, 0.00, 0.00
113, 49172.88, 49018.47, -11713.01, -5473.72, -4553.03, 52662.43, -11218.59, 0.00, 0.00, 0.00, 0.00
114, 49075.33, 48951.35, -11723.42, -5497.39, -4582.15, 52188.77, -11217.47, 0.00, 0.00, 0.00, 0.00
115, 48757.60, 48850.92, -11706.28, -5460.80, -4567.51, 51393.18, -11165.50, 0.00, 0.00, 0.00, 0.00
116, 48741.91, 48877.25, -11685.36, -5406.53, -4532.93, 51549.11, -11141.61, 0.00, 0.00, 0.00, 0.00
117, 49137.31, 49004.72, -11699.39, -5444.80, -4533.22, 52585.63, -11186.62, 0.00, 0.00, 0.00, 0.00
118, 49116.48, 48957.54, -11729.75, -5502.13, -4574.57, 52356.10, -11203.45, 0.00, 0.18, 0.96, 0.17
119, 48806.11, 48849.69, -11704.13, -5469.11, -4569.34, 51485.86, -11169.05, 0.00, 0.00, 0.00, 0.00
120, 48705.99, 48851.95, -11687.75, -5424.95, -4542.68, 51410.55, -11162.46, 0.00, 0.00, 0.00, 0.00
121, 49082.37, 48980.00, -11708.94, -5437.55, -4536.02, 52447.88, -11205.76, 0.00, 0.00, 0.00, 0.00
122, 49163.00, 48986.13, -11728.88, -5481.21, -4576.74, 52495.73, -11231.66, 0.00, 0.00, 0.00, 0.00
123, 48857.36, 48876.36, -11715.71, -5455.93, -4573.19, 51604.86, -11175.63, 0.00, 0.00, 0.00, 0.00
124, 48688.82, 48842.09, -11700.40, -5415.83, -4558.66, 51334.73, -11165.23, 0.00, 0.00, 0.00, 0.00
125, 49028.30, 48976.45, -11695.95, -5403.51, -4538.39, 52284.04, -11188.99, 0.00, 0.00, 0.00, 0.00
126, 49206.54, 49007.52, -11714.37, -5474.37, -4568.00, 52622.80, -11205.06, 0.00, 0.00, 0.00, 0.00
127, 48928.61, 48892.47, -11702.79, -5450.56, -4575.89, 51751.39, -11178.17, 0.00, 0.18, 0.96, 0.17
128, 48696.54, 48825.46, -11696.89, -5431.07, -4562.19, 51297.88, -11147.35, 0.00, 0.00, 0.00, 0.00
129, 48937.33, 48937.55, -11700.27, -5437.15, -4545.23, 52058.35, -11176.52, 0.00, 0.00, 0.00, 0.00
130, 49201.38, 49000.83, -11708.13, -5481.14, -4585.24, 52691.02, -11224.42, 0.00, 0.00, 0.00, 0.00
131, 48975.55, 48906.98, -11709.16, -5470.52, -4591.92, 51914.52, -11198.20, 0.00, 0.00, 0.00, 0.00
132, 48703.93, 48831.09, -11714.79, -5433.06, -4573.14, 51311.67, -11166.35, 0.00, 0.00, 0.00, 0.00
133, 48861.34, 48912.84, -11699.84, -5406.86, -4536.98, 51864.52, -11172.94, 0.00, 0.00, 0.00, 0.00
134, 49199.27, 49007.16, -11728.18, -5464.64, -4569.86, 52701.48, -11221.18, 0.00, 0.00, 0.00, 0.00
135, 49032.95, 48923.79, -11733.24, -5479.02, -4594.49, 52068.27, -11178.64, 0.00, 0.00, 0.00, 0.00
136, 48722.29, 48825.24, -11721.34, -5447.08, -4582.42, 51338.34, -11161.97, 0.00, 0.00, 0.00, 0.00
137, 48780.69, 48875.24, -11711.75, -5423.02, -4554.35, 51676.25, -11159.22, 0.00, 0.18, 0.96, 0.17
138, 49171.85, 48999.11, -11724.05, -5443.61, -4559.85, 52677.65, -11192.50, 0.00, 0.00, 0.00, 0.00
139, 49082.91, 48934.14, -11738.80, -5456.04, -4594.85, 52244.65, -11209.15, 0.00, 0.00, 0.00, 0.00
140, 48757.91, 48842.14, -11719.22, -5476.07, -4580.21, 51409.50, -11164.96, 0.00, 0.00, 0.00, 0.00
141, 48722.02, 48848.46, -11704.58, -5444.75, -4553.09, 51494.82, -11145.81, 0.00, 0.00, 0.00, 0.00
142, 49130.68, 49007.11, -11713.19, -5443.70, -4555.62, 52565.31, -11186.96, 0.00, 0.00, 0.00, 0.00
143, 49131.61, 48983.06, -11729.95, -5482.21, -4589.06, 52392.55, -11216.15, 0.00, 0.00, 0.00, 0.00
144, 48825.04, 48875.39, -11704.69, -5463.35, -4577.35, 51510.44, -11161.43, 0.00, 0.00, 0.00, 0.00
145, 48707.18, 48871.35, -11701.79, -5428.37, -4560.02, 51398.82, -11147.87, 0.00, 0.00, 0.00, 0.00
146, 49075.02, 49004.88, -11708.80, -5438.36, -4549.61, 52421.52, -11194.71, 0.00, 0.00, 0.00, 0.00
147, 49180.30, 49004.21, -11724.56, -5479.95, -4589.57, 52533.57, -11221.85, 0.00, 0.18, 0.96, 0.17
148, 48877.70, 48899.00, -11725.66, -5475.06, -4591.43, 51627.92, -11189.60, 0.00, 0.00, 0.00, 0.00
149, 48684.47, 48855.43, -11720.27, -5448.75, -4572.25, 51313.93, -11171.94, 0.00, 0.00, 0.00, 0.00
150, 49004.25, 48981.70, -11700.38, -5434.87, -4550.21, 52226.05, -11194.67, 0.00, 0.00, 0.00, 0.00
151, 49213.18, 49011.38, -11710.93, -5482.01, -4582.40, 52638.78, -11217.42, 0.00, 0.00, 0.00, 0.00
152, 48946.47, 48905.86, -11726.28, -5458.12, -4598.07, 51779.42, -11188.19, 0.00, 0.00, 0.00, 0.00
153, 48701.21, 48847.50, -11709.65, -5418.04, -4568.54, 51292.91, -11163.44, 0.00, 0.00, 0.00, 0.00
154, 48926.13, 48953.43, -11705.21, -5446.36, -4542.34, 52016.00, -11181.84, 0.00, 0.00, 0.00, 0.00
155, 49202.07, 49031.32, -11731.00, -5484.13, -4579.34, 52698.57, -11220.82, 0.00, 0.00, 0.00, 0.00
156, 48986.89, 48937.94, -11733.21, -5481.88, -4601.40, 51947.87, -11195.85, 0.00, 0.00, 0.00, 0.00
157, 48711.25, 48861.22, -11704.96, -5443.23, -4577.28, 51312.03, -11151.96, 0.00, 0.18, 0.96, 0.17
158, 48843.88, 48934.14, -11698.86, -5426.13, -4551.13, 51813.13, -11164.74, 0.00, 0.00, 0.00, 0.00
159, 49196.66, 49022.27, -11730.02, -5469.20, -4579.81, 52707.47, -11218.05, 0.00, 0.00, 0.00, 0.00
160, 49051.24, 48943.48, -11729.12, -5481.34, -4599.63, 52121.92, -11195.36, 0.00, 0.00, 0.00, 0.00
161, 48736.46, 48848.57, -11712.78, -5453.18, -4576.05, 51356.51, -11151.31, 0.00, 0.00, 0.00, 0.00
162, 48772.64, 48894.39, -11701.34, -5428.39, -4557.05, 51632.10, -11153.74, 0.00, 0.00, 0.00, 0.00
163, 49171.13, 49026.38, -11709.81, -5443.30, -4565.84, 52655.10, -11201.04, 0.00, 0.00, 0.00, 0.00
164, 49106.96, 48969.18, -11725.77, -5492.92, -4596.61, 52277.11, -11213.47, 0.00, 0.00, 0.00, 0.00
165, 48782.14, 48873.77, -11718.50, -5475.44, -4588.05, 51433.60, -11165.23, 0.00, 0.00, 0.00, 0.00
166, 48731.50, 48898.17, -11699.60, -5424.86, -4565.08, 51488.58, -11147.28, 0.00, 0.18, 0.96, 0.17
167, 49117.60, 49035.19, -11717.21, -5451.39, -4571.33, 52535.65, -11209.62, 0.00, 0.00, 0.00, 0.00
168, 49150.68, 49013.20, -11723.42, -5481.81, -4608.93, 52445.93, -11219.28, 0.00, 0.00, 0.00, 0.00
169, 48843.39, 48897.37, -11717.99, -5433.98, -4593.42, 51552.96, -11167.47, 0.00, 0.00, 0.00, 0.00
170, 48707.15, 48874.28, -11715.04, -5442.02, -4574.71, 51375.75, -11158.71, 0.00, 0.00, 0.00, 0.00
171, 49061.59, 49007.52, -11710.28, -5452.40, -4562.48, 52369.42, -11188.88, 0.00, 0.00, 0.00, 0.00
172, 49195.07, 48994.15, -11736.41, -5500.56, -4602.94, 52573.78, -11195.70, 0.00, 0.00, 0.00, 0.00
173, 48889.66, 48893.70, -11729.79, -5481.14, -4602.87, 51691.52, -11169.08, 0.00, 0.00, 0.00, 0.00
174, 48674.50, 48864.15, -11712.81, -5443.03, -4586.62, 51331.29, -11155.67, 0.00, 0.00, 0.00, 0.00
175, 48962.25, 48959.95, -11719.22, -5444.19, -4562.59, 52183.30, -11183.38, 0.00, 0.00, 0.00, 0.00
176, 49187.27, 49001.64, -11747.34, -5489.32, -4601.31, 52672.91, -11228.55, 0.00, 0.17, 0.96, 0.17
177, 48936.84, 48912.59, -11740.63, -5495.04, -4611.99, 51844.71, -11197.69, 0.00, 0.00, 0.00, 0.00
178, 48685.96, 48844.33, -11723.85, -5457.09, -4598.22, 51316.25, -11173.52, 0.00, 0.00, 0.00, 0.00
