%OpenBCI Raw EEG Data
%
%Sample Rate = 250.0 Hz
%First Column = SampleIndex
%Other Columns = EEG data in microvolts followed by Accel Data (in G) interleaved with Aux Data
0, 44470.76, 42842.62, 17153.04, 17890.27, 13391.89, 35610.46, -8312.32, -187500.02, 0.07, 0.48, 0.15
1, 43355.52, 42693.71, 17117.95, 17926.25, 13468.31, 34542.59, -8188.27, -187500.02, 0.00, 0.00, 0.00
2, 42841.43, 42622.92, 17193.05, 17987.37, 13497.19, 34384.31, -8195.94, -187500.02, 0.00, 0.00, 0.00
3, 44085.30, 42802.88, 17327.32, 17989.55, 13435.99, 35606.15, -8333.07, -187500.02, 0.00, 0.00, 0.00
4, 44631.05, 42877.62, 17194.19, 17898.79, 13389.66, 35800.83, -8312.68, -187500.02, 0.00, 0.00, 0.00
5, 43527.07, 42741.25, 17119.74, 17935.80, 13472.31, 34683.76, -8184.63, -187500.02, 0.00, 0.00, 0.00
6, 42829.90, 42638.03, 17168.66, 17963.56, 13493.39, 34304.90, -8181.86, -187500.02, 0.00, 0.00, 0.00
7, 43770.88, 42746.50, 17298.48, 17960.32, 13433.76, 35335.94, -8339.64, -187500.02, 0.13, 0.94, 0.31
8, 44724.68, 42869.50, 17198.64, 17888.08, 13359.73, 35935.88, -8362.30, -187500.02, 0.00, 0.00, 0.00
9, 43726.89, 42762.21, 17094.68, 17929.67, 13429.35, 34861.43, -8185.30, -187500.02, 0.00, 0.00, 0.00
10, 42896.86, 42636.13, 17144.21, 17974.45, 13474.55, 34320.19, -8172.20, -187500.02, 0.00, 0.00, 0.00
11, 43480.69, 42708.35, 17259.44, 17962.29, 13438.52, 35081.46, -8319.48, -187500.02, 0.00, 0.00, 0.00
12, 44752.19, 42855.29, 17213.37, 17872.52, 13344.95, 36001.89, -8391.94, -187500.02, 0.00, 0.00, 0.00
13, 43929.49, 42781.39, 17062.34, 17887.05, 13404.63, 35033.25, -8226.60, -187500.02, 0.00, 0.00, 0.00
14, 42985.33, 42638.03, 17105.41, 17937.92, 13462.41, 34322.09, -8162.23, -187500.02, 0.00, 0.00, 0.00
15, 43228.52, 42657.99, 17218.06, 17968.07, 13446.45, 34836.62, -8235.32, -187500.02, 0.00, 0.00, 0.00
16, 44691.26, 42832.18, 17251.77, 17881.13, 13355.14, 36004.14, -8373.77, -187500.02, 0.12, 0.94, 0.31
17, 44144.71, 42771.54, 17071.93, 17843.93, 13377.90, 35231.42, -8256.15, -187500.02, 0.00, 0.00, 0.00
18, 43103.62, 42643.75, 17068.71, 17914.05, 13462.97, 34363.48, -8168.56, -187500.02, 0.00, 0.00, 0.00
19, 43016.02, 42639.75, 17170.77, 17957.01, 13465.61, 34609.57, -8211.90, -187500.02, 0.00, 0.00, 0.00
20, 44528.00, 42828.67, 17239.43, 17908.60, 13364.80, 35919.07, -8360.89, -187500.02, 0.00, 0.00, 0.00
21, 44344.14, 42823.13, 17060.66, 17886.04, 13371.08, 35463.90, -8253.36, -187500.02, 0.00, 0.00, 0.00
22, 43244.90, 42669.97, 17058.27, 17893.96, 13448.22, 34463.59, -8160.13, -187500.02, 0.00, 0.00, 0.00
23, 42889.66, 42605.93, 17136.28, 17918.68, 13449.42, 34449.85, -8206.69, -187500.02, 0.00, 0.00, 0.00
24, 44297.67, 42792.93, 17248.24, 17894.98, 13372.85, 35747.43, -8361.43, -187500.02, 0.00, 0.00, 0.00
25, 44516.05, 42830.03, 17077.31, 17837.90, 13338.92, 35643.75, -8281.79, -187500.02, 0.00, 0.00, 0.00
26, 43396.89, 42687.70, 17033.39, 17877.77, 13418.94, 34571.42, -8182.33, -187500.02, 0.13, 0.93, 0.31
27, 42838.46, 42606.25, 17108.05, 17924.18, 13442.09, 34356.57, -8183.00, -187500.02, 0.00, 0.00, 0.00
28, 44024.73, 42770.20, 17243.54, 17921.61, 13381.90, 35555.61, -8317.89, -187500.02, 0.00, 0.00, 0.00
29, 44659.54, 42849.77, 17095.57, 17831.89, 13315.25, 35834.43, -8318.47, -187500.02, 0.00, 0.00, 0.00
30, 43570.16, 42698.11, 17019.73, 17850.39, 13394.15, 34705.08, -8204.45, -187500.02, 0.00, 0.00, 0.00
31, 42847.58, 42588.92, 17069.42, 17888.03, 13418.62, 34296.80, -8204.23, -187500.02, 0.00, 0.00, 0.00
32, 43719.50, 42727.28, 17201.72, 17933.65, 13387.15, 35292.35, -8299.52, -187500.02, 0.00, 0.00, 0.00
33, 44740.28, 42847.67, 17111.00, 17832.69, 13298.37, 35943.75, -8365.77, -187500.02, 0.00, 0.00, 0.00
34, 43753.96, 42717.38, 16979.90, 17827.53, 13357.87, 34854.77, -8242.29, -187500.02, 0.00, 0.00, 0.00
35, 42909.11, 42609.44, 17028.23, 17888.06, 13417.89, 34283.44, -8192.43, -187500.02, 0.00, 0.00, 0.00
36, 43429.77, 42674.11, 17160.28, 17910.21, 13401.66, 35011.64, -8308.75, -187500.02, 0.12, 0.94, 0.32
37, 44740.84, 42824.31, 17128.86, 17822.43, 13303.56, 35994.38, -8346.34, -187500.02, 0.00, 0.00, 0.00
38, 43947.48, 42725.89, 16963.23, 17804.59, 13341.82, 35042.04, -8237.67, -187500.02, 0.00, 0.00, 0.00
39, 42999.91, 42597.59, 17004.51, 17866.96, 13398.86, 34317.41, -8196.54, -187500.02, 0.00, 0.00, 0.00
40, 43173.71, 42625.65, 17113.61, 17903.72, 13383.35, 34780.27, -8249.27, -187500.02, 0.00, 0.00, 0.00
41, 44651.48, 42818.90, 17142.31, 17842.37, 13293.48, 35990.91, -8364.78, -187500.02, 0.00, 0.00, 0.00
42, 44167.98, 42803.72, 16965.64, 17817.18, 13331.21, 35277.15, -8236.37, -187500.02, 0.00, 0.00, 0.00
43, 43128.94, 42663.45, 16979.21, 17871.98, 13413.42, 34391.60, -8155.21, -187500.02, 0.00, 0.00, 0.00
44, 42981.98, 42620.19, 17074.56, 17872.07, 13399.40, 34568.00, -8221.13, -187500.02, 0.00, 0.00, 0.00
45, 44489.49, 42822.97, 17161.47, 17830.70, 13302.51, 35880.79, -8379.78, -187500.02, 0.00, 0.00, 0.00
46, 44369.08, 42823.28, 16978.79, 17799.32, 13299.20, 35484.71, -8271.51, -187500.02, 0.12, 0.93, 0.32
47, 43275.37, 42672.68, 16969.33, 17850.42, 13389.39, 34482.66, -8157.65, -187500.02, 0.00, 0.00, 0.00
48, 42878.54, 42619.41, 17035.07, 17895.32, 13407.94, 34437.36, -8176.96, -187500.02, 0.00, 0.00, 0.00
49, 44243.67, 42796.05, 17146.67, 17858.46, 13323.72, 35716.84, -8351.01, -187500.02, 0.00, 0.00, 0.00
50, 44543.25, 42830.55, 16988.93, 17781.79, 13279.33, 35678.57, -8310.67, -187500.02, 0.00, 0.00, 0.00
51, 43431.98, 42711.97, 16939.58, 17846.17, 13366.10, 34597.26, -8167.08, -187500.02, 0.00, 0.00, 0.00
52, 42834.21, 42616.55, 16991.01, 17874.27, 13377.61, 34347.01, -8180.40, -187500.02, 0.00, 0.00, 0.00
53, 43961.10, 42761.97, 17126.98, 17853.66, 13322.69, 35488.04, -8339.93, -187500.02, 0.00, 0.00, 0.00
54, 44689.56, 42863.02, 17006.08, 17791.34, 13267.19, 35854.70, -8333.54, -187500.02, 0.00, 0.00, 0.00
55, 43630.54, 42731.48, 16920.90, 17825.81, 13341.15, 34753.03, -8167.84, -187500.02, 0.00, 0.00, 0.00
56, 42872.63, 42617.69, 16962.87, 17859.13, 13380.67, 34300.83, -8155.73, -187500.02, 0.13, 0.94, 0.32
57, 43659.53, 42723.50, 17095.33, 17852.11, 13338.96, 35217.99, -8311.65, -187500.02, 0.00, 0.00, 0.00
58, 44742.16, 42861.10, 17026.73, 17765.08, 13251.43, 35947.62, -8356.56, -187500.02, 0.00, 0.00, 0.00
59, 43807.72, 42757.72, 16902.93, 17790.89, 13307.33, 34898.07, -8200.61, -187500.02, 0.00, 0.00, 0.00
60, 42949.05, 42658.35, 16935.22, 17854.64, 13360.60, 34310.33, -8135.41, -187500.02, 0.00, 0.00, 0.00
61, 43389.56, 42704.17, 17055.21, 17845.77, 13331.32, 34978.11, -8259.68, -187500.02, 0.00, 0.00, 0.00
62, 44741.24, 42859.27, 17051.32, 17753.61, 13239.23, 36001.75, -8371.82, -187500.02, 0.00, 0.00, 0.00
63, 44000.77, 42777.68, 16873.20, 17758.42, 13292.43, 35088.71, -8225.29, -187500.02, 0.00, 0.00, 0.00
64, 43025.16, 42636.80, 16899.64, 17817.71, 13351.48, 34322.36, -8148.69, -187500.02, 0.00, 0.00, 0.00
65, 43125.14, 42647.77, 16995.19, 17842.73, 13337.82, 34717.53, -8224.73, -187500.02, 0.13, 0.93, 0.31
66, 44624.09, 42844.58, 17063.86, 17779.92, 13248.93, 35966.82, -8350.59, -187500.02, 0.00, 0.00, 0.00
67, 44212.62, 42816.08, 16909.83, 17762.46, 13274.41, 35307.51, -8243.48, -187500.02, 0.00, 0.00, 0.00
68, 43166.40, 42680.41, 16900.40, 17811.17, 13343.37, 34394.53, -8161.98, -187500.02, 0.00, 0.00, 0.00
69, 42967.85, 42651.17, 16985.52, 17850.95, 13340.66, 34535.07, -8199.58, -187500.02, 0.00, 0.00, 0.00
70, 44441.48, 42817.07, 17074.34, 17792.39, 13245.24, 35848.55, -8383.22, -187500.02, 0.00, 0.00, 0.00
71, 44405.81, 42824.40, 16892.20, 17737.94, 13245.89, 35529.08, -8285.28, -187500.02, 0.00, 0.00, 0.00
72, 43307.49, 42691.99, 16875.83, 17815.97, 13337.29, 34513.57, -8162.86, -187500.02, 0.00, 0.00, 0.00
73, 42870.69, 42615.79, 16946.15, 17836.85, 13347.37, 34416.59, -8194.42, -187500.02, 0.00, 0.00, 0.00
74, 44187.41, 42777.15, 17061.04, 17785.55, 13266.63, 35666.54, -8364.56, -187500.02, 0.00, 0.00, 0.00
75, 44567.01, 42827.71, 16894.77, 17711.61, 13219.36, 35704.07, -8348.44, -187500.02, 0.13, 0.94, 0.31
76, 43464.15, 42704.04, 16835.65, 17765.63, 13299.38, 34615.74, -8176.98, -187500.02, 0.00, 0.00, 0.00
77, 42835.04, 42629.74, 16907.57, 17839.80, 13333.22, 34347.66, -8137.35, -187500.02, 0.00, 0.00, 0.00
78, 43884.88, 42765.43, 17056.21, 17841.21, 13286.93, 35455.43, -8304.99, -187500.02, 0.00, 0.00, 0.00
79, 44686.97, 42856.09, 16925.88, 17739.66, 13227.76, 35901.55, -8337.13, -187500.02, 0.00, 0.00, 0.00
80, 43628.70, 42720.73, 16814.14, 17733.83, 13291.15, 34782.80, -8216.14, -187500.02, 0.00, 0.00, 0.00
81, 42848.41, 42608.77, 16858.96, 17781.15, 13324.75, 34299.18, -8180.74, -187500.02, 0.00, 0.00, 0.00
82, 43570.66, 42698.09, 16991.48, 17789.98, 13280.98, 35175.70, -8345.16, -187500.02, 0.00, 0.00, 0.00
83, 44731.27, 42837.96, 16951.83, 17708.93, 13194.14, 35989.46, -8361.99, -187500.02, 0.00, 0.00, 0.00
84, 43842.45, 42745.83, 16801.61, 17716.51, 13254.43, 34976.84, -8188.92, -187500.02, 0.00, 0.00, 0.00
85, 42931.20, 42632.78, 16836.29, 17781.10, 13325.95, 34318.00, -8146.14, -187500.02, 0.13, 0.94, 0.31
86, 43294.48, 42685.01, 16966.90, 17801.96, 13303.94, 34926.72, -8248.78, -187500.02, 0.00, 0.00, 0.00
87, 44695.93, 42855.89, 16971.12, 17720.24, 13211.74, 36019.63, -8359.46, -187500.02, 0.00, 0.00, 0.00
88, 44036.09, 42766.24, 16788.55, 17696.32, 13225.59, 35165.51, -8259.91, -187500.02, 0.00, 0.00, 0.00
89, 43040.74, 42630.00, 16813.61, 17732.51, 13290.73, 34354.27, -8200.47, -187500.02, 0.00, 0.00, 0.00
90, 43068.19, 42634.48, 16929.19, 17770.13, 13307.11, 34684.16, -8240.89, -187500.02, 0.00, 0.00, 0.00
91, 44561.11, 42818.90, 16981.29, 17699.34, 13193.65, 35951.93, -8408.52, -187500.02, 0.00, 0.00, 0.00
92, 44230.37, 42787.34, 16786.79, 17665.46, 13200.58, 35363.12, -8310.92, -187500.02, 0.00, 0.00, 0.00
93, 43173.62, 42654.30, 16798.10, 17735.30, 13292.31, 34431.92, -8167.44, -187500.02, 0.00, 0.00, 0.00
94, 42907.37, 42615.01, 16878.38, 17761.95, 13295.46, 34514.07, -8212.30, -187500.02, 0.00, 0.00, 0.00
95, 44341.75, 42779.58, 16965.09, 17696.46, 13208.74, 35798.73, -8400.97, -187500.02, 0.12, 0.94, 0.30
96, 44413.74, 42798.34, 16797.83, 17651.57, 13195.53, 35566.12, -8304.39, -187500.02, 0.00, 0.00, 0.00
97, 43316.70, 42662.30, 16757.77, 17701.11, 13269.29, 34535.25, -8197.41, -187500.02, 0.00, 0.00, 0.00
98, 42815.55, 42592.54, 16822.55, 17740.33, 13300.72, 34381.70, -8213.19, -187500.02, 0.00, 0.00, 0.00
99, 44070.20, 42752.45, 16959.47, 17723.39, 13231.45, 35612.36, -8367.84, -187500.02, 0.00, 0.00, 0.00
100, 44565.38, 42810.77, 16810.21, 17636.96, 13161.13, 35753.92, -8343.44, -187500.02, 0.00, 0.00, 0.00
101, 43473.79, 42680.34, 16727.17, 17658.71, 13238.80, 34646.30, -8205.35, -187500.02, 0.00, 0.00, 0.00
102, 42793.44, 42576.12, 16798.07, 17708.79, 13279.46, 34293.30, -8203.47, -187500.02, 0.00, 0.00, 0.00
103, 43772.36, 42705.82, 16928.38, 17697.04, 13237.69, 35354.11, -8341.54, -187500.02, 0.00, 0.00, 0.00
104, 44662.67, 42811.12, 16826.79, 17611.81, 13161.69, 35889.61, -8372.47, -187500.02, 0.13, 0.94, 0.30
105, 43659.15, 42709.87, 16727.26, 17652.83, 13237.95, 34813.96, -8224.97, -187500.02, 0.00, 0.00, 0.00
106, 42855.56, 42614.80, 16778.29, 17723.73, 13293.59, 34299.67, -8176.98, -187500.02, 0.00, 0.00, 0.00
107, 43481.81, 42683.52, 16897.56, 17713.62, 13237.17, 35100.93, -8317.08, -187500.02, 0.00, 0.00, 0.00
108, 44697.32, 42826.68, 16855.70, 17623.34, 13145.69, 35977.95, -8384.47, -187500.02, 0.00, 0.00, 0.00
109, 43857.86, 42736.40, 16705.27, 17639.79, 13208.61, 34993.18, -8243.70, -187500.02, 0.00, 0.00, 0.00
110, 42931.78, 42608.86, 16740.74, 17688.81, 13267.24, 34297.81, -8201.66, -187500.02, 0.00, 0.00, 0.00
111, 43202.86, 42629.34, 16853.46, 17698.40, 13239.03, 34835.66, -8312.50, -187500.02, 0.00, 0.00, 0.00
112, 44623.40, 42788.34, 16851.40, 17614.81, 13131.85, 35973.30, -8413.46, -187500.02, 0.00, 0.00, 0.00
113, 44050.19, 42740.96, 16687.10, 17607.65, 13167.73, 35190.99, -8280.23, -187500.02, 0.00, 0.00, 0.00
114, 43035.33, 42625.02, 16716.73, 17678.87, 13256.93, 34362.03, -8167.57, -187500.02, 0.13, 0.94, 0.31
115, 42987.86, 42609.38, 16810.48, 17704.39, 13251.03, 34641.49, -8227.50, -187500.02, 0.00, 0.00, 0.00
116, 44482.63, 42788.77, 16872.84, 17635.03, 13148.73, 35915.50, -8395.00, -187500.02, 0.00, 0.00, 0.00
117, 44255.20, 42771.16, 16693.42, 17590.55, 13143.09, 35409.18, -8319.45, -187500.02, 0.00, 0.00, 0.00
118, 43172.91, 42634.61, 16688.73, 17644.73, 13226.11, 34432.21, -8210.51, -187500.02, 0.00, 0.00, 0.00
119, 42847.29, 42586.53, 16772.03, 17678.73, 13245.40, 34445.22, -8247.50, -187500.02, 0.00, 0.00, 0.00
120, 44261.06, 42758.80, 16877.42, 17630.68, 13156.42, 35741.69, -8376.61, -187500.02, 0.00, 0.00, 0.00
121, 44433.03, 42785.17, 16700.66, 17577.70, 13120.12, 35615.61, -8307.67, -187500.02, 0.00, 0.00, 0.00
122, 43322.89, 42650.77, 16663.36, 17633.69, 13204.56, 34551.23, -8205.91, -187500.02, 0.00, 0.00, 0.00
123, 42783.72, 42582.60, 16737.07, 17682.26, 13233.64, 34354.41, -8203.00, -187500.02, 0.00, 0.00, 0.00
124, 43989.55, 42734.84, 16864.26, 17665.03, 13158.58, 35563.95, -8350.21, -187500.02, 0.13, 0.94, 0.31
125, 44570.88, 42814.03, 16723.89, 17604.50, 13110.84, 35800.83, -8332.44, -187500.02, 0.00, 0.00, 0.00
126, 43485.52, 42685.39, 16650.10, 17631.26, 13186.92, 34695.72, -8201.66, -187500.02, 0.00, 0.00, 0.00
127, 42777.55, 42564.87, 16726.82, 17623.99, 13207.60, 34296.88, -8214.62, -187500.02, 0.00, 0.00, 0.00
128, 43674.41, 42664.14, 16842.53, 17625.60, 13158.11, 35276.26, -8390.78, -187500.02, 0.00, 0.00, 0.00
129, 44629.52, 42781.26, 16708.62, 17545.74, 13077.18, 35901.91, -8393.82, -187500.02, 0.00, 0.00, 0.00
130, 43653.52, 42682.06, 16600.39, 17586.38, 13158.87, 34857.41, -8196.09, -187500.02, 0.00, 0.00, 0.00
131, 42824.06, 42566.28, 16658.89, 17631.90, 13226.20, 34298.04, -8161.56, -187500.02, 0.00, 0.00, 0.00
132, 43383.64, 42628.15, 16782.83, 17627.70, 13184.38, 35038.50, -8303.78, -187500.02, 0.00, 0.00, 0.00
133, 44657.64, 42793.11, 16755.47, 17564.04, 13100.65, 35985.37, -8361.38, -187500.02, 0.00, 0.00, 0.00
134, 43854.52, 42710.61, 16612.49, 17570.53, 13159.01, 35041.30, -8220.73, -187500.02, 0.12, 0.93, 0.31
135, 42914.10, 42567.84, 16642.66, 17604.48, 13204.07, 34320.05, -8183.00, -187500.02, 0.00, 0.00, 0.00
136, 43125.07, 42590.93, 16753.32, 17627.39, 13177.05, 34790.76, -8271.06, -187500.02, 0.00, 0.00, 0.00
137, 44584.57, 42804.84, 16784.46, 17582.15, 13091.89, 35981.23, -8368.18, -187500.02, 0.00, 0.00, 0.00
138, 44071.43, 42759.15, 16607.77, 17563.58, 13124.65, 35254.11, -8248.71, -187500.02, 0.00, 0.00, 0.00
139, 43048.59, 42615.19, 16633.90, 17620.66, 13204.00, 34386.08, -8177.27, -187500.02, 0.00, 0.00, 0.00
140, 42953.03, 42600.50, 16732.00, 17644.27, 13189.16, 34608.88, -8234.49, -187500.02, 0.00, 0.00, 0.00
141, 44448.90, 42795.01, 16810.70, 17596.21, 13084.24, 35910.29, -8395.09, -187500.02, 0.00, 0.00, 0.00
142, 44270.33, 42775.87, 16624.33, 17548.22, 13074.23, 35451.23, -8325.40, -187500.02, 0.00, 0.00, 0.00
143, 43185.47, 42625.87, 16614.30, 17581.30, 13158.99, 34454.05, -8213.95, -187500.02, 0.00, 0.00, 0.00
144, 42824.89, 42568.85, 16703.14, 17617.73, 13179.50, 34443.79, -8216.97, -187500.02, 0.13, 0.93, 0.32
145, 44203.10, 42729.80, 16813.23, 17569.39, 13100.51, 35727.30, -8381.57, -187500.02, 0.00, 0.00, 0.00
146, 44421.25, 42745.27, 16615.04, 17471.93, 13053.04, 35613.61, -8353.34, -187500.02, 0.00, 0.00, 0.00
147, 43314.68, 42607.77, 16562.11, 17534.90, 13134.87, 34543.77, -8226.74, -187500.02, 0.00, 0.00, 0.00
148, 42751.33, 42546.41, 16633.97, 17601.48, 13175.55, 34333.64, -8188.09, -187500.02, 0.00, 0.00, 0.00
149, 43904.43, 42687.98, 16778.20, 17571.85, 13127.58, 35494.50, -8362.88, -187500.02, 0.00, 0.00, 0.00
150, 44544.32, 42767.45, 16650.10, 17483.38, 13074.63, 35780.25, -8366.30, -187500.02, 0.00, 0.00, 0.00
151, 43479.37, 42642.90, 16559.49, 17526.70, 13149.58, 34684.27, -8242.56, -187500.02, 0.00, 0.00, 0.00
152, 42772.77, 42536.31, 16614.81, 17576.99, 13175.95, 34293.63, -8213.64, -187500.02, 0.00, 0.00, 0.00
153, 43616.52, 42650.12, 16749.99, 17578.24, 13132.16, 35254.13, -8318.02, -187500.02, 0.13, 0.94, 0.32
154, 44633.32, 42776.01, 16659.65, 17480.88, 13049.13, 35921.04, -8359.87, -187500.02, 0.00, 0.00, 0.00
155, 43671.20, 42677.04, 16544.96, 17510.04, 13119.80, 34855.93, -8233.47, -187500.02, 0.00, 0.00, 0.00
156, 42833.99, 42568.40, 16599.84, 17579.47, 13175.48, 34285.88, -8157.47, -187500.02, 0.00, 0.00, 0.00
157, 43331.85, 42631.55, 16700.24, 17584.77, 13136.81, 34992.77, -8275.82, -187500.02, 0.00, 0.00, 0.00
158, 44627.78, 42771.36, 16674.69, 17494.75, 13043.56, 35978.82, -8398.73, -187500.02, 0.00, 0.00, 0.00
159, 43861.74, 42675.16, 16510.81, 17472.56, 13089.83, 35045.41, -8261.29, -187500.02, 0.00, 0.00, 0.00
160, 42915.97, 42556.85, 16563.51, 17548.64, 13159.83, 34296.83, -8185.63, -187500.02, 0.00, 0.00, 0.00
161, 43066.98, 42589.30, 16669.84, 17598.69, 13150.27, 34744.98, -8236.10, -187500.02, 0.00, 0.00, 0.00
162, 44547.63, 42768.03, 16677.37, 17506.29, 13042.33, 35978.73, -8362.53, -187500.02, 0.00, 0.00, 0.00
163, 44079.47, 42724.13, 16500.97, 17484.25, 13066.78, 35283.59, -8259.28, -187500.02, 0.13, 0.94, 0.33
164, 43047.22, 42584.52, 16518.63, 17529.87, 13144.81, 34388.63, -8191.65, -187500.02, 0.00, 0.00, 0.00
165, 42887.88, 42552.71, 16604.84, 17555.60, 13141.62, 34549.00, -8249.63, -187500.02, 0.00, 0.00, 0.00
166, 44364.77, 42740.42, 16686.07, 17498.71, 13045.35, 35852.20, -8406.69, -187500.02, 0.00, 0.00, 0.00
167, 44270.91, 42750.13, 16505.91, 17460.56, 13046.89, 35484.89, -8306.04, -187500.02, 0.00, 0.00, 0.00
168, 43191.70, 42623.66, 16500.66, 17533.60, 13150.83, 34487.94, -8150.43, -187500.02, 0.00, 0.00, 0.00
169, 42791.65, 42552.42, 16577.24, 17556.80, 13160.71, 34419.34, -8192.67, -187500.02, 0.00, 0.00, 0.00
170, 44132.94, 42712.86, 16688.46, 17509.69, 13070.81, 35676.69, -8386.31, -187500.02, 0.00, 0.00, 0.00
171, 44439.98, 42750.46, 16522.05, 17436.44, 13024.67, 35670.77, -8335.95, -187500.02, 0.00, 0.00, 0.00
172, 43345.60, 42607.61, 16462.46, 17475.44, 13095.66, 34599.23, -8214.69, -187500.02, 0.00, 0.00, 0.00
173, 42742.75, 42516.21, 16527.30, 17515.70, 13131.96, 34321.19, -8202.22, -187500.02, 0.13, 0.93, 0.32
174, 43830.09, 42655.24, 16659.09, 17499.43, 13070.99, 35438.69, -8371.22, -187500.02, 0.00, 0.00, 0.00
175, 44557.48, 42766.95, 16542.68, 17433.73, 13019.29, 35834.07, -8366.41, -187500.02, 0.00, 0.00, 0.00
176, 43507.49, 42650.82, 16438.30, 17476.58, 13089.14, 34746.99, -8234.02, -187500.02, 0.00, 0.00, 0.00
177, 42764.77, 42532.77, 16502.54, 17502.38, 13114.71, 34280.96, -8209.97, -187500.02, 0.00, 0.00, 0.00
178, 43541.11, 42624.82, 16630.23, 17498.51, 13075.01, 35187.66, -8335.43, -187500.02, 0.00, 0.00, 0.00
179, 44627.34, 42772.43, 16548.49, 17433.98, 13005.21, 35946.63, -8405.10, -187500.02, 0.00, 0.00, 0.00
180, 43712.95, 42669.90, 16418.05, 17470.03, 13063.92, 34920.42, -8255.62, -187500.02, 0.00, 0.00, 0.00
181, 42841.95, 42531.97, 16469.81, 17476.29, 13126.96, 34293.34, -8211.96, -187500.02, 0.00, 0.00, 0.00
182, 43247.27, 42576.41, 16586.00, 17483.56, 13097.85, 34917.13, -8328.08, -187500.02, 0.00, 0.00, 0.00
183, 44601.30, 42750.95, 16577.33, 17426.89, 13009.92, 35984.70, -8420.37, -187500.02, 0.13, 0.94, 0.32
184, 43905.87, 42700.21, 16417.22, 17445.45, 13060.17, 35116.76, -8282.04, -187500.02, 0.00, 0.00, 0.00
185, 42941.61, 42578.80, 16452.94, 17505.24, 13132.34, 34332.90, -8195.20, -187500.02, 0.00, 0.00, 0.00
186, 43021.94, 42563.55, 16554.24, 17522.29, 13112.52, 34711.12, -8275.78, -187500.02, 0.00, 0.00, 0.00
187, 44508.63, 42741.09, 16604.35, 17448.96, 13009.74, 35961.74, -8429.65, -187500.02, 0.00, 0.00, 0.00
188, 44113.76, 42704.21, 16425.94, 17419.88, 13026.33, 35332.54, -8313.04, -187500.02, 0.00, 0.00, 0.00
189, 43069.78, 42566.30, 16433.79, 17475.02, 13097.90, 34418.62, -8222.20, -187500.02, 0.00, 0.00, 0.00
190, 42863.47, 42541.83, 16513.92, 17519.21, 13104.45, 34532.35, -8284.72, -187500.02, 0.00, 0.00, 0.00
191, 44322.34, 42726.16, 16601.18, 17455.35, 13022.13, 35833.22, -8448.96, -187500.02, 0.00, 0.00, 0.00
192, 44299.68, 42728.91, 16427.03, 17398.31, 13008.40, 35526.44, -8358.26, -187500.02, 0.13, 0.94, 0.32
193, 43209.07, 42612.62, 16412.28, 17459.75, 13094.70, 34505.48, -8202.02, -187500.02, 0.00, 0.00, 0.00
194, 42758.89, 42525.29, 16483.61, 17485.14, 13103.82, 34396.38, -8241.85, -187500.02, 0.00, 0.00, 0.00
195, 44054.86, 42683.00, 16616.06, 17458.92, 13038.06, 35646.34, -8391.09, -187500.02, 0.00, 0.00, 0.00
196, 44445.64, 42747.08, 16469.19, 17397.35, 13008.89, 35721.95, -8348.93, -187500.02, 0.00, 0.00, 0.00
197, 43351.96, 42607.63, 16382.58, 17427.36, 13076.24, 34628.30, -8258.81, -187500.02, 0.00, 0.00, 0.00
198, 42739.80, 42522.89, 16446.99, 17494.35, 13106.55, 34326.07, -8226.63, -187500.02, 0.00, 0.00, 0.00
199, 43769.50, 42653.48, 16591.99, 17466.48, 13046.78, 35410.79, -8366.66, -187500.02, 0.00, 0.00, 0.00
200, 44563.14, 42740.36, 16473.82, 17346.03, 12983.64, 35856.00, -8385.73, -187500.02, 0.00, 0.00, 0.00
201, 43526.18, 42632.93, 16370.82, 17405.04, 13067.37, 34770.82, -8241.51, -187500.02, 0.00, 0.00, 0.00
202, 42764.72, 42529.54, 16430.07, 17471.31, 13102.93, 34310.62, -8205.30, -187500.02, 0.12, 0.93, 0.32
203, 43466.39, 42614.34, 16547.85, 17461.09, 13054.25, 35160.79, -8331.63, -187500.02, 0.00, 0.00, 0.00
204, 44610.46, 42762.98, 16485.28, 17383.49, 12970.45, 35977.70, -8387.74, -187500.02, 0.00, 0.00, 0.00
205, 43723.97, 42670.82, 16360.18, 17393.57, 13035.51, 34970.18, -8266.05, -187500.02, 0.00, 0.00, 0.00
206, 42840.85, 42530.32, 16405.08, 17430.40, 13076.46, 34315.58, -8230.96, -187500.02, 0.00, 0.00, 0.00
207, 43191.48, 42580.32, 16514.79, 17445.71, 13058.58, 34903.21, -8309.84, -187500.02, 0.00, 0.00, 0.00
208, 44573.38, 42746.52, 16510.43, 17364.71, 12961.40, 36001.13, -8399.56, -187500.02, 0.00, 0.00, 0.00
209, 43919.10, 42681.68, 16345.47, 17365.61, 13001.90, 35160.66, -8286.15, -187500.02, 0.00, 0.00, 0.00
210, 42956.56, 42572.70, 16381.57, 17439.57, 13075.43, 34365.61, -8203.18, -187500.02, 0.00, 0.00, 0.00
211, 42982.00, 42567.91, 16482.38, 17449.74, 13062.78, 34683.18, -8260.31, -187500.02, 0.00, 0.00, 0.00
212, 44463.52, 42745.05, 16535.89, 17373.41, 12965.91, 35939.28, -8429.33, -187500.02, 0.12, 0.93, 0.32
213, 44130.01, 42702.29, 16366.80, 17321.04, 12969.84, 35357.82, -8343.28, -187500.02, 0.00, 0.00, 0.00
214, 43087.61, 42564.87, 16368.50, 17372.76, 13046.96, 34431.36, -8226.80, -187500.02, 0.00, 0.00, 0.00
215, 42828.82, 42538.05, 16437.49, 17432.15, 13066.29, 34501.05, -8261.45, -187500.02, 0.00, 0.00, 0.00
216, 44263.80, 42729.52, 16551.11, 17404.86, 12988.96, 35805.68, -8392.54, -187500.02, 0.00, 0.00, 0.00
217, 44321.70, 42744.18, 16379.16, 17322.54, 12966.22, 35574.54, -8344.11, -187500.02, 0.00, 0.00, 0.00
218, 43225.34, 42583.18, 16342.21, 17356.22, 13035.11, 34522.43, -8269.27, -187500.02, 0.00, 0.00, 0.00
219, 42747.44, 42522.98, 16422.18, 17422.76, 13065.13, 34373.07, -8238.79, -187500.02, 0.00, 0.00, 0.00
220, 44000.97, 42686.76, 16552.45, 17395.27, 12990.23, 35600.88, -8372.47, -187500.02, 0.00, 0.00, 0.00
221, 44465.53, 42735.95, 16388.37, 17288.13, 12926.55, 35737.51, -8394.73, -187500.02, 0.00, 0.00, 0.00
222, 43387.30, 42610.58, 16326.70, 17343.19, 13017.30, 34652.64, -8261.43, -187500.02, 0.13, 0.93, 0.32
223, 42731.46, 42537.87, 16386.00, 17426.04, 13068.77, 34321.24, -8213.06, -187500.02, 0.00, 0.00, 0.00
224, 43701.26, 42648.45, 16511.26, 17402.91, 13002.41, 35369.06, -8376.29, -187500.02, 0.00, 0.00, 0.00
225, 44573.07, 42746.35, 16405.58, 17299.56, 12921.48, 35903.94, -8406.94, -187500.02, 0.00, 0.00, 0.00
226, 43563.50, 42645.36, 16305.96, 17346.67, 12998.97, 34824.08, -8248.71, -187500.02, 0.00, 0.00, 0.00
227, 42784.05, 42534.63, 16358.17, 17399.63, 13035.72, 34312.81, -8231.34, -187500.02, 0.00, 0.00, 0.00
228, 43409.86, 42618.25, 16484.14, 17409.08, 13009.92, 35107.66, -8353.67, -187500.02, 0.00, 0.00, 0.00
229, 44613.72, 42777.66, 16438.41, 17317.10, 12912.85, 35995.25, -8418.14, -187500.02, 0.00, 0.00, 0.00
230, 43763.95, 42683.65, 16292.14, 17329.40, 12969.58, 35018.25, -8283.49, -187500.02, 0.00, 0.00, 0.00
231, 42863.61, 42538.97, 16330.41, 17368.73, 13022.15, 34336.19, -8244.78, -187500.02, 0.00, 0.00, 0.00
232, 43139.71, 42584.07, 16444.47, 17407.92, 13013.03, 34862.42, -8340.02, -187500.02, 0.13, 0.92, 0.32
233, 44552.37, 42763.25, 16458.19, 17356.44, 12918.08, 35994.84, -8453.07, -187500.02, 0.00, 0.00, 0.00
234, 43963.18, 42694.76, 16282.04, 17313.30, 12938.84, 35207.19, -8304.16, -187500.02, 0.00, 0.00, 0.00
235, 42980.97, 42561.72, 16305.06, 17340.64, 13006.99, 34390.82, -8239.99, -187500.02, 0.00, 0.00, 0.00
236, 42935.69, 42550.93, 16397.26, 17379.40, 12996.67, 34653.52, -8298.42, -187500.02, 0.00, 0.00, 0.00
237, 44420.80, 42747.15, 16469.23, 17331.83, 12910.37, 35935.43, -8422.05, -187500.02, 0.00, 0.00, 0.00
238, 44176.79, 42728.91, 16282.87, 17304.85, 12917.94, 35432.50, -8348.35, -187500.02, 0.00, 0.00, 0.00
239, 43116.76, 42582.39, 16278.26, 17342.72, 12990.30, 34461.76, -8254.90, -187500.02, 0.00, 0.00, 0.00
240, 42802.85, 42531.88, 16357.74, 17363.62, 13001.00, 34465.14, -8285.46, -187500.02, 0.00, 0.00, 0.00
241, 44207.70, 42718.72, 16458.68, 17326.36, 12914.57, 35767.06, -8411.77, -187500.02, 0.13, 0.93, 0.32
242, 44350.69, 42730.68, 16284.47, 17259.12, 12880.06, 35617.19, -8360.98, -187500.02, 0.00, 0.00, 0.00
243, 43263.70, 42606.78, 16258.95, 17337.13, 12981.09, 34573.92, -8243.55, -187500.02, 0.00, 0.00, 0.00
244, 42741.09, 42548.36, 16314.60, 17394.04, 13006.90, 34386.08, -8255.82, -187500.02, 0.00, 0.00, 0.00
245, 43927.79, 42694.20, 16451.82, 17365.72, 12932.61, 35566.79, -8406.13, -187500.02, 0.00, 0.00, 0.00
246, 44507.26, 42767.47, 16326.85, 17271.95, 12878.20, 35813.33, -8384.50, -187500.02, 0.00, 0.00, 0.00
247, 43439.12, 42641.58, 16233.98, 17312.56, 12954.42, 34726.92, -8260.94, -187500.02, 0.00, 0.00, 0.00
248, 42737.92, 42518.71, 16265.23, 17354.32, 12974.94, 34331.41, -8248.49, -187500.02, 0.00, 0.00, 0.00
249, 43616.14, 42637.11, 16413.31, 17336.21, 12924.20, 35314.59, -8361.81, -187500.02, 0.00, 0.00, 0.00
250, 44590.25, 42787.52, 16313.64, 17284.51, 12864.23, 35968.20, -8393.68, -187500.02, 0.00, 0.00, 0.00
251, 43620.30, 42689.15, 16220.79, 17333.29, 12951.34, 34914.03, -8253.29, -187500.02, 0.12, 0.93, 0.31
252, 42795.41, 42559.20, 16274.26, 17378.06, 12992.24, 34342.25, -8218.00, -187500.02, 0.00, 0.00, 0.00
253, 43332.16, 42619.61, 16393.15, 17343.25, 12963.99, 35056.83, -8340.67, -187500.02, 0.00, 0.00, 0.00
254, 44603.38, 42778.62, 16365.79, 17258.54, 12867.36, 36005.44, -8441.02, -187500.02, 0.00, 0.00, 0.00
255, 43831.97, 42690.09, 16206.76, 17264.73, 12904.91, 35077.33, -8306.42, -187500.02, 0.00, 0.00, 0.00
0, 42883.56, 42562.59, 16243.19, 17324.59, 12968.17, 34349.64, -8234.87, -187500.02, 0.00, 0.00, 0.00
1, 43065.82, 42582.06, 16351.93, 17340.51, 12947.45, 34797.33, -8308.57, -187500.02, 0.00, 0.00, 0.00
2, 44521.12, 42776.95, 16376.38, 17291.00, 12854.53, 35995.38, -8431.23, -187500.02, 0.00, 0.00, 0.00
3, 44055.60, 42714.94, 16192.25, 17257.22, 12870.54, 35305.20, -8313.33, -187500.02, 0.00, 0.00, 0.00
4, 43009.70, 42568.80, 16206.78, 17305.14, 12950.78, 34413.44, -8223.05, -187500.02, 0.00, 0.00, 0.00
5, 42872.84, 42545.00, 16299.47, 17326.65, 12954.20, 34591.13, -8308.32, -187500.02, 0.12, 0.94, 0.31
6, 44338.50, 42720.80, 16373.61, 17258.92, 12856.81, 35865.90, -8463.55, -187500.02, 0.00, 0.00, 0.00
7, 44234.97, 42712.35, 16203.90, 17214.40, 12853.44, 35489.72, -8360.22, -187500.02, 0.00, 0.00, 0.00
8, 43145.23, 42591.65, 16196.16, 17282.48, 12949.57, 34488.92, -8266.95, -187500.02, 0.00, 0.00, 0.00
9, 42758.95, 42538.23, 16278.95, 17341.69, 12968.26, 34448.30, -8251.28, -187500.02, 0.00, 0.00, 0.00
10, 44104.48, 42704.62, 16366.97, 17301.17, 12872.01, 35728.61, -8411.14, -187500.02, 0.00, 0.00, 0.00
11, 44400.78, 42749.14, 16202.76, 17223.22, 12831.06, 35699.51, -8369.25, -187500.02, 0.00, 0.00, 0.00
12, 43313.97, 42618.58, 16169.68, 17274.86, 12921.05, 34630.72, -8241.51, -187500.02, 0.00, 0.00, 0.00
13, 42723.86, 42528.84, 16225.60, 17304.63, 12959.16, 34370.57, -8243.23, -187500.02, 0.00, 0.00, 0.00
14, 43825.87, 42661.57, 16352.89, 17283.91, 12899.71, 35492.31, -8394.22, -187500.02, 0.00, 0.00, 0.00
15, 44521.75, 42746.50, 16230.00, 17202.62, 12826.32, 35844.08, -8422.61, -187500.02, 0.12, 0.93, 0.32
16, 43475.66, 42635.55, 16139.61, 17260.08, 12918.28, 34769.34, -8272.25, -187500.02, 0.00, 0.00, 0.00
17, 42738.39, 42531.30, 16188.50, 17306.84, 12960.19, 34334.16, -8215.45, -187500.02, 0.00, 0.00, 0.00
18, 43528.37, 42620.93, 16317.40, 17288.11, 12907.60, 35242.02, -8370.88, -187500.02, 0.00, 0.00, 0.00
19, 44570.25, 42744.80, 16240.35, 17193.77, 12811.53, 35949.54, -8426.56, -187500.02, 0.00, 0.00, 0.00
20, 43655.04, 42647.93, 16119.38, 17228.77, 12883.17, 34937.12, -8270.95, -187500.02, 0.00, 0.00, 0.00
21, 42807.70, 42540.42, 16173.54, 17299.80, 12949.10, 34339.63, -8217.53, -187500.02, 0.00, 0.00, 0.00
22, 43258.74, 42597.24, 16291.25, 17292.00, 12920.43, 34996.30, -8328.19, -187500.02, 0.00, 0.00, 0.00
23, 44576.39, 42760.18, 16267.73, 17204.79, 12809.96, 36009.22, -8460.16, -187500.02, 0.00, 0.00, 0.00
24, 43852.73, 42669.57, 16107.58, 17199.06, 12847.13, 35125.77, -8303.87, -187500.02, 0.00, 0.00, 0.00
25, 42893.15, 42533.16, 16136.04, 17248.71, 12912.80, 34366.57, -8244.19, -187500.02, 0.12, 0.93, 0.32
26, 43012.09, 42556.89, 16244.67, 17274.90, 12914.19, 34758.39, -8319.18, -187500.02, 0.00, 0.00, 0.00
27, 44472.75, 42747.42, 16299.25, 17212.23, 12833.99, 35975.64, -8430.72, -187500.02, 0.00, 0.00, 0.00
28, 44047.62, 42698.25, 16112.70, 17172.91, 12849.66, 35322.62, -8330.45, -187500.02, 0.00, 0.00, 0.00
29, 43009.67, 42548.13, 16117.37, 17217.03, 12914.35, 34414.06, -8247.39, -187500.02, 0.00, 0.00, 0.00
30, 42832.96, 42536.64, 16213.60, 17269.47, 12924.52, 34566.61, -8280.20, -187500.02, 0.00, 0.00, 0.00
31, 44294.92, 42724.31, 16302.22, 17222.35, 12839.07, 35875.69, -8413.17, -187500.02, 0.00, 0.00, 0.00
32, 44230.61, 42717.22, 16118.42, 17182.25, 12816.00, 35532.19, -8364.56, -187500.02, 0.00, 0.00, 0.00
33, 43151.56, 42588.68, 16098.02, 17224.12, 12904.06, 34516.08, -8243.75, -187500.02, 0.00, 0.00, 0.00
34, 42750.01, 42531.25, 16180.90, 17257.58, 12917.85, 34437.91, -8253.56, -187500.02, 0.12, 0.93, 0.32
35, 44066.20, 42689.77, 16302.42, 17217.57, 12837.54, 35695.73, -8419.28, -187500.02, 0.00, 0.00, 0.00
36, 44407.02, 42738.86, 16120.03, 17158.83, 12796.31, 35730.89, -8394.53, -187500.02, 0.00, 0.00, 0.00
37, 43321.21, 42606.98, 16074.12, 17210.48, 12870.45, 34656.13, -8270.21, -187500.02, 0.00, 0.00, 0.00
38, 42718.03, 42508.93, 16140.66, 17238.98, 12899.19, 34363.13, -8271.42, -187500.02, 0.00, 0.00, 0.00
39, 43786.33, 42650.61, 16262.82, 17228.32, 12845.46, 35473.02, -8399.32, -187500.02, 0.00, 0.00, 0.00
40, 44532.59, 42745.30, 16138.29, 17139.07, 12776.61, 35891.51, -8401.84, -187500.02, 0.00, 0.00, 0.00
41, 43494.84, 42644.80, 16046.29, 17178.21, 12856.88, 34796.17, -8285.19, -187500.02, 0.00, 0.00, 0.00
42, 42751.44, 42537.85, 16105.12, 17233.20, 12897.98, 34327.14, -8273.79, -187500.02, 0.00, 0.00, 0.00
43, 43484.11, 42623.79, 16235.64, 17232.93, 12856.12, 35201.05, -8387.96, -187500.02, 0.00, 0.00, 0.00
44, 44574.79, 42747.24, 16174.66, 17142.47, 12765.33, 35976.54, -8444.62, -187500.02, 0.13, 0.93, 0.31
45, 43677.23, 42645.36, 16034.22, 17162.70, 12821.36, 34974.02, -8294.42, -187500.02, 0.00, 0.00, 0.00
46, 42819.14, 42530.47, 16072.69, 17221.88, 12875.01, 34356.86, -8253.00, -187500.02, 0.00, 0.00, 0.00
47, 43209.59, 42585.84, 16202.15, 17245.13, 12855.92, 34961.52, -8365.10, -187500.02, 0.00, 0.00, 0.00
48, 44556.70, 42749.07, 16195.65, 17155.14, 12757.28, 36015.68, -8470.10, -187500.02, 0.00, 0.00, 0.00
49, 43877.41, 42674.91, 16030.38, 17145.82, 12809.40, 35155.16, -8330.96, -187500.02, 0.00, 0.00, 0.00
50, 42916.64, 42543.44, 16065.45, 17220.54, 12877.04, 34382.88, -8230.56, -187500.02, 0.00, 0.00, 0.00
51, 42979.68, 42557.74, 16164.85, 17238.07, 12877.49, 34732.06, -8313.89, -187500.02, 0.00, 0.00, 0.00
52, 44447.71, 42738.43, 16205.86, 17147.52, 12782.83, 35962.50, -8451.60, -187500.02, 0.00, 0.00, 0.00
53, 44082.98, 42694.87, 16022.38, 17115.36, 12785.40, 35363.90, -8352.76, -187500.02, 0.00, 0.00, 0.00
54, 43051.11, 42562.57, 16030.87, 17178.81, 12861.48, 34459.71, -8234.09, -187500.02, 0.13, 0.93, 0.32
55, 42833.16, 42546.79, 16120.12, 17214.60, 12863.23, 34560.73, -8277.45, -187500.02, 0.00, 0.00, 0.00
56, 44273.26, 42727.26, 16217.08, 17168.35, 12772.99, 35858.77, -8454.95, -187500.02, 0.00, 0.00, 0.00
57, 44267.38, 42719.01, 16042.99, 17102.17, 12760.81, 35571.17, -8370.77, -187500.02, 0.00, 0.00, 0.00
58, 43202.68, 42608.37, 16014.02, 17184.89, 12863.50, 34567.95, -8220.28, -187500.02, 0.00, 0.00, 0.00
59, 42747.78, 42536.57, 16084.65, 17223.16, 12878.38, 34444.68, -8247.50, -187500.02, 0.00, 0.00, 0.00
60, 44011.19, 42677.41, 16193.57, 17172.02, 12797.25, 35664.78, -8418.36, -187500.02, 0.00, 0.00, 0.00
61, 44417.03, 42727.86, 16029.22, 17086.81, 12733.97, 35754.50, -8393.79, -187500.02, 0.00, 0.00, 0.00
62, 43341.28, 42613.78, 15981.68, 17154.52, 12831.26, 34682.35, -8243.12, -187500.02, 0.00, 0.00, 0.00
63, 42717.47, 42530.47, 16046.45, 17211.60, 12870.65, 34376.40, -8234.32, -187500.02, 0.00, 0.00, 0.00
64, 43722.20, 42647.44, 16170.88, 17177.61, 12806.95, 35435.45, -8371.62, -187500.02, 0.13, 0.94, 0.32
65, 44533.26, 42750.39, 16070.99, 17103.53, 12747.36, 35908.95, -8381.23, -187500.02, 0.00, 0.00, 0.00
66, 43524.57, 42630.12, 15963.10, 17141.11, 12804.44, 34834.88, -8262.68, -187500.02, 0.00, 0.00, 0.00
67, 42747.71, 42518.14, 16009.06, 17147.68, 12853.12, 34324.88, -8236.59, -187500.02, 0.00, 0.00, 0.00
68, 43423.25, 42596.93, 16146.97, 17171.35, 12831.22, 35166.96, -8351.86, -187500.02, 0.00, 0.00, 0.00
69, 44577.13, 42750.86, 16092.00, 17092.07, 12747.33, 36007.00, -8441.38, -187500.02, 0.00, 0.00, 0.00
70, 43698.31, 42666.66, 15950.90, 17102.84, 12812.44, 35000.80, -8270.10, -187500.02, 0.00, 0.00, 0.00
71, 42826.90, 42535.05, 15990.66, 17148.44, 12854.87, 34343.50, -8230.34, -187500.02, 0.00, 0.00, 0.00
72, 43159.45, 42558.48, 16103.02, 17152.06, 12815.13, 34917.76, -8323.43, -187500.02, 0.00, 0.00, 0.00
73, 44540.61, 42735.10, 16109.95, 17075.97, 12717.00, 36026.74, -8422.88, -187500.02, 0.13, 0.94, 0.32
74, 43916.15, 42683.14, 15949.96, 17083.39, 12773.69, 35212.13, -8270.61, -187500.02, 0.00, 0.00, 0.00
75, 42949.86, 42557.70, 15985.27, 17147.77, 12851.94, 34406.98, -8217.91, -187500.02, 0.00, 0.00, 0.00
76, 42955.27, 42549.20, 16078.24, 17170.41, 12848.48, 34700.95, -8296.95, -187500.02, 0.00, 0.00, 0.00
77, 44429.93, 42739.42, 16135.63, 17117.55, 12747.96, 35974.55, -8405.26, -187500.02, 0.00, 0.00, 0.00
78, 44111.46, 42694.63, 15942.07, 17075.59, 12733.50, 35425.57, -8321.15, -187500.02, 0.00, 0.00, 0.00
79, 43075.72, 42576.76, 15952.44, 17145.04, 12814.81, 34492.41, -8230.90, -187500.02, 0.00, 0.00, 0.00
80, 42815.73, 42559.89, 16025.71, 17190.77, 12831.22, 34547.59, -8260.49, -187500.02, 0.00, 0.00, 0.00
81, 44231.02, 42717.00, 16121.96, 17130.91, 12730.86, 35829.42, -8446.05, -187500.02, 0.00, 0.00, 0.00
82, 44307.26, 42741.47, 15948.71, 17080.08, 12699.46, 35630.56, -8382.73, -187500.02, 0.00, 0.00, 0.00
83, 43223.71, 42616.64, 15930.18, 17144.59, 12787.95, 34591.07, -8237.71, -187500.02, 0.12, 0.94, 0.33
84, 42734.59, 42534.23, 15983.93, 17181.54, 12794.14, 34410.04, -8269.30, -187500.02, 0.00, 0.00, 0.00
85, 43963.55, 42678.66, 16102.15, 17104.47, 12729.59, 35609.86, -8433.29, -187500.02, 0.00, 0.00, 0.00
86, 44451.00, 42742.48, 15954.34, 17037.30, 12685.91, 35794.04, -8425.62, -187500.02, 0.00, 0.00, 0.00
87, 43372.91, 42621.09, 15891.60, 17092.80, 12771.67, 34707.32, -8267.73, -187500.02, 0.00, 0.00, 0.00
88, 42711.99, 42521.24, 15961.87, 17129.15, 12805.67, 34344.15, -8253.05, -187500.02, 0.00, 0.00, 0.00
89, 43647.28, 42637.34, 16080.43, 17104.09, 12753.48, 35353.71, -8402.80, -187500.02, 0.00, 0.00, 0.00
90, 44529.08, 42735.75, 15972.98, 17011.42, 12671.47, 35916.37, -8425.29, -187500.02, 0.00, 0.00, 0.00
91, 43539.36, 42638.36, 15871.46, 17069.11, 12761.73, 34862.51, -8271.64, -187500.02, 0.00, 0.00, 0.00
92, 42756.23, 42531.08, 15927.92, 17134.09, 12812.76, 34338.80, -8236.75, -187500.02, 0.00, 0.00, 0.00
93, 43362.58, 42616.68, 16068.02, 17145.44, 12788.66, 35112.11, -8338.81, -187500.02, 0.12, 0.93, 0.32
94, 44562.25, 42753.99, 16024.12, 17023.83, 12691.07, 36001.39, -8433.92, -187500.02, 0.00, 0.00, 0.00
95, 43726.52, 42655.33, 15874.28, 17036.86, 12735.22, 35030.26, -8306.53, -187500.02, 0.00, 0.00, 0.00
96, 42834.90, 42526.41, 15911.16, 17094.30, 12800.17, 34341.09, -8245.04, -187500.02, 0.00, 0.00, 0.00
97, 43095.50, 42564.25, 16014.44, 17130.35, 12778.51, 34858.98, -8338.30, -187500.02, 0.00, 0.00, 0.00
98, 44508.89, 42731.57, 16026.65, 17022.91, 12668.63, 36011.32, -8451.08, -187500.02, 0.00, 0.00, 0.00
99, 43928.95, 42679.36, 15856.80, 17032.88, 12711.37, 35243.20, -8305.19, -187500.02, 0.00, 0.00, 0.00
100, 42940.94, 42544.67, 15884.69, 17083.39, 12783.14, 34392.47, -8253.47, -187500.02, 0.00, 0.00, 0.00
101, 42880.84, 42510.65, 15978.84, 17080.29, 12773.64, 34624.82, -8342.43, -187500.02, 0.00, 0.00, 0.00
102, 44351.52, 42695.94, 16036.44, 17032.16, 12690.27, 35908.99, -8480.90, -187500.02, 0.00, 0.00, 0.00
103, 44121.40, 42690.15, 15855.68, 17031.00, 12694.96, 35450.94, -8351.13, -187500.02, 0.13, 0.93, 0.32
104, 43081.60, 42560.92, 15863.19, 17078.23, 12778.69, 34506.04, -8226.07, -187500.02, 0.00, 0.00, 0.00
105, 42764.18, 42494.58, 15948.28, 17092.33, 12782.31, 34496.74, -8287.67, -187500.02, 0.00, 0.00, 0.00
106, 44140.92, 42687.38, 16031.18, 17048.37, 12692.13, 35775.29, -8447.33, -187500.02, 0.00, 0.00, 0.00
107, 44306.18, 42703.52, 15857.18, 16988.09, 12653.34, 35655.46, -8380.56, -187500.02, 0.00, 0.00, 0.00
108, 43228.50, 42565.81, 15822.04, 17045.39, 12742.53, 34607.56, -8289.73, -187500.02, 0.00, 0.00, 0.00
109, 42706.25, 42499.83, 15898.48, 17107.38, 12784.93, 34404.56, -8248.93, -187500.02, 0.00, 0.00, 0.00
110, 43879.49, 42651.33, 16030.25, 17072.62, 12716.06, 35583.89, -8393.57, -187500.02, 0.00, 0.00, 0.00
111, 44448.41, 42719.19, 15887.57, 16988.31, 12656.52, 35828.71, -8418.47, -187500.02, 0.00, 0.00, 0.00
112, 43395.69, 42594.54, 15806.30, 17026.62, 12735.67, 34738.54, -8314.38, -187500.02, 0.00, 0.00, 0.00
113, 42704.14, 42498.33, 15875.24, 17079.39, 12776.35, 34341.29, -8252.60, -187500.02, 0.13, 0.93, 0.32
114, 43573.74, 42593.46, 16012.03, 17066.52, 12728.67, 35319.06, -8389.26, -187500.02, 0.00, 0.00, 0.00
115, 44531.94, 42716.37, 15907.98, 16983.10, 12648.23, 35959.39, -8448.87, -187500.02, 0.00, 0.00, 0.00
116, 43559.41, 42618.81, 15788.62, 17009.28, 12718.81, 34901.09, -8298.08, -187500.02, 0.00, 0.00, 0.00
117, 42760.85, 42520.15, 15852.71, 17083.17, 12791.43, 34346.79, -8235.83, -187500.02, 0.00, 0.00, 0.00
118, 43288.49, 42575.02, 15970.63, 17078.63, 12745.41, 35066.49, -8362.75, -187500.02, 0.00, 0.00, 0.00
119, 44546.06, 42742.93, 15941.91, 16992.60, 12646.57, 36023.72, -8459.71, -187500.02, 0.00, 0.00, 0.00
120, 43773.30, 42657.27, 15797.34, 17005.18, 12700.26, 35096.89, -8352.98, -187500.02, 0.00, 0.00, 0.00
121, 42853.23, 42521.02, 15838.07, 17069.38, 12762.24, 34371.42, -8301.57, -187500.02, 0.00, 0.00, 0.00
122, 43036.70, 42534.09, 15935.63, 17057.06, 12739.91, 34810.20, -8373.99, -187500.02, 0.13, 0.94, 0.32
123, 44480.71, 42736.02, 15958.07, 17011.93, 12654.10, 36018.83, -8453.47, -187500.02, 0.00, 0.00, 0.00
124, 43978.87, 42685.84, 15790.10, 16999.28, 12683.61, 35312.09, -8354.79, -187500.02, 0.00, 0.00, 0.00
125, 42976.66, 42543.37, 15813.28, 17048.86, 12749.97, 34437.02, -8296.27, -187500.02, 0.00, 0.00, 0.00
126, 42861.43, 42515.50, 15899.11, 17074.68, 12740.25, 34632.29, -8347.97, -187500.02, 0.00, 0.00, 0.00
127, 44316.22, 42717.73, 15982.93, 17033.46, 12653.34, 35931.68, -8503.21, -187500.02, 0.00, 0.00, 0.00
128, 44179.07, 42716.48, 15812.03, 16994.43, 12648.81, 35527.98, -8397.68, -187500.02, 0.00, 0.00, 0.00
0, 43602.06, 41262.73, 14593.10, 15619.96, 11259.71, 35379.41, -9891.85, 0.00, 0.13, 0.94, 0.32
1, 44273.13, 41570.58, 14696.14, 15781.76, 11430.32, 35721.98, -9695.16, 0.00, 0.00, 0.00, 0.00
2, 43195.17, 41613.14, 14763.73, 15999.69, 11676.77, 34574.41, -9373.61, 0.00, 0.00, 0.00, 0.00
3, 42432.02, 41639.96, 14947.80, 16179.11, 11845.04, 34079.52, -9178.54, 0.00, 0.00, 0.00, 0.00
4, 43140.25, 41829.93, 15192.66, 16297.46, 11909.41, 34935.24, -9234.38, 0.00, 0.00, 0.00, 0.00
5, 44263.56, 42051.45, 15200.84, 16276.58, 11903.94, 35736.35, -9217.59, 0.00, 0.00, 0.00, 0.00
6, 43373.45, 42015.54, 15126.43, 16348.98, 12038.96, 34714.80, -8959.18, 0.00, 0.00, 0.00, 0.00
7, 42520.73, 41962.61, 15243.96, 16479.92, 12173.65, 34086.48, -8829.43, 0.00, 0.13, 0.93, 0.32
8, 42906.70, 42076.29, 15424.22, 16568.77, 12218.27, 34706.98, -8879.21, 0.00, 0.00, 0.00, 0.00
9, 44278.34, 42273.20, 15459.99, 16509.02, 12156.42, 35787.73, -8977.15, 0.00, 0.00, 0.00, 0.00
10, 43616.61, 42236.35, 15322.77, 16538.19, 12230.34, 34943.73, -8794.90, 0.00, 0.00, 0.00, 0.00
11, 42664.85, 42153.13, 15387.37, 16648.05, 12338.52, 34168.08, -8676.12, 0.00, 0.00, 0.00, 0.00
12, 42731.82, 42190.88, 15531.24, 16701.69, 12357.88, 34532.10, -8699.05, 0.00, 0.00, 0.00, 0.00
13, 44214.97, 42403.45, 15604.78, 16656.92, 12296.01, 35802.64, -8798.65, 0.00, 0.00, 0.00, 0.00
14, 43868.88, 42375.08, 15420.33, 16631.80, 12313.24, 35210.50, -8699.37, 0.00, 0.00, 0.00, 0.00
15, 42837.88, 42256.44, 15448.27, 16713.31, 12406.78, 34275.84, -8601.24, 0.00, 0.00, 0.00, 0.00
16, 42622.52, 42249.54, 15561.53, 16772.10, 12445.83, 34368.87, -8609.06, 0.00, 0.00, 0.00, 0.00
17, 44061.86, 42454.30, 15680.44, 16734.66, 12375.56, 35678.21, -8736.87, 0.00, 0.13, 0.93, 0.31
18, 44097.51, 42476.00, 15523.46, 16710.68, 12361.34, 35444.75, -8672.57, 0.00, 0.00, 0.00, 0.00
19, 43020.76, 42346.00, 15500.46, 16766.69, 12463.24, 34422.58, -8506.20, 0.00, 0.00, 0.00, 0.00
20, 42572.67, 42289.95, 15573.38, 16796.13, 12496.86, 34285.99, -8518.16, 0.00, 0.00, 0.00, 0.00
21, 43841.36, 42468.67, 15720.18, 16786.32, 12438.23, 35518.66, -8660.85, 0.00, 0.00, 0.00, 0.00
22, 44291.81, 42549.29, 15573.47, 16750.71, 12411.45, 35666.19, -8633.74, 0.00, 0.00, 0.00, 0.00
23, 43202.77, 42407.63, 15502.41, 16775.41, 12482.89, 34566.66, -8534.25, 0.00, 0.00, 0.00, 0.00
24, 42565.68, 42322.00, 15567.54, 16804.20, 12506.87, 34218.38, -8516.44, 0.00, 0.00, 0.00, 0.00
25, 43564.75, 42486.38, 15728.54, 16844.23, 12483.92, 35302.23, -8599.86, 0.00, 0.00, 0.00, 0.00
26, 44412.56, 42606.02, 15632.32, 16776.68, 12420.37, 35833.62, -8621.49, 0.00, 0.00, 0.00, 0.00
27, 43401.41, 42493.93, 15534.26, 16791.93, 12506.14, 34737.27, -8500.57, 0.00, 0.13, 0.94, 0.32
28, 42641.56, 42389.59, 15590.25, 16853.28, 12560.21, 34233.73, -8443.04, 0.00, 0.00, 0.00, 0.00
29, 43299.66, 42484.59, 15723.47, 16872.73, 12530.68, 35065.28, -8562.15, 0.00, 0.00, 0.00, 0.00
30, 44472.10, 42622.34, 15677.65, 16784.64, 12440.40, 35932.57, -8635.53, 0.00, 0.00, 0.00, 0.00
31, 43615.70, 42527.57, 15535.31, 16795.14, 12485.97, 34950.71, -8453.34, 0.00, 0.00, 0.00, 0.00
32, 42737.83, 42423.23, 15570.69, 16869.22, 12560.94, 34290.04, -8382.02, 0.00, 0.00, 0.00, 0.00
33, 43040.00, 42465.88, 15699.60, 16891.35, 12558.91, 34831.23, -8481.24, 0.00, 0.00, 0.00, 0.00
34, 44429.32, 42626.21, 15717.14, 16841.88, 12463.71, 35970.08, -8591.38, 0.00, 0.00, 0.00, 0.00
35, 43806.98, 42563.66, 15528.47, 16775.86, 12481.62, 35162.73, -8507.61, 0.00, 0.00, 0.00, 0.00
36, 42836.00, 42451.13, 15563.70, 16841.44, 12568.85, 34335.47, -8415.45, 0.00, 0.13, 0.94, 0.32
37, 42831.11, 42445.80, 15664.55, 16884.35, 12567.94, 34615.65, -8461.68, 0.00, 0.00, 0.00, 0.00
38, 44314.10, 42636.49, 15742.53, 16827.71, 12484.66, 35907.25, -8602.27, 0.00, 0.00, 0.00, 0.00
39, 44035.21, 42611.54, 15553.17, 16795.32, 12483.09, 35397.23, -8491.52, 0.00, 0.00, 0.00, 0.00
40, 42982.31, 42474.46, 15555.18, 16847.52, 12553.95, 34434.31, -8406.38, 0.00, 0.00, 0.00, 0.00
41, 42701.57, 42432.73, 15652.12, 16889.71, 12567.98, 34470.05, -8431.03, 0.00, 0.00, 0.00, 0.00
42, 44108.11, 42627.30, 15761.11, 16854.78, 12505.33, 35769.50, -8556.47, 0.00, 0.00, 0.00, 0.00
43, 44209.78, 42642.79, 15572.33, 16792.04, 12484.81, 35581.07, -8501.71, 0.00, 0.00, 0.00, 0.00
44, 43116.43, 42503.16, 15535.94, 16843.49, 12559.74, 34522.45, -8407.52, 0.00, 0.00, 0.00, 0.00
45, 42616.39, 42431.01, 15608.54, 16887.50, 12576.07, 34342.63, -8430.32, 0.00, 0.00, 0.00, 0.00
46, 43839.91, 42604.08, 15753.64, 16879.90, 12528.42, 35564.64, -8525.33, 0.00, 0.13, 0.94, 0.32
47, 44370.25, 42672.68, 15607.57, 16801.83, 12473.41, 35793.61, -8509.29, 0.00, 0.00, 0.00, 0.00
48, 43282.09, 42530.25, 15536.34, 16832.40, 12541.14, 34677.25, -8426.65, 0.00, 0.00, 0.00, 0.00
49, 42613.58, 42434.47, 15595.95, 16860.61, 12588.93, 34289.16, -8400.21, 0.00, 0.00, 0.00, 0.00
50, 43547.54, 42561.54, 15727.00, 16878.05, 12562.33, 35312.49, -8536.38, 0.00, 0.00, 0.00, 0.00
51, 44474.94, 42699.32, 15636.63, 16821.63, 12490.29, 35937.11, -8527.73, 0.00, 0.00, 0.00, 0.00
52, 43477.47, 42575.91, 15513.00, 16842.73, 12539.46, 34859.85, -8395.36, 0.00, 0.00, 0.00, 0.00
53, 42687.32, 42460.40, 15553.86, 16856.88, 12579.36, 34296.58, -8365.68, 0.00, 0.00, 0.00, 0.00
54, 43270.16, 42539.59, 15694.12, 16867.27, 12564.90, 35048.83, -8471.89, 0.00, 0.00, 0.00, 0.00
55, 44501.07, 42690.89, 15661.26, 16793.96, 12481.75, 35985.59, -8541.29, 0.00, 0.00, 0.00, 0.00
56, 43675.29, 42590.35, 15503.35, 16791.70, 12520.69, 35025.83, -8427.93, 0.00, 0.13, 0.93, 0.32
57, 42760.20, 42444.00, 15544.36, 16831.44, 12581.80, 34307.38, -8369.99, 0.00, 0.00, 0.00, 0.00
58, 42997.63, 42457.36, 15662.22, 16845.93, 12562.22, 34793.71, -8452.87, 0.00, 0.00, 0.00, 0.00
59, 44420.98, 42646.97, 15689.36, 16777.13, 12474.82, 35975.73, -8578.00, 0.00, 0.00, 0.00, 0.00
60, 43864.92, 42589.75, 15517.65, 16760.52, 12500.30, 35230.37, -8433.36, 0.00, 0.00, 0.00, 0.00
61, 42885.02, 42454.50, 15552.37, 16814.08, 12567.89, 34382.21, -8363.26, 0.00, 0.00, 0.00, 0.00
62, 42811.66, 42444.93, 15637.15, 16846.13, 12565.35, 34606.40, -8409.13, 0.00, 0.00, 0.00, 0.00
63, 44274.13, 42627.52, 15715.82, 16777.80, 12475.78, 35899.54, -8554.42, 0.00, 0.00, 0.00, 0.00
64, 44065.08, 42607.63, 15533.59, 16732.47, 12480.79, 35432.18, -8471.22, 0.00, 0.00, 0.00, 0.00
65, 43010.21, 42474.28, 15520.56, 16795.73, 12559.53, 34455.37, -8364.60, 0.00, 0.00, 0.00, 0.00
66, 42691.96, 42427.83, 15608.40, 16827.69, 12560.45, 34445.31, -8390.06, 0.00, 0.14, 0.94, 0.32
67, 44072.77, 42608.41, 15731.25, 16797.29, 12490.96, 35733.96, -8553.54, 0.00, 0.00, 0.00, 0.00
68, 44269.82, 42642.05, 15549.97, 16736.58, 12453.12, 35651.90, -8508.37, 0.00, 0.00, 0.00, 0.00
69, 43161.17, 42486.93, 15512.87, 16766.18, 12533.36, 34579.02, -8414.02, 0.00, 0.00, 0.00, 0.00
70, 42620.37, 42408.32, 15581.58, 16810.81, 12562.53, 34354.74, -8375.91, 0.00, 0.00, 0.00, 0.00
71, 43778.91, 42565.99, 15703.91, 16818.75, 12501.75, 35528.50, -8495.32, 0.00, 0.00, 0.00, 0.00
72, 44382.34, 42648.18, 15577.27, 16725.25, 12455.93, 35815.47, -8517.38, 0.00, 0.00, 0.00, 0.00
73, 43320.83, 42511.12, 15489.24, 16746.28, 12530.86, 34718.25, -8404.03, 0.00, 0.00, 0.00, 0.00
74, 42631.39, 42401.37, 15540.90, 16788.75, 12560.50, 34301.97, -8387.09, 0.00, 0.00, 0.00, 0.00
75, 43483.64, 42519.25, 15667.88, 16791.28, 12514.65, 35256.88, -8518.72, 0.00, 0.13, 0.93, 0.32
76, 44463.83, 42636.24, 15561.15, 16683.59, 12426.54, 35915.92, -8549.65, 0.00, 0.00, 0.00, 0.00
77, 43509.41, 42532.48, 15472.01, 16726.62, 12491.45, 34877.08, -8395.85, 0.00, 0.00, 0.00, 0.00
78, 42692.57, 42420.21, 15527.00, 16769.69, 12553.37, 34287.71, -8372.47, 0.00, 0.00, 0.00, 0.00
79, 43192.46, 42477.54, 15641.26, 16776.57, 12534.46, 34978.55, -8476.61, 0.00, 0.00, 0.00, 0.00
80, 44469.33, 42624.89, 15610.55, 16697.22, 12436.91, 35972.45, -8583.32, 0.00, 0.00, 0.00, 0.00
81, 43697.37, 42541.71, 15449.37, 16705.69, 12476.54, 35057.88, -8443.50, 0.00, 0.00, 0.00, 0.00
82, 42782.78, 42425.49, 15488.06, 16759.47, 12536.83, 34327.23, -8377.17, 0.00, 0.00, 0.00, 0.00
83, 42963.76, 42453.92, 15600.87, 16785.27, 12526.32, 34769.72, -8456.38, 0.00, 0.00, 0.00, 0.00
84, 44393.11, 42639.86, 15632.32, 16719.08, 12437.72, 35974.15, -8572.27, 0.00, 0.00, 0.00, 0.00
85, 43891.98, 42583.07, 15463.23, 16682.96, 12452.56, 35263.77, -8463.02, 0.00, 0.13, 0.93, 0.31
86, 42881.11, 42433.27, 15476.82, 16721.76, 12523.28, 34368.33, -8399.63, 0.00, 0.00, 0.00, 0.00
87, 42758.02, 42424.77, 15568.68, 16777.60, 12533.20, 34552.42, -8422.85, 0.00, 0.00, 0.00, 0.00
88, 44222.32, 42602.82, 15632.27, 16724.74, 12439.24, 35870.30, -8558.35, 0.00, 0.00, 0.00, 0.00
89, 44092.41, 42598.31, 15439.85, 16634.75, 12418.99, 35473.07, -8497.66, 0.00, 0.00, 0.00, 0.00
90, 43028.09, 42472.40, 15435.00, 16714.54, 12517.09, 34476.58, -8379.42, 0.00, 0.00, 0.00, 0.00
91, 42641.58, 42409.66, 15524.07, 16747.92, 12536.53, 34399.91, -8413.55, 0.00, 0.00, 0.00, 0.00
92, 43976.36, 42568.20, 15638.49, 16688.08, 12435.57, 35659.55, -8589.15, 0.00, 0.00, 0.00, 0.00
93, 44258.15, 42620.51, 15465.64, 16650.46, 12410.81, 35648.55, -8537.49, 0.00, 0.00, 0.00, 0.00
94, 43183.93, 42504.39, 15420.67, 16712.60, 12494.31, 34585.37, -8409.60, 0.00, 0.00, 0.00, 0.00
95, 42620.21, 42420.84, 15490.97, 16749.90, 12520.89, 34326.71, -8366.82, 0.00, 0.13, 0.93, 0.32
96, 43715.18, 42553.47, 15620.05, 16727.24, 12460.29, 35453.80, -8533.05, 0.00, 0.00, 0.00, 0.00
97, 44398.61, 42642.81, 15491.43, 16643.24, 12401.82, 35819.30, -8533.72, 0.00, 0.00, 0.00, 0.00
98, 43347.81, 42509.17, 15393.11, 16663.27, 12471.04, 34711.63, -8425.83, 0.00, 0.00, 0.00, 0.00
99, 42617.27, 42393.55, 15444.14, 16710.07, 12496.73, 34257.89, -8414.51, 0.00, 0.00, 0.00, 0.00
100, 43403.11, 42491.69, 15593.76, 16703.79, 12461.83, 35172.79, -8544.02, 0.00, 0.00, 0.00, 0.00
101, 44470.27, 42657.90, 15528.72, 16653.41, 12405.31, 35934.68, -8536.60, 0.00, 0.00, 0.00, 0.00
102, 43547.68, 42565.45, 15391.70, 16683.27, 12468.23, 34922.57, -8391.87, 0.00, 0.00, 0.00, 0.00
103, 42715.50, 42431.16, 15440.29, 16715.21, 12506.47, 34303.64, -8371.20, 0.00, 0.00, 0.00, 0.00
104, 43145.37, 42483.00, 15573.82, 16719.22, 12493.06, 34934.90, -8469.86, 0.00, 0.00, 0.00, 0.00
105, 44455.14, 42628.53, 15550.40, 16634.86, 12391.49, 35973.12, -8579.76, 0.00, 0.13, 0.93, 0.32
106, 43728.35, 42547.89, 15374.38, 16630.90, 12422.72, 35087.75, -8445.67, 0.00, 0.00, 0.00, 0.00
107, 42794.40, 42443.52, 15401.98, 16693.18, 12497.87, 34324.84, -8347.06, 0.00, 0.00, 0.00, 0.00
108, 42895.14, 42449.07, 15513.70, 16705.16, 12488.52, 34691.40, -8430.32, 0.00, 0.00, 0.00, 0.00
109, 44343.80, 42626.56, 15556.21, 16630.41, 12392.66, 35930.59, -8576.90, 0.00, 0.00, 0.00, 0.00
110, 43927.17, 42582.06, 15374.60, 16605.18, 12400.59, 35300.51, -8465.43, 0.00, 0.00, 0.00, 0.00
111, 42909.94, 42430.18, 15382.18, 16650.84, 12465.52, 34388.07, -8384.36, 0.00, 0.00, 0.00, 0.00
112, 42729.20, 42426.87, 15487.03, 16705.22, 12488.84, 34512.37, -8415.70, 0.00, 0.00, 0.00, 0.00
113, 44175.83, 42614.52, 15577.11, 16666.06, 12413.80, 35831.75, -8557.66, 0.00, 0.00, 0.00, 0.00
114, 44129.45, 42599.79, 15384.44, 16595.70, 12378.55, 35514.35, -8504.91, 0.00, 0.00, 0.00, 0.00
115, 43056.52, 42462.46, 15356.79, 16640.16, 12460.83, 34481.12, -8404.05, 0.00, 0.13, 0.93, 0.32
116, 42630.74, 42389.55, 15428.07, 16679.65, 12482.96, 34386.88, -8374.08, 0.00, 0.00, 0.00, 0.00
117, 43924.89, 42567.44, 15560.55, 16663.25, 12413.98, 35652.20, -8536.26, 0.00, 0.00, 0.00, 0.00
118, 44294.99, 42620.24, 15397.36, 16598.45, 12364.78, 35719.23, -8516.71, 0.00, 0.00, 0.00, 0.00
119, 43205.09, 42484.65, 15342.68, 16635.20, 12442.05, 34616.39, -8409.33, 0.00, 0.00, 0.00, 0.00
120, 42599.76, 42386.30, 15400.98, 16663.83, 12470.24, 34304.70, -8387.20, 0.00, 0.00, 0.00, 0.00
121, 43624.70, 42523.19, 15542.08, 16668.54, 12414.78, 35401.77, -8520.73, 0.00, 0.00, 0.00, 0.00
122, 44392.44, 42609.62, 15422.05, 16546.44, 12346.52, 35853.74, -8565.23, 0.00, 0.00, 0.00, 0.00
123, 43364.57, 42485.88, 15317.67, 16589.49, 12430.77, 34751.89, -8421.13, 0.00, 0.00, 0.00, 0.00
124, 42623.84, 42398.13, 15369.33, 16666.35, 12477.73, 34285.14, -8361.34, 0.00, 0.13, 0.93, 0.32
125, 43331.98, 42497.39, 15510.46, 16661.24, 12447.08, 35144.94, -8476.99, 0.00, 0.00, 0.00, 0.00
126, 44453.37, 42635.68, 15454.87, 16574.11, 12357.12, 35966.48, -8531.33, 0.00, 0.00, 0.00, 0.00
127, 43563.17, 42540.84, 15312.58, 16592.91, 12411.10, 34952.18, -8393.86, 0.00, 0.00, 0.00, 0.00
128, 42709.24, 42427.61, 15355.29, 16640.38, 12467.89, 34299.22, -8352.60, 0.00, 0.00, 0.00, 0.00
129, 43072.75, 42472.31, 15477.35, 16660.61, 12450.68, 34894.29, -8459.38, 0.00, 0.00, 0.00, 0.00
130, 44429.37, 42637.85, 15478.02, 16579.14, 12359.78, 35988.05, -8580.79, 0.00, 0.00, 0.00, 0.00
131, 43764.00, 42551.46, 15297.40, 16545.50, 12383.25, 35132.94, -8463.47, 0.00, 0.00, 0.00, 0.00
132, 42807.81, 42430.49, 15329.97, 16614.12, 12460.78, 34328.48, -8377.08, 0.00, 0.00, 0.00, 0.00
133, 42837.99, 42433.89, 15436.02, 16653.35, 12466.48, 34652.29, -8446.30, 0.00, 0.00, 0.00, 0.00
134, 44305.61, 42616.57, 15494.38, 16584.77, 12365.72, 35928.17, -8558.88, 0.00, 0.13, 0.93, 0.32
135, 43957.41, 42575.71, 15305.09, 16520.80, 12354.43, 35348.68, -8476.21, 0.00, 0.00, 0.00, 0.00
136, 42929.65, 42456.00, 15321.87, 16594.87, 12448.67, 34412.01, -8373.54, 0.00, 0.00, 0.00, 0.00
137, 42699.79, 42422.58, 15400.33, 16634.37, 12465.39, 34489.41, -8367.64, 0.00, 0.00, 0.00, 0.00
138, 44118.45, 42601.93, 15496.82, 16585.02, 12382.26, 35808.12, -8529.56, 0.00, 0.00, 0.00, 0.00
139, 44149.75, 42607.03, 15309.36, 16529.76, 12349.99, 35562.29, -8481.95, 0.00, 0.00, 0.00, 0.00
140, 43069.66, 42466.21, 15269.91, 16582.78, 12414.52, 34518.54, -8393.35, 0.00, 0.00, 0.00, 0.00
141, 42602.11, 42396.21, 15348.27, 16599.79, 12441.58, 34358.90, -8388.83, 0.00, 0.00, 0.00, 0.00
142, 43855.98, 42576.09, 15505.14, 16599.77, 12403.90, 35602.73, -8496.01, 0.00, 0.00, 0.00, 0.00
143, 44322.48, 42645.59, 15350.35, 16538.84, 12356.51, 35765.85, -8500.55, 0.00, 0.00, 0.00, 0.00
144, 43238.04, 42499.00, 15272.83, 16561.77, 12429.27, 34653.32, -8382.71, 0.00, 0.14, 0.93, 0.31
145, 42603.63, 42395.09, 15326.32, 16583.52, 12445.79, 34297.48, -8382.64, 0.00, 0.00, 0.00, 0.00
146, 43567.68, 42541.83, 15477.44, 16602.70, 12400.70, 35349.55, -8486.71, 0.00, 0.00, 0.00, 0.00
147, 44425.90, 42659.15, 15380.26, 16539.02, 12326.50, 35912.57, -8502.18, 0.00, 0.00, 0.00, 0.00
148, 43431.52, 42561.30, 15266.02, 16592.37, 12393.84, 34841.34, -8383.83, 0.00, 0.00, 0.00, 0.00
149, 42665.99, 42447.14, 15308.89, 16628.04, 12422.07, 34320.50, -8389.88, 0.00, 0.00, 0.00, 0.00
150, 43291.35, 42523.50, 15434.24, 16616.80, 12379.87, 35104.42, -8502.87, 0.00, 0.00, 0.00, 0.00
151, 44468.57, 42668.16, 15388.59, 16515.77, 12298.40, 35985.08, -8562.53, 0.00, 0.00, 0.00, 0.00
152, 43604.95, 42547.48, 15233.34, 16509.62, 12355.51, 34982.45, -8454.93, 0.00, 0.00, 0.00, 0.00
153, 42718.59, 42418.87, 15264.92, 16556.43, 12422.34, 34293.05, -8401.31, 0.00, 0.00, 0.00, 0.00
154, 43006.05, 42458.05, 15385.17, 16576.34, 12416.13, 34827.28, -8498.31, 0.00, 0.13, 0.93, 0.31
155, 44411.62, 42641.27, 15387.97, 16519.88, 12321.02, 35987.94, -8562.57, 0.00, 0.00, 0.00, 0.00
156, 43815.74, 42592.01, 15213.51, 16529.14, 12352.20, 35211.02, -8415.34, 0.00, 0.00, 0.00, 0.00
157, 42820.58, 42430.70, 15237.88, 16533.67, 12411.25, 34360.69, -8378.62, 0.00, 0.00, 0.00, 0.00
158, 42787.07, 42410.13, 15336.78, 16540.09, 12399.41, 34619.34, -8432.84, 0.00, 0.00, 0.00, 0.00
159, 44266.80, 42617.00, 15406.86, 16508.86, 12318.58, 35918.87, -8570.04, 0.00, 0.00, 0.00, 0.00
160, 43996.90, 42596.39, 15222.16, 16478.94, 12326.61, 35400.27, -8454.82, 0.00, 0.00, 0.00, 0.00
161, 42946.51, 42452.91, 15220.42, 16520.26, 12396.17, 34431.34, -8368.31, 0.00, 0.00, 0.00, 0.00
162, 42658.10, 42407.79, 15298.58, 16548.98, 12400.52, 34453.80, -8416.64, 0.00, 0.00, 0.00, 0.00
163, 44051.51, 42589.13, 15413.65, 16506.56, 12328.35, 35754.48, -8574.89, 0.00, 0.00, 0.00, 0.00
164, 44175.76, 42604.86, 15247.00, 16433.63, 12293.77, 35585.74, -8521.25, 0.00, 0.13, 0.93, 0.32
165, 43095.01, 42484.47, 15216.37, 16504.71, 12378.62, 34524.30, -8412.37, 0.00, 0.00, 0.00, 0.00
166, 42602.07, 42416.99, 15276.75, 16552.00, 12404.46, 34350.05, -8396.41, 0.00, 0.00, 0.00, 0.00
167, 43799.74, 42567.58, 15405.45, 16524.69, 12336.60, 35560.30, -8552.09, 0.00, 0.00, 0.00, 0.00
168, 44336.61, 42641.05, 15263.29, 16456.25, 12281.08, 35791.60, -8531.66, 0.00, 0.00, 0.00, 0.00
169, 43270.32, 42510.91, 15183.67, 16501.02, 12357.47, 34681.70, -8406.42, 0.00, 0.00, 0.00, 0.00
170, 42603.61, 42411.38, 15244.05, 16544.13, 12391.05, 34292.20, -8397.17, 0.00, 0.00, 0.00, 0.00
171, 43501.03, 42537.80, 15390.94, 16550.77, 12345.56, 35298.61, -8553.59, 0.00, 0.00, 0.00, 0.00
172, 44434.35, 42654.10, 15290.36, 16461.03, 12261.61, 35914.49, -8576.72, 0.00, 0.00, 0.00, 0.00
173, 43455.21, 42526.34, 15178.64, 16444.54, 12330.14, 34843.48, -8404.41, 0.00, 0.13, 0.93, 0.32
174, 42668.83, 42425.29, 15228.13, 16530.59, 12384.34, 34314.96, -8357.85, 0.00, 0.00, 0.00, 0.00
175, 43220.96, 42498.22, 15358.06, 16546.53, 12360.27, 35060.72, -8490.89, 0.00, 0.00, 0.00, 0.00
176, 44447.58, 42657.05, 15336.74, 16461.75, 12281.66, 35993.93, -8581.88, 0.00, 0.00, 0.00, 0.00
177, 43638.20, 42549.02, 15179.02, 16437.40, 12311.18, 35017.98, -8455.71, 0.00, 0.00, 0.00, 0.00
178, 42744.13, 42429.38, 15213.63, 16497.84, 12365.07, 34298.95, -8399.85, 0.00, 0.00, 0.00, 0.00
179, 42974.56, 42488.99, 15329.03, 16570.04, 12375.33, 34808.08, -8436.11, 0.00, 0.00, 0.00, 0.00
180, 44403.77, 42673.75, 15356.68, 16504.84, 12286.11, 36014.63, -8560.92, 0.00, 0.00, 0.00, 0.00
181, 43860.91, 42594.94, 15168.27, 16432.80, 12288.36, 35243.85, -8491.74, 0.00, 0.00, 0.00, 0.00
182, 42861.86, 42450.81, 15187.29, 16474.24, 12353.18, 34362.03, -8406.25, 0.00, 0.00, 0.00, 0.00
183, 42774.87, 42446.27, 15287.34, 16522.03, 12358.66, 34585.99, -8430.90, 0.00, 0.13, 0.93, 0.31
184, 44246.91, 42658.32, 15376.97, 16484.01, 12283.60, 35907.56, -8578.11, 0.00, 0.00, 0.00, 0.00
185, 44048.65, 42625.49, 15181.93, 16440.76, 12275.82, 35445.86, -8518.72, 0.00, 0.00, 0.00, 0.00
186, 42993.36, 42482.80, 15168.07, 16490.13, 12355.51, 34447.46, -8426.21, 0.00, 0.00, 0.00, 0.00
187, 42654.21, 42437.49, 15251.96, 16519.66, 12384.83, 34428.19, -8455.37, 0.00, 0.00, 0.00, 0.00
188, 44013.64, 42609.75, 15372.19, 16494.65, 12307.76, 35718.55, -8607.12, 0.00, 0.00, 0.00, 0.00
189, 44236.54, 42654.44, 15207.75, 16420.57, 12263.49, 35646.41, -8534.54, 0.00, 0.00, 0.00, 0.00
190, 43162.09, 42519.03, 15153.99, 16468.29, 12336.78, 34587.25, -8443.64, 0.00, 0.00, 0.00, 0.00
191, 42614.32, 42438.70, 15221.67, 16518.56, 12361.43, 34364.26, -8455.37, 0.00, 0.00, 0.00, 0.00
192, 43750.03, 42587.25, 15360.32, 16509.18, 12318.72, 35531.47, -8565.93, 0.00, 0.00, 0.00, 0.00
193, 44361.80, 42644.33, 15212.64, 16416.24, 12257.16, 35826.70, -8592.50, 0.00, 0.13, 0.94, 0.32
194, 43313.50, 42541.61, 15140.96, 16462.30, 12331.35, 34731.73, -8461.05, 0.00, 0.00, 0.00, 0.00
195, 42627.43, 42457.36, 15207.97, 16526.30, 12375.51, 34326.51, -8411.16, 0.00, 0.00, 0.00, 0.00
196, 43462.61, 42572.43, 15345.84, 16516.89, 12329.29, 35273.11, -8574.60, 0.00, 0.00, 0.00, 0.00
197, 44451.56, 42672.90, 15253.75, 16397.17, 12235.66, 35946.41, -8618.05, 0.00, 0.00, 0.00, 0.00
198, 43493.18, 42554.43, 15127.33, 16425.69, 12294.35, 34886.47, -8487.23, 0.00, 0.00, 0.00, 0.00
199, 42677.77, 42460.73, 15188.32, 16491.36, 12358.88, 34299.55, -8459.78, 0.00, 0.00, 0.00, 0.00
200, 43179.90, 42542.70, 15313.98, 16525.52, 12350.75, 35017.76, -8508.24, 0.00, 0.00, 0.00, 0.00
201, 44468.19, 42689.68, 15287.45, 16439.19, 12251.62, 36027.17, -8613.29, 0.00, 0.00, 0.00, 0.00
202, 43707.63, 42588.88, 15122.14, 16420.44, 12279.22, 35088.41, -8512.39, 0.00, 0.00, 0.00, 0.00
203, 42779.07, 42457.96, 15150.33, 16476.01, 12342.88, 34336.05, -8429.69, 0.00, 0.13, 0.94, 0.32
204, 42914.70, 42464.49, 15261.50, 16490.07, 12330.21, 34759.26, -8494.83, 0.00, 0.00, 0.00, 0.00
205, 44360.86, 42643.89, 15306.45, 16414.49, 12236.31, 35977.88, -8648.83, 0.00, 0.00, 0.00, 0.00
206, 43894.11, 42589.50, 15114.41, 16397.82, 12252.06, 35272.97, -8530.03, 0.00, 0.00, 0.00, 0.00
207, 42896.66, 42479.80, 15131.42, 16465.12, 12343.35, 34400.41, -8413.11, 0.00, 0.00, 0.00, 0.00
208, 42762.39, 42470.23, 15227.44, 16503.37, 12345.67, 34576.49, -8465.90, 0.00, 0.00, 0.00, 0.00
209, 44208.08, 42655.35, 15310.86, 16442.21, 12251.73, 35877.14, -8627.48, 0.00, 0.00, 0.00, 0.00
210, 44092.10, 42630.52, 15119.14, 16379.60, 12223.72, 35487.26, -8559.85, 0.00, 0.00, 0.00, 0.00
211, 43031.31, 42495.89, 15105.96, 16432.35, 12310.29, 34474.28, -8441.85, 0.00, 0.00, 0.00, 0.00
212, 42652.58, 42457.11, 15186.49, 16488.68, 12342.23, 34420.07, -8451.66, 0.00, 0.13, 0.93, 0.32
213, 43984.05, 42634.12, 15303.32, 16467.56, 12269.07, 35714.46, -8596.46, 0.00, 0.00, 0.00, 0.00
214, 44281.38, 42662.82, 15138.68, 16373.50, 12217.96, 35706.82, -8567.67, 0.00, 0.00, 0.00, 0.00
215, 43192.98, 42520.84, 15090.42, 16424.98, 12298.73, 34609.06, -8456.49, 0.00, 0.00, 0.00, 0.00
216, 42608.19, 42429.38, 15163.94, 16459.29, 12324.51, 34326.64, -8447.06, 0.00, 0.00, 0.00, 0.00
217, 43678.57, 42561.99, 15296.82, 16434.19, 12256.78, 35457.15, -8612.15, 0.00, 0.00, 0.00, 0.00
218, 44382.25, 42649.12, 15160.94, 16357.50, 12197.26, 35847.30, -8587.79, 0.00, 0.00, 0.00, 0.00
219, 43348.99, 42545.92, 15071.29, 16418.70, 12296.21, 34752.65, -8424.75, 0.00, 0.00, 0.00, 0.00
220, 42626.68, 42435.21, 15142.17, 16463.60, 12342.54, 34298.19, -8416.86, 0.00, 0.00, 0.00, 0.00
221, 43381.07, 42519.70, 15285.28, 16440.91, 12286.11, 35185.06, -8563.96, 0.00, 0.00, 0.00, 0.00
222, 44440.88, 42651.55, 15191.99, 16345.76, 12192.32, 35949.54, -8636.47, 0.00, 0.13, 0.93, 0.31
223, 43528.43, 42554.32, 15045.34, 16386.02, 12254.81, 34919.04, -8468.27, 0.00, 0.00, 0.00, 0.00
224, 42685.82, 42434.25, 15096.32, 16432.18, 12311.59, 34305.77, -8426.23, 0.00, 0.00, 0.00, 0.00
225, 43089.87, 42481.90, 15222.54, 16429.40, 12289.61, 34929.54, -8541.61, 0.00, 0.00, 0.00, 0.00
226, 44426.80, 42667.71, 15221.81, 16376.63, 12206.47, 35999.00, -8616.17, 0.00, 0.00, 0.00, 0.00
227, 43734.96, 42600.12, 15056.78, 16389.84, 12256.18, 35124.27, -8496.32, 0.00, 0.00, 0.00, 0.00
228, 42780.68, 42450.19, 15086.09, 16407.14, 12319.50, 34326.42, -8426.54, 0.00, 0.00, 0.00, 0.00
229, 42856.36, 42444.53, 15188.99, 16424.33, 12298.87, 34687.29, -8489.19, 0.00, 0.00, 0.00, 0.00
230, 44323.29, 42642.68, 15238.68, 16372.72, 12207.65, 35959.51, -8625.34, 0.00, 0.00, 0.00, 0.00
231, 43933.38, 42625.87, 15051.44, 16346.97, 12219.03, 35330.91, -8509.51, 0.00, 0.00, 0.00, 0.00
232, 42913.85, 42484.68, 15069.50, 16413.31, 12296.79, 34405.46, -8426.43, 0.00, 0.13, 0.93, 0.31
233, 42703.16, 42433.55, 15147.37, 16413.80, 12292.21, 34501.01, -8486.20, 0.00, 0.00, 0.00, 0.00
234, 44145.57, 42626.63, 15243.02, 16370.15, 12213.06, 35827.54, -8627.66, 0.00, 0.00, 0.00, 0.00
235, 44129.11, 42618.09, 15056.00, 16315.34, 12186.60, 35539.52, -8555.15, 0.00, 0.00, 0.00, 0.00
236, 43048.65, 42475.62, 15039.50, 16367.27, 12276.45, 34498.02, -8438.30, 0.00, 0.00, 0.00, 0.00
237, 42618.58, 42421.04, 15115.12, 16412.35, 12300.30, 34396.29, -8442.46, 0.00, 0.00, 0.00, 0.00
238, 43895.76, 42585.75, 15237.12, 16378.46, 12233.20, 35645.20, -8619.93, 0.00, 0.00, 0.00, 0.00
239, 44279.95, 42629.34, 15064.85, 16294.13, 12174.73, 35710.66, -8608.28, 0.00, 0.00, 0.00, 0.00
240, 43188.66, 42501.01, 15016.73, 16346.08, 12261.36, 34608.90, -8446.41, 0.00, 0.00, 0.00, 0.00
241, 42576.23, 42406.38, 15077.86, 16390.22, 12290.20, 34315.49, -8428.42, 0.00, 0.00, 0.00, 0.00
242, 43590.28, 42549.45, 15223.12, 16397.55, 12239.41, 35419.04, -8527.68, 0.00, 0.14, 0.93, 0.31
243, 44392.48, 42659.40, 15116.04, 16336.62, 12172.04, 35913.20, -8562.19, 0.00, 0.00, 0.00, 0.00
244, 43373.74, 42538.88, 15017.69, 16355.78, 12242.52, 34811.95, -8449.65, 0.00, 0.00, 0.00, 0.00
245, 42611.57, 42425.87, 15057.95, 16378.89, 12287.27, 34306.06, -8414.07, 0.00, 0.00, 0.00, 0.00
246, 43285.76, 42506.60, 15177.91, 16384.95, 12241.13, 35147.51, -8567.04, 0.00, 0.00, 0.00, 0.00
247, 44422.44, 42656.13, 15124.40, 16289.15, 12152.17, 35982.42, -8638.23, 0.00, 0.00, 0.00, 0.00
248, 43561.71, 42581.08, 14989.91, 16331.82, 12225.38, 34983.68, -8463.62, 0.00, 0.00, 0.00, 0.00
249, 42703.23, 42455.41, 15033.18, 16385.79, 12285.61, 34346.05, -8392.28, 0.00, 0.00, 0.00, 0.00
250, 43036.29, 42500.88, 15157.81, 16395.56, 12269.07, 34915.88, -8490.96, 0.00, 0.00, 0.00, 0.00
251, 44416.09, 42677.17, 15163.74, 16311.92, 12174.93, 36031.59, -8596.19, 0.00, 0.00, 0.00, 0.00
252, 43756.22, 42592.01, 14981.88, 16297.77, 12205.44, 35179.48, -8503.72, 0.00, 0.13, 0.93, 0.31
253, 42793.22, 42457.29, 15015.19, 16349.63, 12268.00, 34365.02, -8418.96, 0.00, 0.00, 0.00, 0.00
254, 42815.39, 42459.21, 15115.01, 16374.75, 12262.90, 34680.05, -8470.35, 0.00, 0.00, 0.00, 0.00
255, 44291.66, 42664.54, 15174.51, 16335.17, 12185.72, 35978.95, -8596.28, 0.00, 0.00, 0.00, 0.00
0, 43971.20, 42641.90, 14990.84, 16299.27, 12192.12, 35419.04, -8494.22, 0.00, 0.00, 0.00, 0.00
1, 42932.74, 42494.73, 14994.02, 16329.92, 12257.12, 34459.71, -8413.93, 0.00, 0.00, 0.00, 0.00
2, 42668.50, 42448.66, 15072.70, 16370.73, 12264.22, 34521.44, -8448.65, 0.00, 0.00, 0.00, 0.00
3, 44080.23, 42641.05, 15186.38, 16323.84, 12194.28, 35828.91, -8603.99, 0.00, 0.00, 0.00, 0.00
4, 44149.95, 42658.21, 15012.86, 16272.81, 12165.14, 35600.88, -8546.17, 0.00, 0.00, 0.00, 0.00
5, 43076.08, 42514.74, 14980.43, 16324.10, 12239.14, 34548.17, -8453.16, 0.00, 0.13, 0.93, 0.31
6, 42604.05, 42449.52, 15049.74, 16348.98, 12263.80, 34411.14, -8425.58, 0.00, 0.00, 0.00, 0.00
7, 43837.47, 42611.95, 15175.22, 16322.14, 12200.23, 35646.05, -8598.96, 0.00, 0.00, 0.00, 0.00
8, 44311.73, 42660.07, 15016.17, 16228.80, 12128.64, 35798.62, -8581.53, 0.00, 0.00, 0.00, 0.00
9, 43236.41, 42536.51, 14943.91, 16282.89, 12210.96, 34692.57, -8446.66, 0.00, 0.00, 0.00, 0.00
10, 42593.13, 42460.11, 15021.56, 16348.15, 12264.58, 34345.89, -8406.00, 0.00, 0.00, 0.00, 0.00
11, 43545.71, 42586.73, 15151.53, 16344.51, 12216.97, 35397.03, -8543.53, 0.00, 0.00, 0.00, 0.00
12, 44407.82, 42686.64, 15037.94, 16260.09, 12143.05, 35944.96, -8586.98, 0.00, 0.00, 0.00, 0.00
13, 43404.27, 42556.89, 14923.52, 16273.70, 12201.17, 34840.96, -8486.58, 0.00, 0.00, 0.00, 0.00
14, 42621.18, 42447.39, 14979.65, 16313.84, 12255.86, 34312.25, -8453.23, 0.00, 0.00, 0.00, 0.00
15, 43231.89, 42532.17, 15117.45, 16322.79, 12233.96, 35115.28, -8518.25, 0.00, 0.13, 0.93, 0.31
16, 44429.63, 42683.49, 15081.75, 16249.07, 12146.41, 36029.20, -8593.49, 0.00, 0.00, 0.00, 0.00
17, 43596.20, 42600.21, 14935.41, 16271.06, 12197.88, 35050.53, -8453.25, 0.00, 0.00, 0.00, 0.00
18, 42707.39, 42481.07, 14960.45, 16334.16, 12255.86, 34355.77, -8405.75, 0.00, 0.00, 0.00, 0.00
19, 42980.79, 42497.21, 15082.87, 16351.28, 12229.11, 34875.83, -8511.52, 0.00, 0.00, 0.00, 0.00
20, 44390.41, 42683.88, 15103.39, 16269.68, 12147.08, 36046.84, -8600.08, 0.00, 0.00, 0.00, 0.00
21, 43807.36, 42626.61, 14921.06, 16262.75, 12178.24, 35265.75, -8469.70, 0.00, 0.00, 0.00, 0.00
22, 42815.21, 42469.72, 14935.44, 16295.11, 12237.07, 34412.66, -8416.57, 0.00, 0.00, 0.00, 0.00
23, 42766.08, 42461.81, 15031.08, 16307.59, 12236.66, 34662.52, -8452.31, 0.00, 0.00, 0.00, 0.00
24, 44231.64, 42660.11, 15111.10, 16259.80, 12154.72, 35958.75, -8587.56, 0.00, 0.00, 0.00, 0.00
25, 43989.98, 42636.02, 14930.79, 16228.17, 12149.36, 35471.55, -8487.20, 0.00, 0.12, 0.93, 0.31
26, 42944.90, 42508.86, 14925.78, 16283.22, 12226.56, 34501.95, -8407.36, 0.00, 0.00, 0.00, 0.00
27, 42641.56, 42472.96, 15012.24, 16322.05, 12249.49, 34507.83, -8432.31, 0.00, 0.00, 0.00, 0.00
28, 44035.35, 42651.11, 15132.76, 16291.65, 12182.30, 35823.23, -8575.00, 0.00, 0.00, 0.00, 0.00
29, 44184.75, 42675.31, 14957.92, 16238.43, 12141.04, 35678.43, -8531.57, 0.00, 0.00, 0.00, 0.00
30, 43098.30, 42530.43, 14910.13, 16269.57, 12217.26, 34606.96, -8415.16, 0.00, 0.00, 0.00, 0.00
31, 42579.02, 42455.66, 14979.11, 16297.35, 12244.58, 34400.85, -8423.03, 0.00, 0.00, 0.00, 0.00
32, 43747.57, 42595.09, 15103.86, 16263.31, 12172.83, 35591.00, -8588.25, 0.00, 0.00, 0.00, 0.00
33, 44320.36, 42690.00, 14962.95, 16209.89, 12123.18, 35851.82, -8567.18, 0.00, 0.00, 0.00, 0.00
34, 43262.09, 42570.66, 14900.54, 16256.31, 12206.96, 34740.20, -8431.14, 0.00, 0.00, 0.00, 0.00
35, 42578.80, 42470.14, 14951.64, 16284.36, 12227.14, 34331.47, -8455.15, 0.00, 0.12, 0.93, 0.32
36, 43466.18, 42593.95, 15086.17, 16293.06, 12184.52, 35342.55, -8540.24, 0.00, 0.00, 0.00, 0.00
37, 44423.00, 42714.18, 15008.17, 16214.54, 12112.43, 36005.44, -8533.94, 0.00, 0.00, 0.00, 0.00
38, 43446.16, 42586.62, 14879.20, 16237.71, 12187.56, 34913.20, -8462.79, 0.00, 0.00, 0.00, 0.00
39, 42639.30, 42458.16, 14915.07, 16249.90, 12228.39, 34339.45, -8437.36, 0.00, 0.00, 0.00, 0.00
40, 43169.73, 42522.14, 15043.57, 16255.31, 12190.60, 35082.49, -8520.62, 0.00, 0.00, 0.00, 0.00
41, 44409.61, 42685.97, 15019.99, 16179.67, 12099.51, 36044.11, -8611.03, 0.00, 0.00, 0.00, 0.00
42, 43626.38, 42606.54, 14865.76, 16199.14, 12144.33, 35101.27, -8465.25, 0.00, 0.00, 0.00, 0.00
43, 42715.37, 42485.86, 14903.32, 16268.74, 12210.62, 34379.24, -8394.53, 0.00, 0.00, 0.00, 0.00
44, 42916.36, 42524.77, 15028.87, 16294.91, 12209.26, 34850.86, -8478.49, 0.00, 0.00, 0.00, 0.00
45, 44342.33, 42686.49, 15054.61, 16197.17, 12108.70, 36051.91, -8614.32, 0.00, 0.12, 0.93, 0.32
46, 43820.10, 42611.57, 14871.06, 16170.23, 12119.41, 35314.44, -8484.25, 0.00, 0.00, 0.00, 0.00
47, 42820.09, 42480.25, 14894.13, 16248.85, 12193.95, 34459.10, -8422.18, 0.00, 0.00, 0.00, 0.00
48, 42711.97, 42463.04, 14980.29, 16252.65, 12192.97, 34666.48, -8449.88, 0.00, 0.00, 0.00, 0.00
49, 44172.19, 42645.14, 15062.30, 16184.34, 12098.02, 35975.42, -8605.53, 0.00, 0.00, 0.00, 0.00
50, 43991.99, 42608.37, 14873.70, 16118.71, 12074.30, 35515.69, -8555.82, 0.00, 0.00, 0.00, 0.00
51, 42930.79, 42464.56, 14867.11, 16172.29, 12158.72, 34502.58, -8438.66, 0.00, 0.00, 0.00, 0.00
52, 42580.83, 42422.74, 14954.10, 16234.25, 12194.69, 34494.80, -8427.30, 0.00, 0.00, 0.00, 0.00
53, 43929.43, 42614.63, 15074.26, 16203.49, 12130.89, 35800.50, -8593.11, 0.00, 0.00, 0.00, 0.00
54, 44178.18, 42635.62, 14901.10, 16140.48, 12086.71, 35740.53, -8539.80, 0.00, 0.12, 0.94, 0.32
55, 43101.11, 42513.71, 14847.10, 16200.68, 12163.35, 34650.97, -8430.56, 0.00, 0.00, 0.00, 0.00
56, 42545.98, 42430.79, 14903.38, 16207.09, 12176.78, 34410.02, -8452.45, 0.00, 0.00, 0.00, 0.00
57, 43658.48, 42569.21, 15046.88, 16183.74, 12115.52, 35565.87, -8603.75, 0.00, 0.00, 0.00, 0.00
58, 44301.00, 42632.66, 14910.60, 16082.44, 12043.97, 35879.09, -8633.18, 0.00, 0.00, 0.00, 0.00
59, 43264.46, 42510.42, 14835.66, 16140.60, 12124.52, 34772.74, -8471.36, 0.00, 0.00, 0.00, 0.00
60, 42567.20, 42424.05, 14896.54, 16208.21, 12171.75, 34359.17, -8443.30, 0.00, 0.00, 0.00, 0.00
61, 43363.90, 42542.03, 15019.10, 16198.00, 12138.20, 35302.84, -8549.68, 0.00, 0.00, 0.00, 0.00
62, 44381.09, 42656.80, 14934.00, 16097.17, 12040.15, 36011.30, -8603.50, 0.00, 0.00, 0.00, 0.00
63, 43448.95, 42560.02, 14812.70, 16132.64, 12104.23, 34956.59, -8461.97, 0.00, 0.00, 0.00, 0.00
64, 42627.10, 42446.48, 14869.65, 16203.52, 12168.54, 34372.27, -8403.50, 0.00, 0.12, 0.94, 0.31
65, 43097.47, 42507.96, 14996.17, 16216.32, 12135.12, 35068.68, -8529.04, 0.00, 0.00, 0.00, 0.00
66, 44395.26, 42664.14, 14976.14, 16132.35, 12041.02, 36097.42, -8636.47, 0.00, 0.00, 0.00, 0.00
67, 43640.80, 42554.43, 14796.09, 16089.63, 12081.97, 35147.96, -8519.17, 0.00, 0.00, 0.00, 0.00
68, 42700.46, 42433.51, 14828.57, 16143.55, 12141.31, 34375.82, -8444.15, 0.00, 0.00, 0.00, 0.00
69, 42829.72, 42472.92, 14945.07, 16183.51, 12141.15, 34793.30, -8527.82, 0.00, 0.00, 0.00, 0.00
70, 44276.08, 42640.27, 14990.60, 16113.39, 12052.55, 36026.03, -8669.06, 0.00, 0.00, 0.00, 0.00
71, 43846.84, 42593.21, 14795.33, 16129.46, 12073.27, 35351.83, -8513.06, 0.00, 0.00, 0.00, 0.00
72, 42850.28, 42475.20, 14807.72, 16171.40, 12144.57, 34466.81, -8425.49, 0.00, 0.00, 0.00, 0.00
73, 42681.19, 42452.40, 14900.70, 16181.57, 12147.05, 34619.45, -8501.75, 0.00, 0.00, 0.00, 0.00
74, 44120.35, 42632.00, 14978.31, 16129.40, 12057.18, 35937.16, -8652.29, 0.00, 0.12, 0.94, 0.30
75, 44030.01, 42602.94, 14791.58, 16071.60, 12031.47, 35562.88, -8561.05, 0.00, 0.00, 0.00, 0.00
76, 42977.95, 42474.10, 14785.25, 16124.15, 12123.92, 34536.75, -8466.33, 0.00, 0.00, 0.00, 0.00
77, 42578.71, 42409.59, 14853.92, 16147.53, 12133.17, 34461.88, -8487.20, 0.00, 0.00, 0.00, 0.00
78, 43877.55, 42593.24, 14974.51, 16134.25, 12065.14, 35742.09, -8606.67, 0.00, 0.00, 0.00, 0.00
79, 44205.67, 42645.41, 14816.55, 16075.67, 12022.47, 35765.96, -8568.59, 0.00, 0.00, 0.00, 0.00
80, 43143.80, 42508.19, 14754.92, 16119.97, 12092.41, 34673.54, -8487.87, 0.00, 0.00, 0.00, 0.00
81, 42553.99, 42418.94, 14815.03, 16155.82, 12116.10, 34380.80, -8510.27, 0.00, 0.00, 0.00, 0.00
82, 43609.26, 42578.37, 14960.94, 16158.10, 12080.80, 35512.85, -8588.48, 0.00, 0.00, 0.00, 0.00
83, 44335.71, 42664.02, 14837.40, 16055.32, 12008.45, 35922.67, -8602.02, 0.00, 0.00, 0.00, 0.00
84, 43310.39, 42546.05, 14745.29, 16106.69, 12089.52, 34813.24, -8449.70, 0.00, 0.12, 0.94, 0.30
85, 42572.61, 42433.24, 14800.90, 16152.26, 12129.75, 34344.04, -8435.48, 0.00, 0.00, 0.00, 0.00
86, 43306.48, 42540.15, 14931.08, 16163.66, 12091.40, 35250.24, -8547.06, 0.00, 0.00, 0.00, 0.00
87, 44398.86, 42677.01, 14869.86, 16080.60, 12007.36, 36042.99, -8617.02, 0.00, 0.00, 0.00, 0.00
88, 43504.79, 42570.26, 14725.62, 16091.15, 12059.73, 34990.18, -8518.14, 0.00, 0.00, 0.00, 0.00
89, 42662.04, 42444.53, 14767.10, 16139.17, 12112.59, 34354.56, -8450.93, 0.00, 0.00, 0.00, 0.00
90, 43058.27, 42496.10, 14891.47, 16166.77, 12087.98, 34997.91, -8540.74, 0.00, 0.00, 0.00, 0.00
91, 44395.64, 42688.34, 14889.95, 16117.46, 12000.50, 36093.98, -8618.09, 0.00, 0.00, 0.00, 0.00
92, 43726.52, 42596.30, 14716.34, 16056.80, 12021.64, 35211.77, -8512.10, 0.00, 0.00, 0.00, 0.00
93, 42771.69, 42462.48, 14743.68, 16114.00, 12089.19, 34394.26, -8479.02, 0.00, 0.12, 0.94, 0.30
94, 42813.87, 42464.65, 14845.16, 16126.58, 12065.09, 34724.44, -8585.24, 0.00, 0.00, 0.00, 0.00
95, 44278.63, 42660.20, 14898.96, 16080.96, 11980.94, 36012.30, -8675.94, 0.00, 0.00, 0.00, 0.00
96, 43922.32, 42638.66, 14716.25, 16080.65, 12007.49, 35404.25, -8552.63, 0.00, 0.00, 0.00, 0.00
97, 42899.70, 42497.88, 14722.67, 16128.82, 12093.28, 34461.40, -8482.17, 0.00, 0.00, 0.00, 0.00
98, 42661.05, 42447.04, 14800.88, 16131.23, 12093.05, 34555.77, -8511.70, 0.00, 0.00, 0.00, 0.00
99, 44071.92, 42604.88, 14896.86, 16053.83, 11998.37, 35863.24, -8681.75, 0.00, 0.00, 0.00, 0.00
100, 44080.86, 42606.07, 14725.57, 16002.08, 11980.07, 35572.44, -8623.06, 0.00, 0.00, 0.00, 0.00
101, 43019.46, 42487.36, 14701.95, 16085.01, 12076.94, 34544.78, -8458.17, 0.00, 0.00, 0.00, 0.00
102, 42569.50, 42433.96, 14760.15, 16128.17, 12096.79, 34434.56, -8439.42, 0.00, 0.00, 0.00, 0.00
103, 43833.96, 42604.55, 14886.82, 16089.68, 12018.04, 35698.02, -8618.63, 0.00, 0.12, 0.94, 0.31
104, 44245.97, 42653.70, 14731.54, 16014.09, 11957.38, 35788.45, -8619.39, 0.00, 0.00, 0.00, 0.00
105, 43169.84, 42513.71, 14685.92, 16054.45, 12046.90, 34663.57, -8472.41, 0.00, 0.00, 0.00, 0.00
106, 42545.94, 42413.62, 14749.22, 16087.20, 12075.35, 34337.51, -8466.84, 0.00, 0.00, 0.00, 0.00
107, 43542.63, 42553.54, 14867.22, 16087.96, 12015.36, 35436.16, -8624.46, 0.00, 0.00, 0.00, 0.00
108, 44348.95, 42640.67, 14747.61, 15991.60, 11945.02, 35942.01, -8641.65, 0.00, 0.00, 0.00, 0.00
109, 43336.50, 42516.73, 14645.58, 16014.73, 12016.14, 34826.27, -8505.93, 0.00, 0.00, 0.00, 0.00
110, 42585.93, 42416.37, 14698.55, 16079.42, 12062.59, 34327.20, -8481.97, 0.00, 0.00, 0.00, 0.00
111, 43248.48, 42521.20, 14841.65, 16100.23, 12042.36, 35180.84, -8551.60, 0.00, 0.00, 0.00, 0.00
112, 44401.92, 42674.29, 14787.71, 16020.30, 11953.73, 36045.05, -8615.21, 0.00, 0.00, 0.00, 0.00
113, 43540.14, 42573.10, 14642.83, 16028.12, 12007.98, 35006.65, -8509.64, 0.00, 0.13, 0.93, 0.31
114, 42672.59, 42437.56, 14677.45, 16066.08, 12055.41, 34341.96, -8464.96, 0.00, 0.00, 0.00, 0.00
115, 42981.15, 42483.54, 14798.26, 16096.92, 12051.41, 34927.53, -8539.84, 0.00, 0.00, 0.00, 0.00
116, 44349.39, 42647.20, 14805.64, 16009.59, 11953.69, 36057.30, -8666.75, 0.00, 0.00, 0.00, 0.00
117, 43717.48, 42571.42, 14636.03, 15988.94, 11981.94, 35203.53, -8555.84, 0.00, 0.00, 0.00, 0.00
118, 42766.66, 42444.57, 14664.26, 16050.25, 12057.85, 34386.05, -8477.57, 0.00, 0.00, 0.00, 0.00
119, 42760.18, 42448.62, 14772.89, 16086.08, 12057.16, 34688.18, -8538.23, 0.00, 0.00, 0.00, 0.00
120, 44229.05, 42638.36, 14842.90, 16009.97, 11972.00, 35987.40, -8658.98, 0.00, 0.00, 0.00, 0.00
121, 43922.25, 42597.11, 14637.75, 15962.48, 11969.85, 35417.97, -8576.23, 0.00, 0.00, 0.00, 0.00
122, 42882.29, 42463.15, 14629.75, 16006.13, 12034.54, 34441.51, -8503.39, 0.00, 0.00, 0.00, 0.00
123, 42610.31, 42424.46, 14722.36, 16048.42, 12030.22, 34496.81, -8539.28, 0.00, 0.13, 0.93, 0.31
124, 44026.45, 42617.80, 14826.56, 16014.11, 11961.16, 35851.04, -8665.08, 0.00, 0.00, 0.00, 0.00
125, 44105.00, 42628.15, 14644.62, 15942.22, 11944.39, 35632.68, -8615.39, 0.00, 0.00, 0.00, 0.00
126, 43025.45, 42484.94, 14614.55, 15992.58, 12028.32, 34560.54, -8535.35, 0.00, 0.00, 0.00, 0.00
127, 42542.48, 42408.05, 14684.22, 16038.07, 12045.58, 34404.52, -8499.50, 0.00, 0.00, 0.00, 0.00
128, 43748.64, 42560.56, 14808.12, 16002.93, 11970.63, 35634.11, -8639.64, 0.00, 0.00, 0.00, 0.00
129, 44242.28, 42625.80, 14664.73, 15927.54, 11918.08, 35809.57, -8638.70, 0.00, 0.00, 0.00, 0.00
130, 43183.12, 42501.62, 14601.41, 15993.10, 12010.31, 34696.93, -8521.27, 0.00, 0.00, 0.00, 0.00
131, 42527.07, 42399.54, 14655.01, 16033.64, 12037.17, 34336.10, -8506.31, 0.00, 0.00, 0.00, 0.00
132, 43448.06, 42526.79, 14794.31, 16022.62, 11988.67, 35381.83, -8640.51, 0.00, 0.00, 0.00, 0.00
133, 44346.44, 42632.40, 14688.85, 15917.59, 11909.77, 35954.34, -8688.21, 0.00, 0.12, 0.94, 0.30
134, 43361.33, 42517.04, 14573.49, 15958.79, 11975.57, 34854.93, -8543.35, 0.00, 0.00, 0.00, 0.00
135, 42571.49, 42406.06, 14627.36, 16017.04, 12016.16, 34326.13, -8523.14, 0.00, 0.00, 0.00, 0.00
136, 43157.28, 42493.79, 14766.70, 16039.08, 11992.29, 35121.56, -8641.70, 0.00, 0.00, 0.00, 0.00
137, 44364.14, 42643.06, 14733.40, 15933.98, 11898.35, 36032.04, -8719.93, 0.00, 0.00, 0.00, 0.00
138, 43552.66, 42545.34, 14581.25, 15934.94, 11941.80, 35037.16, -8597.78, 0.00, 0.00, 0.00, 0.00
139, 42660.45, 42414.82, 14602.08, 16003.76, 12010.46, 34351.64, -8522.32, 0.00, 0.00, 0.00, 0.00
140, 42893.13, 42456.78, 14725.55, 16034.90, 12001.08, 34876.95, -8589.80, 0.00, 0.00, 0.00, 0.00
141, 44298.70, 42653.68, 14759.37, 15968.82, 11910.93, 36056.78, -8721.38, 0.00, 0.00, 0.00, 0.00
142, 43741.63, 42582.02, 14579.95, 15954.21, 11922.84, 35256.16, -8637.74, 0.00, 0.12, 0.93, 0.31
143, 42762.60, 42442.68, 14605.05, 15985.36, 11991.87, 34381.96, -8541.36, 0.00, 0.00, 0.00, 0.00
144, 42703.45, 42431.19, 14693.77, 16004.85, 11986.44, 34645.56, -8587.38, 0.00, 0.00, 0.00, 0.00
145, 44166.15, 42628.06, 14770.66, 15962.14, 11903.06, 35966.59, -8706.88, 0.00, 0.00, 0.00, 0.00
146, 43950.79, 42606.87, 14579.84, 15928.57, 11906.39, 35476.26, -8618.36, 0.00, 0.00, 0.00, 0.00
147, 42906.36, 42474.48, 14574.81, 15984.69, 11994.46, 34484.29, -8510.45, 0.00, 0.00, 0.00, 0.00
148, 42590.27, 42413.60, 14649.96, 15999.29, 11992.02, 34494.13, -8573.53, 0.00, 0.00, 0.00, 0.00
149, 43952.31, 42581.32, 14743.84, 15942.69, 11897.45, 35791.80, -8749.48, 0.00, 0.00, 0.00, 0.00
150, 44117.98, 42609.82, 14577.45, 15886.93, 11866.16, 35657.94, -8655.24, 0.00, 0.00, 0.00, 0.00
151, 43043.51, 42485.39, 14547.74, 15964.58, 11965.18, 34591.02, -8527.12, 0.00, 0.00, 0.00, 0.00
152, 42523.39, 42407.76, 14612.03, 16015.05, 11996.31, 34385.45, -8536.15, 0.00, 0.11, 0.93, 0.31
153, 43676.00, 42564.76, 14748.89, 15979.55, 11936.61, 35576.87, -8681.93, 0.00, 0.00, 0.00, 0.00
154, 44260.54, 42614.94, 14614.44, 15883.44, 11871.08, 35848.13, -8674.82, 0.00, 0.00, 0.00, 0.00
155, 43208.58, 42494.09, 14534.62, 15935.59, 11945.35, 34726.99, -8565.66, 0.00, 0.00, 0.00, 0.00
156, 42535.77, 42416.05, 14583.31, 15996.38, 11987.82, 34329.46, -8523.05, 0.00, 0.00, 0.00, 0.00
157, 43386.21, 42533.91, 14723.21, 15997.99, 11944.57, 35332.52, -8644.07, 0.00, 0.00, 0.00, 0.00
158, 44348.96, 42648.54, 14635.54, 15900.76, 11858.70, 35992.72, -8713.20, 0.00, 0.00, 0.00, 0.00
159, 43391.06, 42533.54, 14517.66, 15917.68, 11932.34, 34903.66, -8564.88, 0.00, 0.00, 0.00, 0.00
160, 42575.45, 42422.96, 14577.56, 15977.72, 11980.56, 34326.76, -8509.62, 0.00, 0.00, 0.00, 0.00
161, 43084.48, 42495.45, 14700.16, 15999.71, 11941.37, 35059.16, -8626.41, 0.00, 0.00, 0.00, 0.00
162, 44350.02, 42648.20, 14651.66, 15879.57, 11845.28, 36046.19, -8734.41, 0.00, 0.12, 0.93, 0.31
163, 43592.02, 42555.66, 14490.93, 15875.55, 11892.31, 35087.86, -8624.44, 0.00, 0.00, 0.00, 0.00
164, 42674.30, 42419.95, 14528.14, 15934.58, 11957.15, 34352.93, -8543.53, 0.00, 0.00, 0.00, 0.00
165, 42835.89, 42432.77, 14644.93, 15953.96, 11944.12, 34808.66, -8607.30, 0.00, 0.00, 0.00, 0.00
166, 44266.64, 42622.23, 14678.77, 15883.75, 11847.97, 36028.62, -8704.64, 0.00, 0.00, 0.00, 0.00
167, 43786.86, 42584.05, 14504.87, 15880.33, 11873.02, 35305.94, -8587.90, 0.00, 0.00, 0.00, 0.00
168, 42788.03, 42432.28, 14513.05, 15943.28, 11948.33, 34412.43, -8540.58, 0.00, 0.00, 0.00, 0.00
169, 42653.41, 42415.92, 14601.86, 15955.77, 11956.28, 34598.11, -8592.05, 0.00, 0.00, 0.00, 0.00
170, 44107.79, 42610.09, 14686.44, 15896.98, 11864.64, 35927.90, -8711.12, 0.00, 0.00, 0.00, 0.00
171, 43969.81, 42586.75, 14501.70, 15837.93, 11841.66, 35511.20, -8657.50, 0.00, 0.00, 0.00, 0.00
172, 42904.04, 42438.92, 14493.59, 15888.92, 11923.00, 34482.59, -8549.56, 0.00, 0.13, 0.93, 0.31
173, 42536.57, 42379.04, 14568.51, 15925.68, 11927.02, 34458.30, -8567.27, 0.00, 0.00, 0.00, 0.00
174, 43866.39, 42567.20, 14683.82, 15907.56, 11864.17, 35766.48, -8702.25, 0.00, 0.00, 0.00, 0.00
175, 44130.19, 42597.71, 14522.06, 15841.93, 11836.81, 35724.77, -8671.29, 0.00, 0.00, 0.00, 0.00
176, 43055.16, 42457.56, 14474.45, 15891.67, 11928.14, 34616.32, -8569.23, 0.00, 0.00, 0.00, 0.00
177, 42487.96, 42370.10, 14537.22, 15915.07, 11943.05, 34358.41, -8561.92, 0.00, 0.00, 0.00, 0.00
178, 43567.86, 42514.49, 14674.61, 15883.80, 11875.68, 35511.18, -8717.31, 0.00, 0.00, 0.00, 0.00
179, 44245.97, 42600.43, 14533.60, 15804.69, 11809.37, 35862.77, -8723.84, 0.00, 0.00, 0.00, 0.00
180, 43210.50, 42481.12, 14442.15, 15861.60, 11886.08, 34746.14, -8585.68, 0.00, 0.00, 0.00, 0.00
181, 42501.53, 42385.54, 14506.42, 15898.44, 11931.85, 34315.47, -8552.72, 0.00, 0.00, 0.00, 0.00
182, 43288.15, 42517.91, 14653.11, 15937.29, 11908.90, 35271.12, -8654.64, 0.00, 0.12, 0.93, 0.31
183, 44339.60, 42652.00, 14577.32, 15857.60, 11819.02, 36028.64, -8715.55, 0.00, 0.00, 0.00, 0.00
184, 43420.68, 42532.26, 14437.82, 15864.35, 11867.55, 34957.21, -8603.16, 0.00, 0.00, 0.00, 0.00
185, 42586.15, 42426.36, 14490.84, 15924.34, 11924.63, 34336.88, -8539.91, 0.00, 0.00, 0.00, 0.00
186, 43023.53, 42494.40, 14608.16, 15958.14, 11908.05, 35027.08, -8617.40, 0.00, 0.00, 0.00, 0.00
187, 44328.22, 42653.16, 14594.44, 15870.39, 11811.53, 36076.23, -8714.34, 0.00, 0.00, 0.00, 0.00
188, 43617.26, 42566.08, 14432.25, 15846.72, 11845.37, 35157.39, -8589.42, 0.00, 0.00, 0.00, 0.00
189, 42685.93, 42444.08, 14464.60, 15904.36, 11913.46, 34386.08, -8537.49, 0.00, 0.00, 0.00, 0.00
190, 42786.51, 42447.82, 14573.36, 15924.97, 11902.73, 34784.59, -8605.91, 0.00, 0.00, 0.00, 0.00
191, 44225.68, 42633.20, 14621.13, 15858.90, 11815.33, 36038.01, -8732.96, 0.00, 0.12, 0.93, 0.32
192, 43816.35, 42598.54, 14423.27, 15830.91, 11822.80, 35365.22, -8627.08, 0.00, 0.00, 0.00, 0.00
193, 42805.98, 42469.50, 14437.26, 15893.34, 11893.99, 34437.64, -8537.45, 0.00, 0.00, 0.00, 0.00
194, 42617.87, 42436.66, 14525.12, 15925.93, 11894.79, 34574.97, -8590.09, 0.00, 0.00, 0.00, 0.00
195, 44058.15, 42636.60, 14609.97, 15885.74, 11820.67, 35917.75, -8709.47, 0.00, 0.00, 0.00, 0.00
196, 44017.87, 42628.29, 14437.68, 15823.16, 11812.05, 35585.29, -8645.45, 0.00, 0.00, 0.00, 0.00
197, 42946.89, 42476.45, 14415.13, 15856.71, 11886.34, 34533.71, -8561.30, 0.00, 0.00, 0.00, 0.00
198, 42530.88, 42418.49, 14480.08, 15889.36, 11896.51, 34428.28, -8577.08, 0.00, 0.00, 0.00, 0.00
199, 43822.00, 42602.34, 14610.87, 15875.75, 11824.94, 35717.10, -8725.74, 0.00, 0.00, 0.00, 0.00
200, 44193.71, 42654.75, 14453.71, 15822.17, 11784.15, 35786.10, -8702.29, 0.00, 0.00, 0.00, 0.00
201, 43126.64, 42524.82, 14396.62, 15868.58, 11858.45, 34680.16, -8553.77, 0.00, 0.12, 0.93, 0.31
202, 42514.71, 42431.57, 14459.14, 15919.54, 11889.79, 34370.70, -8546.95, 0.00, 0.00, 0.00, 0.00
203, 43534.85, 42565.52, 14601.90, 15899.11, 11845.71, 35483.53, -8666.22, 0.00, 0.00, 0.00, 0.00
204, 44298.36, 42659.29, 14489.81, 15784.15, 11775.28, 35935.88, -8688.44, 0.00, 0.00, 0.00, 0.00
205, 43285.05, 42536.62, 14397.85, 15823.16, 11844.26, 34813.20, -8582.89, 0.00, 0.00, 0.00, 0.00
206, 42543.35, 42431.19, 14456.15, 15873.49, 11880.60, 34336.82, -8558.86, 0.00, 0.00, 0.00, 0.00
207, 43238.15, 42528.68, 14569.22, 15880.82, 11849.75, 35219.40, -8655.20, 0.00, 0.00, 0.00, 0.00
208, 44346.24, 42671.22, 14515.96, 15804.81, 11768.73, 36027.84, -8716.60, 0.00, 0.00, 0.00, 0.00
209, 43479.68, 42571.73, 14372.39, 15822.80, 11819.76, 34993.75, -8592.39, 0.00, 0.00, 0.00, 0.00
210, 42621.27, 42453.07, 14403.58, 15863.50, 11866.34, 34338.43, -8553.92, 0.00, 0.00, 0.00, 0.00
211, 42968.77, 42489.73, 14524.25, 15871.06, 11848.28, 34940.78, -8638.03, 0.00, 0.11, 0.94, 0.32
212, 44308.84, 42653.92, 14536.14, 15803.00, 11760.71, 36051.69, -8718.90, 0.00, 0.00, 0.00, 0.00
213, 43662.86, 42581.50, 14366.87, 15797.74, 11787.04, 35195.10, -8614.14, 0.00, 0.00, 0.00, 0.00
214, 42710.85, 42445.04, 14381.47, 15848.59, 11848.06, 34377.00, -8573.44, 0.00, 0.00, 0.00, 0.00
215, 42742.41, 42439.64, 14488.24, 15863.88, 11846.60, 34713.71, -8602.99, 0.00, 0.00, 0.00, 0.00
216, 44188.14, 42636.75, 14555.99, 15811.27, 11769.89, 35998.73, -8728.89, 0.00, 0.00, 0.00, 0.00
217, 43850.52, 42608.44, 14358.58, 15785.76, 11772.95, 35394.79, -8642.35, 0.00, 0.00, 0.00, 0.00
218, 42822.12, 42467.06, 14363.43, 15826.31, 11842.36, 34437.04, -8554.93, 0.00, 0.00, 0.00, 0.00
219, 42571.45, 42420.43, 14450.92, 15851.28, 11852.10, 34520.37, -8587.23, 0.00, 0.00, 0.00, 0.00
220, 43988.03, 42622.07, 14553.18, 15832.90, 11776.89, 35867.57, -8729.67, 0.00, 0.00, 0.00, 0.00
221, 44036.69, 42637.83, 14382.65, 15755.86, 11757.64, 35618.04, -8642.21, 0.00, 0.12, 0.94, 0.32
222, 42970.07, 42492.16, 14348.39, 15814.10, 11838.09, 34553.27, -8551.08, 0.00, 0.00, 0.00, 0.00
223, 42507.63, 42404.07, 14405.34, 15836.50, 11840.41, 34413.82, -8562.10, 0.00, 0.00, 0.00, 0.00
224, 43727.57, 42558.86, 14536.52, 15802.48, 11774.43, 35659.93, -8710.12, 0.00, 0.00, 0.00, 0.00
225, 44174.22, 42619.21, 14395.37, 15724.25, 11725.21, 35794.80, -8685.28, 0.00, 0.00, 0.00, 0.00
226, 43108.54, 42489.26, 14318.66, 15769.80, 11802.75, 34666.46, -8575.69, 0.00, 0.00, 0.00, 0.00
227, 42471.18, 42403.25, 14388.02, 15827.02, 11850.02, 34331.92, -8548.33, 0.00, 0.00, 0.00, 0.00
228, 43425.59, 42529.07, 14522.44, 15821.50, 11809.32, 35406.08, -8669.55, 0.00, 0.00, 0.00, 0.00
229, 44257.35, 42616.80, 14402.55, 15719.83, 11720.16, 35927.03, -8713.02, 0.00, 0.00, 0.00, 0.00
230, 43280.93, 42517.69, 14300.09, 15760.42, 11787.08, 34823.64, -8577.33, 0.00, 0.12, 0.94, 0.32
231, 42524.28, 42423.41, 14359.21, 15829.13, 11843.12, 34323.18, -8516.39, 0.00, 0.00, 0.00, 0.00
232, 43153.04, 42517.91, 14489.76, 15835.90, 11816.09, 35163.79, -8632.85, 0.00, 0.00, 0.00, 0.00
233, 44312.00, 42650.73, 14433.15, 15735.99, 11717.25, 36033.02, -8727.15, 0.00, 0.00, 0.00, 0.00
234, 43472.11, 42544.29, 14284.87, 15730.93, 11761.00, 34999.25, -8632.71, 0.00, 0.00, 0.00, 0.00
235, 42611.97, 42445.38, 14336.83, 15797.05, 11825.39, 34332.19, -8532.08, 0.00, 0.00, 0.00, 0.00
236, 42900.46, 42483.51, 14450.25, 15833.46, 11819.58, 34906.05, -8607.81, 0.00, 0.00, 0.00, 0.00
237, 44267.45, 42630.61, 14455.05, 15738.69, 11723.29, 36046.57, -8715.44, 0.00, 0.00, 0.00, 0.00
238, 43678.59, 42564.89, 14285.29, 15721.64, 11754.85, 35221.41, -8604.57, 0.00, 0.00, 0.00, 0.00
239, 42723.17, 42435.48, 14310.95, 15778.79, 11825.50, 34386.50, -8541.12, 0.00, 0.00, 0.00, 0.00
240, 42692.03, 42426.31, 14413.21, 15816.07, 11834.38, 34673.99, -8593.40, 0.00, 0.11, 0.93, 0.32
241, 44143.57, 42632.51, 14488.24, 15727.58, 11744.08, 35971.04, -8728.51, 0.00, 0.00, 0.00, 0.00
242, 43870.06, 42593.66, 14297.96, 15686.45, 11725.86, 35425.01, -8656.36, 0.00, 0.00, 0.00, 0.00
243, 42835.93, 42458.03, 14287.19, 15756.15, 11803.11, 34458.07, -8564.09, 0.00, 0.00, 0.00, 0.00
244, 42549.76, 42420.23, 14370.18, 15797.45, 11818.62, 34504.18, -8578.80, 0.00, 0.00, 0.00, 0.00
245, 43934.79, 42604.97, 14473.16, 15748.50, 11742.24, 35825.84, -8734.37, 0.00, 0.00, 0.00, 0.00
246, 44048.29, 42619.97, 14290.34, 15678.94, 11710.06, 35637.13, -8694.60, 0.00, 0.00, 0.00, 0.00
247, 42983.05, 42485.61, 14262.67, 15739.74, 11796.16, 34573.81, -8562.73, 0.00, 0.00, 0.00, 0.00
248, 42483.82, 42411.65, 14334.15, 15786.99, 11818.84, 34394.15, -8579.34, 0.00, 0.00, 0.00, 0.00
249, 43656.66, 42570.21, 14475.68, 15740.46, 11752.86, 35594.55, -8744.54, 0.00, 0.00, 0.00, 0.00
250, 44174.94, 42631.73, 14329.14, 15666.40, 11689.94, 35797.91, -8722.14, 0.00, 0.12, 0.93, 0.31
251, 43135.56, 42510.13, 14261.91, 15723.38, 11769.38, 34694.24, -8599.07, 0.00, 0.00, 0.00, 0.00
252, 42484.23, 42411.14, 14308.29, 15763.70, 11803.64, 34331.45, -8546.90, 0.00, 0.00, 0.00, 0.00
253, 43372.66, 42526.16, 14440.34, 15760.71, 11758.43, 35364.95, -8687.56, 0.00, 0.00, 0.00, 0.00
254, 44271.16, 42632.51, 14345.53, 15662.60, 11674.29, 35967.22, -8742.13, 0.00, 0.00, 0.00, 0.00
255, 43299.91, 42513.33, 14231.89, 15688.64, 11748.90, 34857.45, -8612.46, 0.00, 0.00, 0.00, 0.00
0, 42525.91, 42399.78, 14279.10, 15734.58, 11791.01, 34314.08, -8577.24, 0.00, 0.00, 0.00, 0.00
1, 43084.35, 42473.39, 14413.39, 15745.51, 11759.32, 35091.05, -8713.00, 0.00, 0.00, 0.00, 0.00
2, 44290.41, 42627.10, 14374.96, 15679.84, 11669.69, 36034.70, -8764.14, 0.00, 0.00, 0.00, 0.00
3, 43487.02, 42527.63, 14207.66, 15653.28, 11707.11, 35049.41, -8628.71, 0.00, 0.00, 0.00, 0.00
4, 42594.46, 42403.31, 14248.72, 15715.35, 11766.47, 34342.47, -8590.13, 0.00, 0.13, 0.94, 0.30
5, 42813.25, 42438.99, 14366.61, 15745.80, 11766.90, 34844.34, -8645.95, 0.00, 0.00, 0.00, 0.00
6, 44218.32, 42617.49, 14405.12, 15660.41, 11685.00, 36041.32, -8747.04, 0.00, 0.00, 0.00, 0.00
7, 43672.38, 42545.38, 14210.14, 15638.49, 11695.17, 35265.33, -8671.00, 0.00, 0.00, 0.00, 0.00
8, 42687.70, 42400.09, 14212.16, 15677.22, 11758.27, 34383.08, -8601.87, 0.00, 0.00, 0.00, 0.00
9, 42599.38, 42387.82, 14310.23, 15710.01, 11764.33, 34607.16, -8644.25, 0.00, 0.00, 0.00, 0.00
10, 44053.25, 42582.91, 14393.14, 15672.51, 11681.96, 35952.87, -8783.39, 0.00, 0.00, 0.00, 0.00
11, 43870.62, 42551.35, 14202.52, 15616.81, 11663.12, 35494.37, -8682.18, 0.00, 0.00, 0.00, 0.00
12, 42823.88, 42422.34, 14209.58, 15674.47, 11741.28, 34482.06, -8588.93, 0.00, 0.00, 0.00, 0.00
13, 42487.00, 42377.36, 14282.61, 15714.17, 11753.84, 34475.08, -8616.24, 0.00, 0.00, 0.00, 0.00
14, 43838.90, 42568.38, 14395.62, 15696.69, 11697.27, 35792.05, -8753.77, 0.00, 0.13, 0.93, 0.30
15, 44062.80, 42590.71, 14234.26, 15621.32, 11655.96, 35697.05, -8719.53, 0.00, 0.00, 0.00, 0.00
16, 42996.91, 42457.34, 14197.42, 15669.38, 11731.60, 34595.29, -8610.50, 0.00, 0.00, 0.00, 0.00
17, 42446.43, 42363.06, 14252.95, 15691.95, 11746.09, 34359.17, -8618.79, 0.00, 0.00, 0.00, 0.00
18, 43562.99, 42523.66, 14386.34, 15677.36, 11693.92, 35544.10, -8753.99, 0.00, 0.00, 0.00, 0.00
19, 44205.82, 42608.13, 14258.60, 15620.29, 11635.04, 35871.82, -8742.39, 0.00, 0.00, 0.00, 0.00
20, 43168.91, 42470.37, 14155.23, 15655.18, 11705.81, 34756.54, -8633.25, 0.00, 0.00, 0.00, 0.00
21, 42448.29, 42362.46, 14206.28, 15670.56, 11746.53, 34326.58, -8606.52, 0.00, 0.00, 0.00, 0.00
22, 43262.16, 42476.94, 14351.81, 15673.65, 11709.47, 35300.80, -8708.95, 0.00, 0.00, 0.00, 0.00
23, 44264.68, 42616.35, 14284.35, 15606.30, 11634.42, 36000.12, -8742.26, 0.00, 0.13, 0.94, 0.30
24, 43347.47, 42526.54, 14168.50, 15649.86, 11699.04, 34932.85, -8605.69, 0.00, 0.00, 0.00, 0.00
25, 42523.88, 42408.54, 14220.20, 15709.23, 11747.47, 34341.00, -8579.56, 0.00, 0.00, 0.00, 0.00
26, 43000.73, 42468.18, 14353.98, 15714.75, 11721.32, 35048.34, -8682.31, 0.00, 0.00, 0.00, 0.00
27, 44273.98, 42624.55, 14331.58, 15626.69, 11623.71, 36054.35, -8771.14, 0.00, 0.00, 0.00, 0.00
28, 43554.63, 42535.88, 14168.30, 15626.62, 11655.21, 35130.08, -8659.78, 0.00, 0.00, 0.00, 0.00
29, 42630.32, 42414.31, 14189.09, 15687.82, 11717.19, 34377.54, -8621.38, 0.00, 0.00, 0.00, 0.00
30, 42762.20, 42435.86, 14288.80, 15703.13, 11708.83, 34802.65, -8696.86, 0.00, 0.00, 0.00, 0.00
31, 44178.11, 42621.38, 14331.87, 15625.54, 11619.73, 36021.18, -8801.36, 0.00, 0.00, 0.00, 0.00
32, 43754.43, 42565.75, 14159.52, 15599.64, 11628.90, 35348.95, -8684.23, 0.00, 0.00, 0.00, 0.00
33, 42759.60, 42414.47, 14170.09, 15650.22, 11686.56, 34453.67, -8637.59, 0.00, 0.12, 0.94, 0.31
34, 42583.74, 42389.07, 14249.91, 15675.70, 11699.37, 34595.11, -8688.59, 0.00, 0.00, 0.00, 0.00
35, 43985.01, 42604.73, 14339.92, 15622.55, 11626.89, 35880.94, -8782.60, 0.00, 0.00, 0.00, 0.00
36, 43954.01, 42593.80, 14174.49, 15571.77, 11610.93, 35555.54, -8712.06, 0.00, 0.00, 0.00, 0.00
37, 42901.09, 42437.31, 14148.68, 15622.73, 11682.61, 34539.88, -8622.57, 0.00, 0.00, 0.00, 0.00
38, 42468.98, 42379.93, 14208.85, 15654.63, 11697.96, 34448.38, -8642.88, 0.00, 0.00, 0.00, 0.00
39, 43707.27, 42552.87, 14323.31, 15623.53, 11630.35, 35677.70, -8799.14, 0.00, 0.00, 0.00, 0.00
40, 44106.72, 42607.68, 14183.10, 15573.20, 11585.94, 35745.47, -8766.17, 0.00, 0.00, 0.00, 0.00
41, 43079.07, 42470.23, 14125.90, 15617.68, 11657.75, 34677.93, -8624.62, 0.00, 0.00, 0.00, 0.00
42, 42443.97, 42384.45, 14194.72, 15632.90, 11692.42, 34352.53, -8598.74, 0.00, 0.00, 0.00, 0.00
43, 43411.71, 42528.91, 14323.65, 15643.27, 11659.92, 35433.39, -8718.57, 0.00, 0.12, 0.93, 0.31
44, 44206.21, 42620.71, 14222.44, 15562.54, 11583.19, 35904.81, -8756.63, 0.00, 0.00, 0.00, 0.00
45, 43306.64, 42495.52, 14114.46, 15586.74, 11646.98, 34877.39, -8668.14, 0.00, 0.00, 0.00, 0.00
46, 42511.00, 42380.07, 14153.66, 15627.02, 11687.44, 34359.12, -8635.26, 0.00, 0.00, 0.00, 0.00
47, 43056.36, 42478.55, 14270.02, 15638.75, 11657.10, 35124.85, -8714.70, 0.00, 0.00, 0.00, 0.00
48, 44125.83, 42628.22, 14247.27, 15573.47, 11583.08, 35897.14, -8787.57, 0.00, 0.00, 0.00, 0.00
49, 43664.11, 42567.67, 14152.92, 15581.85, 11629.52, 35181.38, -8674.26, 0.00, 0.00, 0.00, 0.00
50, 42767.34, 42423.95, 14140.38, 15630.04, 11677.07, 34514.24, -8602.52, 0.00, 0.00, 0.00, 0.00
51, 42852.18, 42452.87, 14223.46, 15661.62, 11662.98, 34927.24, -8662.96, 0.00, 0.00, 0.00, 0.00
52, 43952.31, 42612.19, 14246.80, 15584.06, 11589.96, 35816.01, -8758.78, 0.00, 0.00, 0.00, 0.00
53, 43769.05, 42556.65, 14138.73, 15555.76, 11597.00, 35303.02, -8700.80, 0.00, 0.13, 0.93, 0.32
54, 42868.77, 42411.70, 14124.80, 15597.56, 11647.67, 34554.59, -8632.42, 0.00, 0.00, 0.00, 0.00
55, 42675.63, 42388.59, 14193.98, 15630.33, 11654.09, 34720.73, -8667.72, 0.00, 0.00, 0.00, 0.00
56, 43758.14, 42578.75, 14247.25, 15607.75, 11604.33, 35713.30, -8747.22, 0.00, 0.00, 0.00, 0.00
57, 43866.53, 42597.42, 14145.88, 15590.74, 11595.30, 35466.36, -8695.72, 0.00, 0.00, 0.00, 0.00
58, 43007.59, 42439.64, 14114.41, 15592.38, 11647.76, 34645.65, -8629.85, 0.00, 0.00, 0.00, 0.00
59, 42581.86, 42379.11, 14160.86, 15616.56, 11651.92, 34599.70, -8641.43, 0.00, 0.00, 0.00, 0.00
60, 43570.84, 42541.76, 14243.27, 15588.29, 11594.61, 35595.35, -8740.96, 0.00, 0.00, 0.00, 0.00
61, 43937.49, 42584.27, 14159.03, 15536.90, 11576.62, 35587.35, -8716.82, 0.00, 0.00, 0.00, 0.00
62, 43151.70, 42438.41, 14099.57, 15563.61, 11627.82, 34750.95, -8648.31, 0.00, 0.00, 0.00, 0.00
63, 42537.36, 42353.16, 14130.10, 15598.14, 11649.28, 34499.34, -8651.73, 0.00, 0.13, 0.93, 0.31
64, 43344.86, 42501.24, 14226.44, 15585.22, 11610.77, 35406.28, -8734.01, 0.00, 0.00, 0.00, 0.00
65, 43968.61, 42591.89, 14166.00, 15540.70, 11580.13, 35679.29, -8730.50, 0.00, 0.00, 0.00, 0.00
66, 43307.06, 42468.38, 14115.48, 15567.94, 11625.32, 34895.07, -8642.93, 0.00, 0.00, 0.00, 0.00
67, 42557.54, 42350.05, 14126.73, 15598.30, 11649.95, 34485.63, -8625.14, 0.00, 0.00, 0.00, 0.00
68, 43111.06, 42449.61, 14189.29, 15589.56, 11613.32, 35234.48, -8734.48, 0.00, 0.00, 0.00, 0.00
69, 43945.45, 42555.30, 14144.50, 15508.67, 11554.35, 35740.91, -8785.87, 0.00, 0.00, 0.00, 0.00
70, 43426.46, 42461.52, 14062.38, 15504.11, 11577.33, 34997.64, -8720.11, 0.00, 0.00, 0.00, 0.00
71, 42612.13, 42352.06, 14077.28, 15570.92, 11622.30, 34476.04, -8655.18, 0.00, 0.00, 0.00, 0.00
72, 42914.97, 42434.74, 14175.39, 15605.29, 11635.11, 35054.39, -8717.98, 0.00, 0.12, 0.94, 0.32
73, 43907.30, 42574.73, 14168.23, 15542.29, 11573.38, 35791.54, -8794.81, 0.00, 0.00, 0.00, 0.00
74, 43580.51, 42517.55, 14079.88, 15534.48, 11598.05, 35182.74, -8694.40, 0.00, 0.00, 0.00, 0.00
75, 42712.62, 42386.82, 14076.48, 15590.43, 11637.48, 34519.81, -8634.79, 0.00, 0.00, 0.00, 0.00
76, 42723.23, 42389.48, 14136.67, 15596.09, 11609.56, 34864.36, -8729.74, 0.00, 0.00, 0.00, 0.00
77, 43807.94, 42559.38, 14166.47, 15528.09, 11548.68, 35777.18, -8797.96, 0.00, 0.00, 0.00, 0.00
78, 43727.12, 42548.91, 14079.65, 15531.49, 11575.63, 35372.04, -8703.75, 0.00, 0.00, 0.00, 0.00
79, 42855.13, 42408.70, 14052.14, 15575.21, 11626.77, 34621.64, -8658.10, 0.00, 0.00, 0.00, 0.00
80, 42611.01, 42390.21, 14122.59, 15601.47, 11629.17, 34731.26, -8677.89, 0.00, 0.00, 0.00, 0.00
81, 43684.45, 42557.45, 14181.89, 15560.08, 11557.15, 35726.94, -8774.31, 0.00, 0.00, 0.00, 0.00
82, 43837.98, 42560.69, 14076.59, 15512.92, 11544.97, 35506.26, -8749.08, 0.00, 0.12, 0.94, 0.32
83, 43000.89, 42419.12, 14036.13, 15530.55, 11594.03, 34694.82, -8677.73, 0.00, 0.00, 0.00, 0.00
84, 42547.26, 42379.73, 14093.83, 15586.85, 11626.30, 34609.80, -8683.29, 0.00, 0.00, 0.00, 0.00
85, 43519.18, 42547.91, 14190.05, 15569.58, 11579.90, 35596.14, -8755.38, 0.00, 0.00, 0.00, 0.00
86, 43933.76, 42600.73, 14092.39, 15516.74, 11545.48, 35643.54, -8734.70, 0.00, 0.00, 0.00, 0.00
87, 43169.73, 42474.97, 14038.17, 15539.20, 11590.14, 34805.38, -8674.62, 0.00, 0.00, 0.00, 0.00
88, 42534.99, 42384.02, 14064.30, 15569.15, 11616.63, 34511.14, -8668.48, 0.00, 0.00, 0.00, 0.00
89, 43323.47, 42515.79, 14156.50, 15555.67, 11569.91, 35415.13, -8762.35, 0.00, 0.00, 0.00, 0.00
90, 43986.11, 42602.18, 14088.91, 15494.92, 11520.13, 35743.14, -8771.65, 0.00, 0.00, 0.00, 0.00
91, 43295.35, 42487.27, 14013.43, 15505.47, 11570.47, 34903.59, -8686.87, 0.00, 0.00, 0.00, 0.00
92, 42532.11, 42380.52, 14037.83, 15573.51, 11603.71, 34454.45, -8653.17, 0.00, 0.12, 0.93, 0.32
93, 43182.07, 42489.01, 14162.00, 15564.84, 11584.53, 35287.46, -8736.36, 0.00, 0.00, 0.00, 0.00
94, 44053.63, 42609.49, 14107.17, 15476.55, 11519.11, 35847.59, -8794.72, 0.00, 0.00, 0.00, 0.00
95, 43360.33, 42503.47, 14002.09, 15479.23, 11548.65, 34964.25, -8724.22, 0.00, 0.00, 0.00, 0.00
96, 42546.75, 42379.44, 14001.45, 15541.70, 11591.01, 34405.05, -8690.96, 0.00, 0.00, 0.00, 0.00
97, 42994.88, 42455.19, 14121.23, 15561.80, 11578.18, 35089.31, -8731.06, 0.00, 0.00, 0.00, 0.00
98, 44096.32, 42602.18, 14102.12, 15477.80, 11495.84, 35942.32, -8799.32, 0.00, 0.00, 0.00, 0.00
99, 43479.21, 42513.71, 13975.67, 15473.15, 11536.05, 35103.82, -8706.03, 0.00, 0.00, 0.00, 0.00
100, 42601.44, 42382.95, 14000.48, 15514.86, 11592.29, 34410.58, -8641.74, 0.00, 0.00, 0.00, 0.00
101, 42767.96, 42411.34, 14113.07, 15554.60, 11585.94, 34870.51, -8703.46, 0.00, 0.00, 0.00, 0.00
102, 44040.07, 42574.51, 14130.53, 15484.46, 11496.93, 35949.29, -8838.97, 0.00, 0.12, 0.93, 0.32
103, 43612.10, 42519.52, 13978.02, 15439.53, 11505.63, 35263.74, -8752.00, 0.00, 0.00, 0.00, 0.00
104, 42680.45, 42388.05, 13988.53, 15509.54, 11569.15, 34458.12, -8656.20, 0.00, 0.00, 0.00, 0.00
105, 42570.17, 42366.07, 14074.51, 15541.44, 11577.15, 34674.02, -8690.51, 0.00, 0.00, 0.00, 0.00
106, 43910.89, 42555.89, 14141.70, 15482.02, 11498.76, 35883.07, -8825.56, 0.00, 0.00, 0.00, 0.00
107, 43789.50, 42540.22, 13987.79, 15440.72, 11490.88, 35463.25, -8750.51, 0.00, 0.00, 0.00, 0.00
108, 42809.31, 42392.54, 13978.45, 15502.54, 11549.84, 34533.06, -8631.82, 0.00, 0.00, 0.00, 0.00
109, 42453.00, 42342.25, 14053.57, 15523.67, 11573.15, 34519.83, -8653.54, 0.00, 0.00, 0.00, 0.00
110, 43713.77, 42518.45, 14151.54, 15490.72, 11520.33, 35747.57, -8802.27, 0.00, 0.00, 0.00, 0.00
111, 43940.33, 42544.29, 13992.71, 15432.29, 11474.74, 35647.88, -8789.00, 0.00, 0.12, 0.93, 0.32
112, 42963.36, 42419.99, 13944.67, 15473.35, 11552.48, 34647.30, -8658.64, 0.00, 0.00, 0.00, 0.00
113, 42406.31, 42337.73, 13991.28, 15516.42, 11578.14, 34421.89, -8647.87, 0.00, 0.00, 0.00, 0.00
114, 43452.64, 42489.79, 14121.38, 15503.50, 11514.30, 35532.81, -8800.15, 0.00, 0.00, 0.00, 0.00
115, 44058.71, 42564.29, 14010.01, 15420.22, 11447.51, 35812.01, -8800.49, 0.00, 0.00, 0.00, 0.00
116, 43120.83, 42437.76, 13923.44, 15447.25, 11511.46, 34778.17, -8675.00, 0.00, 0.00, 0.00, 0.00
117, 42408.01, 42334.85, 13970.11, 15493.51, 11553.01, 34360.57, -8649.16, 0.00, 0.00, 0.00, 0.00
118, 43173.82, 42447.50, 14106.52, 15494.07, 11520.38, 35275.77, -8751.58, 0.00, 0.00, 0.00, 0.00
119, 44105.82, 42568.36, 14038.88, 15423.53, 11457.53, 35915.12, -8778.25, 0.00, 0.00, 0.00, 0.00
120, 43292.89, 42470.66, 13929.36, 15451.29, 11514.10, 34943.78, -8654.17, 0.00, 0.00, 0.00, 0.00
121, 42472.58, 42354.81, 13965.44, 15492.96, 11564.10, 34367.39, -8634.48, 0.00, 0.12, 0.93, 0.32
122, 42912.62, 42413.06, 14080.91, 15492.26, 11537.48, 35045.66, -8720.00, 0.00, 0.00, 0.00, 0.00
123, 44107.50, 42578.75, 14050.93, 15419.98, 11445.95, 35985.21, -8805.20, 0.00, 0.00, 0.00, 0.00
124, 43470.48, 42507.56, 13919.19, 15427.17, 11476.82, 35134.17, -8681.86, 0.00, 0.00, 0.00, 0.00
125, 42573.01, 42369.59, 13938.35, 15497.02, 11531.40, 34407.58, -8631.48, 0.00, 0.00, 0.00, 0.00
126, 42697.84, 42382.13, 14028.76, 15503.35, 11526.08, 34824.00, -8713.63, 0.00, 0.00, 0.00, 0.00
127, 44033.34, 42550.37, 14059.67, 15408.08, 11441.77, 35966.82, -8809.38, 0.00, 0.00, 0.00, 0.00
128, 43632.19, 42510.25, 13898.45, 15389.58, 11463.74, 35303.89, -8713.89, 0.00, 0.00, 0.00, 0.00
129, 42674.06, 42397.86, 13913.94, 15458.56, 11545.10, 34451.55, -8629.16, 0.00, 0.00, 0.00, 0.00
130, 42529.40, 42375.24, 14006.97, 15499.44, 11548.25, 34639.04, -8671.00, 0.00, 0.00, 0.00, 0.00
131, 43901.08, 42563.17, 14090.94, 15450.38, 11469.60, 35902.93, -8779.92, 0.00, 0.12, 0.94, 0.32
132, 43815.81, 42550.84, 13918.23, 15397.92, 11448.23, 35518.78, -8749.23, 0.00, 0.00, 0.00, 0.00
133, 42802.38, 42414.63, 13897.22, 15447.36, 11524.87, 34526.94, -8642.68, 0.00, 0.00, 0.00, 0.00
134, 42423.43, 42338.32, 13972.34, 15474.51, 11529.61, 34472.56, -8667.27, 0.00, 0.00, 0.00, 0.00
135, 43683.49, 42520.97, 14086.69, 15461.95, 11470.89, 35734.56, -8784.88, 0.00, 0.00, 0.00, 0.00
136, 43956.63, 42555.02, 13927.51, 15388.50, 11427.73, 35707.31, -8745.97, 0.00, 0.00, 0.00, 0.00
137, 42959.16, 42419.43, 13888.70, 15432.76, 11503.57, 34671.89, -8640.47, 0.00, 0.00, 0.00, 0.00
138, 42391.40, 42344.68, 13967.63, 15480.10, 11538.69, 34414.06, -8623.62, 0.00, 0.00, 0.00, 0.00
139, 43435.36, 42502.94, 14076.26, 15473.49, 11481.82, 35520.74, -8739.06, 0.00, 0.00, 0.00, 0.00
140, 44090.94, 42569.50, 13943.84, 15383.45, 11408.38, 35858.72, -8769.95, 0.00, 0.00, 0.00, 0.00
141, 43123.67, 42449.22, 13861.90, 15416.87, 11474.04, 34799.27, -8668.43, 0.00, 0.12, 0.93, 0.31
142, 42407.36, 42345.89, 13913.27, 15468.43, 11507.71, 34354.38, -8651.82, 0.00, 0.00, 0.00, 0.00
143, 43145.17, 42455.08, 14055.31, 15450.33, 11480.66, 35251.32, -8765.42, 0.00, 0.00, 0.00, 0.00
144, 44133.77, 42581.48, 13986.89, 15377.20, 11403.14, 35959.26, -8800.53, 0.00, 0.00, 0.00, 0.00
145, 43296.13, 42474.01, 13864.90, 15407.33, 11455.85, 34974.13, -8669.21, 0.00, 0.00, 0.00, 0.00
146, 42473.21, 42355.30, 13904.84, 15457.37, 11503.68, 34367.53, -8624.22, 0.00, 0.00, 0.00, 0.00
147, 42886.83, 42414.80, 14025.58, 15473.91, 11482.09, 35023.80, -8711.15, 0.00, 0.00, 0.00, 0.00
148, 44129.96, 42581.82, 14010.32, 15396.44, 11395.05, 36022.94, -8797.13, 0.00, 0.00, 0.00, 0.00
149, 43483.33, 42498.06, 13863.51, 15388.04, 11429.21, 35153.46, -8685.64, 0.00, 0.00, 0.00, 0.00
150, 42581.57, 42380.43, 13898.29, 15450.96, 11495.64, 34408.41, -8625.11, 0.00, 0.00, 0.00, 0.00
151, 42681.53, 42396.09, 13995.25, 15473.69, 11493.58, 34803.50, -8703.88, 0.00, 0.12, 0.94, 0.32
152, 44045.00, 42576.00, 14032.49, 15394.38, 11405.40, 35984.96, -8838.01, 0.00, 0.00, 0.00, 0.00
153, 43657.79, 42518.02, 13839.86, 15368.92, 11403.95, 35356.23, -8760.79, 0.00, 0.00, 0.00, 0.00
154, 42686.04, 42391.11, 13846.73, 15417.43, 11468.52, 34477.25, -8650.24, 0.00, 0.00, 0.00, 0.00
155, 42496.88, 42376.67, 13949.77, 15467.21, 11496.91, 34616.35, -8651.40, 0.00, 0.00, 0.00, 0.00
156, 43866.95, 42572.23, 14052.65, 15436.36, 11443.53, 35896.97, -8769.19, 0.00, 0.00, 0.00, 0.00
157, 43835.86, 42546.99, 13877.39, 15376.84, 11409.67, 35583.33, -8711.41, 0.00, 0.00, 0.00, 0.00
158, 42813.89, 42395.94, 13854.95, 15420.83, 11473.80, 34573.50, -8641.79, 0.00, 0.00, 0.00, 0.00
159, 42390.62, 42332.62, 13925.00, 15467.88, 11490.14, 34471.60, -8658.15, 0.00, 0.00, 0.00, 0.00
160, 43624.73, 42502.64, 14039.60, 15403.61, 11415.50, 35706.04, -8811.86, 0.00, 0.12, 0.94, 0.32
161, 43983.02, 42571.36, 13903.03, 15350.46, 11385.73, 35761.25, -8759.98, 0.00, 0.00, 0.00, 0.00
162, 42969.19, 42436.66, 13834.52, 15402.94, 11458.67, 34704.68, -8648.69, 0.00, 0.00, 0.00, 0.00
163, 42363.84, 42335.90, 13878.44, 15436.76, 11475.38, 34402.11, -8647.02, 0.00, 0.00, 0.00, 0.00
164, 43359.61, 42474.50, 14019.33, 15424.29, 11431.49, 35490.84, -8755.71, 0.00, 0.00, 0.00, 0.00
165, 44088.19, 42565.50, 13910.67, 15346.04, 11357.52, 35917.29, -8775.12, 0.00, 0.00, 0.00, 0.00
166, 43128.70, 42445.71, 13817.20, 15383.07, 11420.47, 34850.88, -8670.08, 0.00, 0.00, 0.00, 0.00
167, 42399.56, 42348.57, 13865.81, 15426.26, 11464.46, 34386.62, -8634.77, 0.00, 0.00, 0.00, 0.00
168, 43087.99, 42454.01, 14007.93, 15426.70, 11450.13, 35255.36, -8753.08, 0.00, 0.00, 0.00, 0.00
169, 44133.36, 42584.41, 13934.43, 15342.86, 11365.19, 36011.63, -8821.25, 0.00, 0.00, 0.00, 0.00
170, 43312.40, 42460.58, 13800.28, 15358.40, 11410.52, 35028.58, -8676.75, 0.00, 0.13, 0.94, 0.31
171, 42465.41, 42345.69, 13851.84, 15415.24, 11469.78, 34395.06, -8632.15, 0.00, 0.00, 0.00, 0.00
172, 42819.39, 42415.70, 13974.89, 15412.24, 11446.35, 34991.41, -8724.69, 0.00, 0.00, 0.00, 0.00
173, 44104.71, 42579.74, 13966.69, 15334.82, 11362.20, 36047.26, -8797.51, 0.00, 0.00, 0.00, 0.00
174, 43505.19, 42514.45, 13813.47, 15342.97, 11395.66, 35230.62, -8667.83, 0.00, 0.00, 0.00, 0.00
175, 42577.28, 42374.59, 13835.86, 15406.52, 11448.18, 34453.56, -8609.85, 0.00, 0.00, 0.00, 0.00
176, 42609.64, 42391.29, 13941.56, 15408.35, 11450.15, 34788.16, -8690.00, 0.00, 0.00, 0.00, 0.00
177, 44010.76, 42575.58, 13998.36, 15338.44, 11367.90, 36012.91, -8816.56, 0.00, 0.00, 0.00, 0.00
178, 43693.25, 42517.66, 13822.09, 15308.58, 11369.21, 35430.00, -8742.68, 0.00, 0.00, 0.00, 0.00
179, 42702.92, 42380.65, 13826.36, 15360.43, 11442.17, 34506.29, -8661.26, 0.00, 0.00, 0.00, 0.00
180, 42465.72, 42349.87, 13902.02, 15394.72, 11453.30, 34591.63, -8681.17, 0.00, 0.13, 0.94, 0.31
181, 43828.17, 42540.82, 14003.61, 15357.55, 11382.65, 35885.68, -8818.03, 0.00, 0.00, 0.00, 0.00
182, 43865.81, 42549.58, 13844.02, 15314.74, 11364.81, 35637.87, -8734.37, 0.00, 0.00, 0.00, 0.00
183, 42847.76, 42425.38, 13821.07, 15373.89, 11441.10, 34631.10, -8632.20, 0.00, 0.00, 0.00, 0.00
184, 42384.54, 42346.72, 13880.23, 15410.50, 11456.41, 34494.02, -8625.00, 0.00, 0.00, 0.00, 0.00
185, 43579.29, 42509.69, 14002.32, 15365.91, 11390.47, 35701.43, -8790.58, 0.00, 0.00, 0.00, 0.00
186, 44012.91, 42582.17, 13865.52, 15309.09, 11343.24, 35823.43, -8773.77, 0.00, 0.00, 0.00, 0.00
187, 43007.57, 42449.38, 13799.12, 15353.73, 11418.88, 34752.22, -8637.12, 0.00, 0.00, 0.00, 0.00
188, 42367.44, 42342.76, 13851.31, 15389.24, 11446.04, 34411.49, -8635.62, 0.00, 0.00, 0.00, 0.00
189, 43304.07, 42483.31, 13989.33, 15382.11, 11403.66, 35467.50, -8778.65, 0.00, 0.00, 0.00, 0.00
190, 44100.62, 42587.67, 13891.94, 15305.27, 11341.70, 35958.90, -8798.29, 0.00, 0.13, 0.93, 0.32
191, 43163.25, 42451.80, 13787.67, 15321.61, 11395.54, 34899.88, -8662.58, 0.00, 0.00, 0.00, 0.00
192, 42401.05, 42354.54, 13832.80, 15384.77, 11441.39, 34387.20, -8640.33, 0.00, 0.00, 0.00, 0.00
193, 43033.16, 42455.30, 13965.86, 15394.18, 11417.20, 35228.23, -8737.88, 0.00, 0.00, 0.00, 0.00
194, 44143.29, 42598.33, 13920.40, 15296.17, 11334.44, 36066.08, -8789.53, 0.00, 0.00, 0.00, 0.00
195, 43355.59, 42489.86, 13784.63, 15296.62, 11373.84, 35089.31, -8693.24, 0.00, 0.00, 0.00, 0.00
196, 42485.50, 42354.74, 13806.58, 15345.46, 11426.81, 34401.21, -8660.45, 0.00, 0.00, 0.00, 0.00
197, 42767.38, 42390.95, 13918.74, 15363.83, 11410.14, 34941.50, -8719.68, 0.00, 0.00, 0.00, 0.00
198, 44087.03, 42560.31, 13924.98, 15287.50, 11303.68, 36067.22, -8825.14, 0.00, 0.00, 0.00, 0.00
199, 43525.13, 42491.11, 13763.78, 15277.17, 11337.16, 35288.98, -8711.17, 0.00, 0.00, 0.00, 0.00
200, 42579.76, 42355.14, 13783.36, 15337.43, 11419.48, 34458.66, -8622.05, 0.00, 0.13, 0.94, 0.31
201, 42561.92, 42358.97, 13898.00, 15371.38, 11414.81, 34746.48, -8665.70, 0.00, 0.00, 0.00, 0.00
202, 43966.28, 42565.66, 13974.87, 15319.26, 11341.88, 36012.48, -8794.27, 0.00, 0.00, 0.00, 0.00
203, 43721.02, 42524.01, 13760.52, 15258.22, 11324.35, 35490.41, -8738.48, 0.00, 0.00, 0.00, 0.00
204, 42717.22, 42370.32, 13741.05, 15309.76, 11384.32, 34538.54, -8657.86, 0.00, 0.00, 0.00, 0.00
205, 42424.26, 42341.24, 13832.40, 15349.93, 11412.04, 34568.65, -8666.46, 0.00, 0.00, 0.00, 0.00
206, 43768.74, 42533.98, 13944.72, 15307.73, 11336.96, 35862.88, -8802.79, 0.00, 0.00, 0.00, 0.00
207, 43887.00, 42547.13, 13782.13, 15243.20, 11301.35, 35684.07, -8731.44, 0.00, 0.00, 0.00, 0.00
208, 42854.98, 42407.23, 13751.51, 15299.41, 11383.14, 34639.30, -8631.59, 0.00, 0.00, 0.00, 0.00
209, 42354.07, 42334.70, 13821.58, 15339.51, 11416.00, 34451.03, -8645.97, 0.00, 0.13, 0.94, 0.31
210, 43508.63, 42478.91, 13940.80, 15293.31, 11346.33, 35644.44, -8818.54, 0.00, 0.00, 0.00, 0.00
211, 44005.53, 42542.27, 13799.54, 15216.44, 11288.32, 35842.43, -8782.98, 0.00, 0.00, 0.00, 0.00
212, 43007.68, 42427.01, 13740.94, 15272.14, 11369.01, 34778.38, -8643.98, 0.00, 0.00, 0.00, 0.00
213, 42346.92, 42330.43, 13800.97, 15327.13, 11408.53, 34411.83, -8636.45, 0.00, 0.00, 0.00, 0.00
214, 43221.77, 42444.02, 13940.56, 15321.07, 11359.63, 35415.80, -8785.62, 0.00, 0.00, 0.00, 0.00
215, 44090.91, 42553.09, 13838.93, 15208.42, 11280.72, 35983.49, -8812.76, 0.00, 0.00, 0.00, 0.00
216, 43193.47, 42452.02, 13735.35, 15253.77, 11349.63, 34950.80, -8654.73, 0.00, 0.00, 0.00, 0.00
217, 42416.39, 42341.33, 13788.05, 15290.16, 11400.26, 34406.15, -8636.29, 0.00, 0.00, 0.00, 0.00
218, 42963.05, 42424.68, 13925.27, 15309.16, 11370.78, 35170.83, -8746.01, 0.00, 0.00, 0.00, 0.00
219, 44134.84, 42587.14, 13880.63, 15236.83, 11278.15, 36083.85, -8825.16, 0.00, 0.12, 0.94, 0.31
220, 43391.11, 42509.75, 13728.91, 15252.52, 11315.97, 35138.86, -8700.77, 0.00, 0.00, 0.00, 0.00
221, 42508.17, 42366.14, 13763.38, 15302.07, 11358.62, 34428.82, -8657.14, 0.00, 0.00, 0.00, 0.00
222, 42722.41, 42387.98, 13888.55, 15307.73, 11350.80, 34920.75, -8741.34, 0.00, 0.00, 0.00, 0.00
223, 44061.86, 42557.70, 13888.59, 15227.21, 11261.77, 36056.87, -8850.84, 0.00, 0.00, 0.00, 0.00
224, 43556.86, 42495.00, 13701.42, 15205.91, 11281.30, 35305.25, -8767.99, 0.00, 0.00, 0.00, 0.00
225, 42596.68, 42356.42, 13720.13, 15249.48, 11343.91, 34454.83, -8710.72, 0.00, 0.00, 0.00, 0.00
226, 42512.37, 42341.11, 13821.20, 15289.58, 11345.10, 34685.61, -8714.52, 0.00, 0.00, 0.00, 0.00
227, 43910.13, 42523.93, 13889.22, 15207.01, 11266.06, 35960.96, -8841.39, 0.00, 0.00, 0.00, 0.00
228, 43731.48, 42487.13, 13713.08, 15171.16, 11266.15, 35507.69, -8767.36, 0.00, 0.00, 0.00, 0.00
229, 42731.53, 42370.70, 13708.62, 15235.53, 11351.98, 34544.66, -8670.73, 0.00, 0.13, 0.94, 0.31
230, 42397.86, 42319.74, 13776.14, 15259.33, 11355.27, 34527.25, -8738.97, 0.00, 0.00, 0.00, 0.00
231, 43699.43, 42486.21, 13884.99, 15225.47, 11278.82, 35795.40, -8856.45, 0.00, 0.00, 0.00, 0.00
232, 43891.83, 42530.85, 13732.91, 15145.30, 11241.88, 35692.09, -8786.76, 0.00, 0.00, 0.00, 0.00
233, 42869.06, 42393.10, 13703.41, 15199.68, 11319.35, 34646.12, -8683.18, 0.00, 0.00, 0.00, 0.00
234, 42343.90, 42316.97, 13755.29, 15248.11, 11351.38, 34440.48, -8668.81, 0.00, 0.00, 0.00, 0.00
235, 43444.04, 42473.75, 13886.49, 15235.82, 11303.61, 35604.34, -8821.12, 0.00, 0.00, 0.00, 0.00
236, 44020.13, 42537.58, 13754.93, 15151.04, 11239.53, 35871.33, -8838.59, 0.00, 0.00, 0.00, 0.00
237, 43020.47, 42405.68, 13661.70, 15186.83, 11301.44, 34790.78, -8724.91, 0.00, 0.00, 0.00, 0.00
238, 42334.40, 42296.03, 13718.07, 15228.31, 11333.21, 34382.21, -8682.16, 0.00, 0.00, 0.00, 0.00
239, 43152.10, 42418.40, 13860.45, 15223.88, 11293.82, 35343.20, -8816.18, 0.00, 0.13, 0.94, 0.31
240, 44075.40, 42518.94, 13767.83, 15137.96, 11213.38, 35983.13, -8863.85, 0.00, 0.00, 0.00, 0.00
241, 43181.07, 42409.82, 13647.89, 15169.35, 11270.33, 34954.39, -8732.42, 0.00, 0.00, 0.00, 0.00
242, 42374.41, 42292.54, 13683.58, 15212.95, 11329.34, 34379.89, -8685.31, 0.00, 0.00, 0.00, 0.00
243, 42846.82, 42358.48, 13811.72, 15217.94, 11306.16, 35080.26, -8801.87, 0.00, 0.00, 0.00, 0.00
244, 44048.20, 42517.96, 13795.76, 15131.71, 11219.68, 36029.29, -8895.79, 0.00, 0.00, 0.00, 0.00
245, 43343.03, 42435.99, 13634.21, 15139.71, 11255.53, 35119.53, -8781.40, 0.00, 0.00, 0.00, 0.00
246, 42452.13, 42313.82, 13666.86, 15203.52, 11309.47, 34399.04, -8692.35, 0.00, 0.00, 0.00, 0.00
247, 42612.44, 42340.50, 13786.47, 15236.04, 11307.28, 34844.96, -8752.96, 0.00, 0.00, 0.00, 0.00
248, 43980.27, 42523.39, 13827.88, 15163.85, 11228.24, 36026.56, -8873.11, 0.00, 0.13, 0.94, 0.32
249, 43537.08, 42469.57, 13663.93, 15122.50, 11251.38, 35333.01, -8792.24, 0.00, 0.00, 0.00, 0.00
250, 42580.36, 42317.86, 13662.06, 15176.41, 11321.23, 34461.79, -8726.37, 0.00, 0.00, 0.00, 0.00
251, 42457.09, 42310.67, 13746.41, 15218.54, 11321.74, 34651.68, -8726.39, 0.00, 0.00, 0.00, 0.00
252, 43842.77, 42504.70, 13831.97, 15172.83, 11240.27, 35945.56, -8868.01, 0.00, 0.00, 0.00, 0.00
253, 43733.38, 42483.07, 13650.30, 15122.21, 11221.49, 35547.43, -8842.91, 0.00, 0.00, 0.00, 0.00
254, 42716.93, 42343.32, 13642.25, 15152.25, 11296.44, 34544.15, -8759.47, 0.00, 0.00, 0.00, 0.00
255, 42333.78, 42287.31, 13713.26, 15194.29, 11314.56, 34493.90, -8727.55, 0.00, 0.00, 0.00, 0.00
0, 43608.74, 42461.96, 13820.04, 15161.90, 11241.03, 35765.00, -8872.68, 0.00, 0.00, 0.00, 0.00
1, 43890.31, 42510.69, 13658.97, 15106.27, 11196.61, 35738.88, -8846.37, 0.00, 0.00, 0.00, 0.00
2, 42871.25, 42373.00, 13603.09, 15155.94, 11270.11, 34674.71, -8751.47, 0.00, 0.12, 0.94, 0.31
3, 42302.38, 42285.99, 13664.51, 15200.82, 11293.11, 34407.09, -8753.73, 0.00, 0.00, 0.00, 0.00
4, 43343.07, 42439.12, 13808.26, 15169.88, 11253.03, 35536.10, -8889.33, 0.00, 0.00, 0.00, 0.00
5, 43994.69, 42519.23, 13692.21, 15083.81, 11192.48, 35891.45, -8898.36, 0.00, 0.00, 0.00, 0.00
6, 43022.86, 42386.50, 13605.95, 15126.86, 11261.05, 34817.45, -8778.02, 0.00, 0.00, 0.00, 0.00
7, 42314.71, 42280.96, 13660.36, 15178.60, 11304.84, 34373.05, -8757.41, 0.00, 0.00, 0.00, 0.00
8, 43054.82, 42396.32, 13782.15, 15194.65, 11276.21, 35285.89, -8864.41, 0.00, 0.00, 0.00, 0.00
9, 44056.45, 42526.27, 13723.14, 15088.59, 11200.44, 36002.24, -8924.96, 0.00, 0.00, 0.00, 0.00
10, 43212.76, 42418.78, 13602.56, 15107.39, 11239.24, 34997.42, -8815.48, 0.00, 0.00, 0.00, 0.00
11, 42392.50, 42303.67, 13637.98, 15164.07, 11281.84, 34391.24, -8750.75, 0.00, 0.00, 0.00, 0.00
12, 42802.20, 42361.65, 13752.87, 15159.87, 11266.49, 35039.80, -8847.87, 0.00, 0.12, 0.94, 0.31
13, 44048.78, 42524.95, 13749.34, 15086.89, 11186.87, 36049.32, -8938.51, 0.00, 0.00, 0.00, 0.00
14, 43389.00, 42451.53, 13589.73, 15096.14, 11218.43, 35185.20, -8826.06, 0.00, 0.00, 0.00, 0.00
15, 42480.02, 42312.10, 13618.78, 15149.86, 11278.06, 34430.02, -8761.21, 0.00, 0.00, 0.00, 0.00
16, 42578.02, 42309.26, 13728.20, 15167.25, 11269.21, 34814.09, -8838.59, 0.00, 0.00, 0.00, 0.00
17, 43953.36, 42501.19, 13762.15, 15094.31, 11187.43, 36009.35, -8986.81, 0.00, 0.00, 0.00, 0.00
18, 43573.70, 42457.50, 13588.81, 15067.67, 11194.94, 35373.80, -8887.97, 0.00, 0.00, 0.00, 0.00
19, 42605.53, 42324.32, 13595.00, 15134.81, 11262.95, 34498.96, -8742.93, 0.00, 0.00, 0.00, 0.00
20, 42421.78, 42303.20, 13682.33, 15167.92, 11272.43, 34643.93, -8757.82, 0.00, 0.00, 0.00, 0.00
21, 43785.08, 42487.45, 13773.37, 15112.17, 11196.77, 35926.36, -8935.42, 0.00, 0.00, 0.00, 0.00
22, 43748.38, 42474.77, 13593.77, 15048.18, 11174.08, 35599.91, -8891.39, 0.00, 0.12, 0.94, 0.32
23, 42733.23, 42327.41, 13573.01, 15100.86, 11257.05, 34588.45, -8788.30, 0.00, 0.00, 0.00, 0.00
24, 42313.44, 42276.96, 13646.97, 15143.82, 11279.16, 34485.43, -8789.29, 0.00, 0.00, 0.00, 0.00
25, 43540.23, 42451.35, 13763.96, 15116.06, 11212.19, 35721.73, -8925.07, 0.00, 0.00, 0.00, 0.00
26, 43885.48, 42486.24, 13622.90, 15060.45, 11173.19, 35777.96, -8874.89, 0.00, 0.00, 0.00, 0.00
27, 42871.05, 42343.59, 13573.05, 15091.14, 11247.02, 34713.06, -8774.09, 0.00, 0.00, 0.00, 0.00
28, 42270.25, 42267.21, 13630.52, 15131.71, 11282.71, 34406.08, -8775.72, 0.00, 0.00, 0.00, 0.00
29, 43256.03, 42404.92, 13758.88, 15124.96, 11232.56, 35496.25, -8898.83, 0.00, 0.00, 0.00, 0.00
30, 43976.00, 42497.57, 13646.48, 15053.99, 11167.07, 35910.73, -8913.34, 0.00, 0.00, 0.00, 0.00
31, 43029.54, 42365.32, 13554.08, 15077.10, 11220.29, 34830.54, -8802.14, 0.00, 0.00, 0.00, 0.00
32, 42312.54, 42259.68, 13595.90, 15104.41, 11267.76, 34373.76, -8758.06, 0.00, 0.12, 0.93, 0.31
33, 42990.18, 42355.48, 13716.06, 15110.40, 11230.88, 35244.09, -8876.30, 0.00, 0.00, 0.00, 0.00
34, 44035.19, 42490.84, 13654.14, 15025.54, 11147.04, 36030.09, -8945.24, 0.00, 0.00, 0.00, 0.00
35, 43207.20, 42393.08, 13529.11, 15042.10, 11209.42, 35026.59, -8818.28, 0.00, 0.00, 0.00, 0.00
36, 42379.46, 42274.03, 13571.53, 15103.21, 11254.50, 34389.30, -8769.46, 0.00, 0.00, 0.00, 0.00
37, 42729.23, 42333.75, 13695.47, 15131.24, 11238.10, 34997.27, -8856.34, 0.00, 0.00, 0.00, 0.00
38, 44011.41, 42491.31, 13688.34, 15045.43, 11141.12, 36063.73, -8954.49, 0.00, 0.00, 0.00, 0.00
39, 43389.63, 42413.42, 13526.25, 15032.75, 11173.66, 35224.70, -8828.69, 0.00, 0.00, 0.00, 0.00
40, 42473.14, 42276.31, 13541.76, 15087.05, 11226.99, 34435.52, -8777.53, 0.00, 0.00, 0.00, 0.00
41, 42501.62, 42292.88, 13654.05, 15116.06, 11232.44, 34761.75, -8811.48, 0.00, 0.12, 0.93, 0.32
42, 43886.22, 42465.30, 13720.57, 15044.02, 11157.28, 35999.41, -8931.02, 0.00, 0.00, 0.00, 0.00
43, 43565.43, 42421.40, 13524.53, 15002.22, 11147.46, 35414.01, -8878.87, 0.00, 0.00, 0.00, 0.00
44, 42585.61, 42308.23, 13532.48, 15065.03, 11216.42, 34494.64, -8779.30, 0.00, 0.00, 0.00, 0.00
45, 42348.73, 42259.48, 13609.71, 15098.45, 11226.41, 34583.98, -8803.26, 0.00, 0.00, 0.00, 0.00
46, 43698.80, 42431.23, 13695.43, 15036.84, 11148.83, 35865.99, -8956.81, 0.00, 0.00, 0.00, 0.00
47, 43734.50, 42437.64, 13526.38, 14988.81, 11119.34, 35609.64, -8906.75, 0.00, 0.00, 0.00, 0.00
48, 42712.42, 42305.44, 13504.72, 15056.11, 11200.55, 34590.69, -8783.97, 0.00, 0.00, 0.00, 0.00
49, 42251.84, 42234.47, 13571.75, 15087.23, 11221.20, 34443.66, -8801.25, 0.00, 0.00, 0.00, 0.00
50, 43442.76, 42418.56, 13702.42, 15048.18, 11168.38, 35673.61, -8924.07, 0.00, 0.00, 0.00, 0.00
51, 43871.31, 42475.64, 13550.77, 14980.99, 11114.36, 35800.59, -8879.39, 0.00, 0.12, 0.94, 0.31
