%OpenBCI Raw EEG Data
%
%Sample Rate = 250.0 Hz
%First Column = SampleIndex
%Other Columns = EEG data in microvolts followed by Accel Data (in G) interleaved with Aux Data
0, 48417.70, 52333.55, 33303.56, 37431.55, 57138.19, 54096.81, 27770.48, 0.00, 0.07, 0.46, 0.17
1, 48463.27, 52332.16, 33270.10, 37393.80, 57525.79, 54666.57, 27729.33, 0.00, 0.00, 0.00, 0.00
2, 48432.61, 52359.21, 33263.46, 37402.49, 56864.13, 53821.23, 27711.27, 0.00, 0.00, 0.00, 0.00
3, 48411.44, 52364.17, 33296.70, 37437.98, 56715.76, 53478.78, 27748.08, 0.00, 0.00, 0.00, 0.00
4, 48421.50, 52359.05, 33303.72, 37441.03, 57033.85, 53941.39, 27770.83, 0.00, 0.00, 0.00, 0.00
5, 48470.85, 52361.33, 33270.37, 37411.95, 57534.44, 54675.45, 27742.00, 0.00, 0.00, 0.00, 0.00
6, 48454.67, 52389.05, 33258.46, 37408.35, 56974.66, 54000.16, 27709.77, 0.00, 0.00, 0.00, 0.00
7, 48419.82, 52390.23, 33288.72, 37434.32, 56684.34, 53470.29, 27732.12, 0.00, 0.14, 0.92, 0.33
8, 48411.33, 52369.93, 33280.72, 37439.13, 56931.77, 53810.19, 27764.44, 0.00, 0.00, 0.00, 0.00
9, 48457.20, 52362.91, 33271.46, 37421.42, 57489.96, 54611.70, 27750.61, 0.00, 0.00, 0.00, 0.00
10, 48452.93, 52376.82, 33241.91, 37400.79, 57102.80, 54174.77, 27707.06, 0.00, 0.00, 0.00, 0.00
11, 48417.59, 52393.67, 33286.38, 37437.63, 56670.23, 53475.12, 27747.57, 0.00, 0.00, 0.00, 0.00
12, 48405.74, 52383.32, 33299.32, 37463.02, 56866.21, 53705.36, 27776.94, 0.00, 0.00, 0.00, 0.00
13, 48449.28, 52377.82, 33301.04, 37424.82, 57416.62, 54500.50, 27768.69, 0.00, 0.00, 0.00, 0.00
14, 48460.37, 52388.00, 33259.80, 37382.13, 57243.96, 54353.88, 27714.40, 0.00, 0.00, 0.00, 0.00
15, 48422.35, 52407.66, 33289.75, 37414.72, 56681.54, 53525.63, 27728.93, 0.00, 0.00, 0.00, 0.00
16, 48411.35, 52400.40, 33309.93, 37425.74, 56804.34, 53610.50, 27757.22, 0.00, 0.14, 0.92, 0.33
17, 48436.18, 52382.63, 33308.05, 37415.95, 57309.89, 54345.89, 27764.08, 0.00, 0.00, 0.00, 0.00
18, 48462.49, 52383.64, 33261.92, 37380.21, 57359.04, 54497.26, 27710.48, 0.00, 0.00, 0.00, 0.00
19, 48417.81, 52405.07, 33275.46, 37399.21, 56709.82, 53605.49, 27715.69, 0.00, 0.00, 0.00, 0.00
20, 48391.84, 52398.30, 33301.21, 37413.09, 56754.25, 53560.70, 27750.29, 0.00, 0.00, 0.00, 0.00
21, 48413.61, 52385.00, 33304.05, 37416.89, 57197.08, 54206.06, 27762.41, 0.00, 0.00, 0.00, 0.00
22, 48459.79, 52386.34, 33262.08, 37388.95, 57445.57, 54615.77, 27715.04, 0.00, 0.00, 0.00, 0.00
23, 48421.54, 52411.06, 33264.91, 37406.45, 56776.80, 53732.63, 27707.87, 0.00, 0.00, 0.00, 0.00
24, 48392.75, 52405.96, 33293.61, 37424.55, 56721.48, 53516.51, 27751.90, 0.00, 0.00, 0.00, 0.00
25, 48402.68, 52401.56, 33296.03, 37427.70, 57087.29, 54053.51, 27770.28, 0.00, 0.00, 0.00, 0.00
26, 48450.94, 52400.40, 33266.08, 37397.95, 57498.32, 54667.65, 27729.46, 0.00, 0.15, 0.93, 0.33
27, 48424.36, 52420.18, 33261.03, 37403.05, 56873.63, 53880.20, 27711.36, 0.00, 0.00, 0.00, 0.00
28, 48389.54, 52418.62, 33297.86, 37428.60, 56688.45, 53491.70, 27742.29, 0.00, 0.00, 0.00, 0.00
29, 48389.47, 52406.75, 33303.56, 37431.71, 56979.58, 53911.09, 27752.55, 0.00, 0.00, 0.00, 0.00
30, 48443.54, 52400.94, 33291.71, 37429.58, 57502.12, 54657.93, 27737.82, 0.00, 0.00, 0.00, 0.00
31, 48430.11, 52424.99, 33269.97, 37406.94, 56997.68, 54048.04, 27704.36, 0.00, 0.00, 0.00, 0.00
32, 48393.80, 52433.19, 33305.57, 37389.53, 56674.32, 53476.95, 27739.05, 0.00, 0.00, 0.00, 0.00
33, 48392.17, 52422.82, 33307.38, 37399.47, 56903.02, 53788.44, 27762.83, 0.00, 0.00, 0.00, 0.00
34, 48439.61, 52420.29, 33293.75, 37384.54, 57453.28, 54588.50, 27744.68, 0.00, 0.00, 0.00, 0.00
35, 48438.64, 52435.78, 33262.19, 37367.06, 57121.22, 54231.19, 27696.63, 0.00, 0.00, 0.00, 0.00
36, 48397.58, 52448.90, 33290.39, 37394.89, 56657.71, 53505.58, 27727.81, 0.00, 0.14, 0.93, 0.33
37, 48386.99, 52435.43, 33298.27, 37406.40, 56827.83, 53691.97, 27752.01, 0.00, 0.00, 0.00, 0.00
38, 48425.99, 52419.82, 33295.34, 37397.95, 57369.46, 54473.14, 27747.32, 0.00, 0.00, 0.00, 0.00
39, 48449.77, 52438.40, 33253.43, 37371.69, 57251.29, 54405.15, 27701.28, 0.00, 0.00, 0.00, 0.00
40, 48409.92, 52460.82, 33275.84, 37398.36, 56668.13, 53563.25, 27722.89, 0.00, 0.00, 0.00, 0.00
41, 48390.09, 52453.08, 33294.26, 37407.18, 56776.94, 53615.98, 27746.70, 0.00, 0.00, 0.00, 0.00
42, 48418.64, 52447.09, 33295.38, 37397.57, 57267.61, 54329.40, 27741.75, 0.00, 0.00, 0.00, 0.00
43, 48457.02, 52456.28, 33255.82, 37366.50, 57361.37, 54542.81, 27700.83, 0.00, 0.00, 0.00, 0.00
44, 48414.39, 52473.63, 33267.06, 37388.01, 56706.11, 53645.04, 27714.33, 0.00, 0.00, 0.00, 0.00
45, 48391.32, 52467.28, 33290.39, 37409.71, 56735.79, 53563.11, 27753.31, 0.00, 0.00, 0.00, 0.00
46, 48407.86, 52454.65, 33290.73, 37400.03, 57164.45, 54187.20, 27759.26, 0.00, 0.14, 0.93, 0.33
47, 48452.12, 52453.82, 33252.91, 37356.49, 57449.97, 54643.55, 27706.13, 0.00, 0.00, 0.00, 0.00
48, 48412.83, 52478.16, 33249.52, 37364.54, 56776.76, 53769.15, 27691.53, 0.00, 0.00, 0.00, 0.00
49, 48391.14, 52478.47, 33284.63, 37410.11, 56700.32, 53527.29, 27734.22, 0.00, 0.00, 0.00, 0.00
50, 48401.45, 52466.02, 33290.69, 37403.27, 57056.11, 54043.10, 27755.08, 0.00, 0.00, 0.00, 0.00
51, 48453.84, 52462.74, 33264.34, 37355.20, 57494.59, 54683.23, 27723.47, 0.00, 0.00, 0.00, 0.00
52, 48428.74, 52488.46, 33248.87, 37355.15, 56873.43, 53914.60, 27694.66, 0.00, 0.00, 0.00, 0.00
53, 48399.08, 52492.38, 33282.28, 37383.92, 56667.01, 53502.83, 27729.89, 0.00, 0.00, 0.00, 0.00
54, 48401.32, 52477.49, 33287.42, 37387.83, 56949.40, 53904.67, 27751.50, 0.00, 0.00, 0.00, 0.00
55, 48456.52, 52476.60, 33272.27, 37365.14, 57480.44, 54661.05, 27727.20, 0.00, 0.14, 0.93, 0.32
56, 48446.24, 52498.86, 33245.25, 37353.86, 56994.24, 54090.82, 27690.37, 0.00, 0.00, 0.00, 0.00
57, 48405.38, 52501.36, 33283.45, 37383.22, 56646.29, 53496.73, 27716.99, 0.00, 0.00, 0.00, 0.00
58, 48401.72, 52499.39, 33297.15, 37396.14, 56872.74, 53789.00, 27742.00, 0.00, 0.00, 0.00, 0.00
59, 48447.36, 52485.43, 33279.20, 37372.47, 57434.64, 54590.94, 27730.94, 0.00, 0.00, 0.00, 0.00
60, 48450.49, 52493.65, 33234.72, 37338.05, 57122.14, 54267.82, 27687.06, 0.00, 0.00, 0.00, 0.00
61, 48415.51, 52516.83, 33271.80, 37368.83, 56631.05, 53517.16, 27719.20, 0.00, 0.00, 0.00, 0.00
62, 48405.03, 52501.41, 33284.07, 37377.91, 56800.95, 53689.83, 27734.04, 0.00, 0.00, 0.00, 0.00
63, 48450.13, 52497.65, 33289.46, 37375.96, 57337.90, 54467.82, 27733.22, 0.00, 0.00, 0.00, 0.00
64, 48467.63, 52510.44, 33243.84, 37340.62, 57243.69, 54438.75, 27680.80, 0.00, 0.00, 0.00, 0.00
65, 48421.86, 52530.24, 33274.21, 37366.30, 56642.74, 53577.44, 27696.92, 0.00, 0.15, 0.94, 0.33
66, 48406.97, 52530.20, 33288.00, 37386.06, 56749.51, 53628.45, 27736.03, 0.00, 0.00, 0.00, 0.00
67, 48427.76, 52509.48, 33274.55, 37383.83, 57233.72, 54325.38, 27738.29, 0.00, 0.00, 0.00, 0.00
68, 48466.43, 52517.41, 33236.13, 37342.14, 57359.36, 54581.82, 27691.17, 0.00, 0.00, 0.00, 0.00
69, 48430.39, 52541.93, 33253.36, 37351.51, 56685.92, 53678.34, 27695.35, 0.00, 0.00, 0.00, 0.00
70, 48409.27, 52537.73, 33278.37, 37379.09, 56705.57, 53568.23, 27731.23, 0.00, 0.00, 0.00, 0.00
71, 48427.09, 52528.52, 33282.77, 37366.68, 57121.27, 54167.91, 27737.26, 0.00, 0.00, 0.00, 0.00
72, 48480.33, 52526.29, 33250.99, 37334.30, 57440.98, 54669.14, 27696.16, 0.00, 0.00, 0.00, 0.00
73, 48449.13, 52548.41, 33241.20, 37347.91, 56764.69, 53807.64, 27698.50, 0.00, 0.00, 0.00, 0.00
74, 48420.65, 52547.56, 33271.00, 37373.10, 56672.18, 53537.10, 27738.83, 0.00, 0.00, 0.00, 0.00
75, 48422.62, 52533.84, 33275.93, 37398.98, 57015.07, 54033.80, 27746.76, 0.00, 0.14, 0.93, 0.33
76, 48473.51, 52534.53, 33250.92, 37347.64, 57473.26, 54706.86, 27712.83, 0.00, 0.00, 0.00, 0.00
77, 48449.17, 52560.62, 33231.81, 37321.51, 56864.33, 53965.02, 27681.38, 0.00, 0.00, 0.00, 0.00
78, 48423.22, 52562.56, 33266.61, 37354.88, 56635.74, 53516.13, 27715.60, 0.00, 0.00, 0.00, 0.00
79, 48426.86, 52553.33, 33276.36, 37364.02, 56913.86, 53897.83, 27736.93, 0.00, 0.00, 0.00, 0.00
80, 48472.33, 52544.37, 33256.94, 37336.38, 57459.05, 54677.62, 27719.43, 0.00, 0.00, 0.00, 0.00
81, 48459.59, 52559.48, 33233.85, 37323.75, 56994.51, 54149.29, 27688.04, 0.00, 0.00, 0.00, 0.00
82, 48419.55, 52566.45, 33271.33, 37350.90, 56625.68, 53533.72, 27720.81, 0.00, 0.00, 0.00, 0.00
83, 48412.25, 52553.60, 33269.63, 37360.07, 56840.20, 53804.09, 27739.43, 0.00, 0.00, 0.00, 0.00
84, 48459.23, 52544.08, 33253.98, 37338.83, 57397.85, 54608.24, 27723.29, 0.00, 0.00, 0.00, 0.00
85, 48472.86, 52565.16, 33217.39, 37299.88, 57117.04, 54331.14, 27675.04, 0.00, 0.15, 0.93, 0.34
86, 48435.51, 52582.50, 33257.38, 37343.80, 56615.87, 53565.51, 27706.19, 0.00, 0.00, 0.00, 0.00
87, 48425.01, 52567.25, 33271.58, 37349.32, 56778.95, 53715.71, 27725.04, 0.00, 0.00, 0.00, 0.00
88, 48454.69, 52551.59, 33264.00, 37332.04, 57306.38, 54479.20, 27722.40, 0.00, 0.00, 0.00, 0.00
89, 48477.60, 52566.63, 33224.73, 37305.53, 57253.14, 54504.73, 27687.13, 0.00, 0.00, 0.00, 0.00
90, 48433.59, 52585.00, 33246.05, 37325.94, 56640.32, 53633.63, 27702.55, 0.00, 0.00, 0.00, 0.00
91, 48417.25, 52572.42, 33265.59, 37335.75, 56727.38, 53645.10, 27736.03, 0.00, 0.00, 0.00, 0.00
92, 48442.38, 52562.20, 33268.25, 37328.44, 57194.29, 54324.44, 27734.78, 0.00, 0.00, 0.00, 0.00
93, 48485.71, 52573.45, 33228.46, 37299.76, 57360.72, 54632.02, 27688.02, 0.00, 0.00, 0.00, 0.00
94, 48451.16, 52601.39, 33244.44, 37319.14, 56684.04, 53734.39, 27691.98, 0.00, 0.00, 0.00, 0.00
95, 48431.91, 52590.34, 33268.09, 37333.98, 56681.45, 53600.62, 27720.16, 0.00, 0.16, 0.93, 0.34
96, 48442.11, 52565.76, 33257.47, 37328.17, 57079.83, 54183.89, 27728.93, 0.00, 0.00, 0.00, 0.00
97, 48485.54, 52560.41, 33221.71, 37290.29, 57428.80, 54726.59, 27688.56, 0.00, 0.00, 0.00, 0.00
98, 48450.15, 52584.69, 33216.59, 37296.95, 56759.32, 53880.09, 27679.24, 0.00, 0.00, 0.00, 0.00
99, 48422.73, 52583.21, 33249.14, 37330.83, 56643.03, 53574.25, 27715.51, 0.00, 0.00, 0.00, 0.00
100, 48433.66, 52573.18, 33254.21, 37319.10, 56973.05, 54047.90, 27729.53, 0.00, 0.00, 0.00, 0.00
101, 48487.37, 52572.26, 33232.15, 37283.22, 57459.61, 54747.45, 27698.15, 0.00, 0.00, 0.00, 0.00
102, 48468.86, 52597.45, 33213.44, 37282.80, 56876.07, 54041.66, 27660.48, 0.00, 0.00, 0.00, 0.00
103, 48438.46, 52599.53, 33253.38, 37314.54, 56619.92, 53552.36, 27696.13, 0.00, 0.00, 0.00, 0.00
104, 48439.43, 52587.33, 33255.21, 37318.67, 56886.48, 53916.03, 27720.34, 0.00, 0.14, 0.93, 0.34
105, 48487.61, 52583.24, 33234.88, 37295.58, 57434.48, 54702.07, 27698.93, 0.00, 0.00, 0.00, 0.00
106, 48476.04, 52595.64, 33202.29, 37283.58, 57005.37, 54225.91, 27657.67, 0.00, 0.00, 0.00, 0.00
107, 48442.96, 52605.57, 33234.20, 37308.05, 56601.84, 53565.95, 27685.54, 0.00, 0.00, 0.00, 0.00
108, 48434.15, 52590.52, 33248.11, 37314.22, 56809.50, 53808.70, 27718.15, 0.00, 0.00, 0.00, 0.00
109, 48470.00, 52576.33, 33242.03, 37299.45, 57367.40, 54607.39, 27715.04, 0.00, 0.00, 0.00, 0.00
110, 48476.33, 52580.44, 33197.91, 37269.50, 57139.04, 54401.57, 27670.59, 0.00, 0.00, 0.00, 0.00
111, 48439.04, 52597.63, 33233.87, 37300.32, 56610.02, 53608.27, 27698.93, 0.00, 0.00, 0.00, 0.00
112, 48427.69, 52587.64, 33246.09, 37312.46, 56758.32, 53742.89, 27722.62, 0.00, 0.00, 0.00, 0.00
113, 48465.31, 52575.53, 33240.64, 37305.08, 57277.37, 54498.11, 27726.53, 0.00, 0.00, 0.00, 0.00
114, 48498.01, 52584.18, 33198.87, 37272.63, 57270.46, 54576.52, 27679.55, 0.00, 0.14, 0.94, 0.34
115, 48459.23, 52606.75, 33219.56, 37299.29, 56634.67, 53695.28, 27689.05, 0.00, 0.00, 0.00, 0.00
116, 48451.50, 52603.29, 33245.67, 37325.04, 56706.08, 53692.44, 27720.65, 0.00, 0.00, 0.00, 0.00
117, 48484.08, 52598.59, 33251.21, 37333.09, 57163.94, 54365.27, 27727.56, 0.00, 0.00, 0.00, 0.00
118, 48521.37, 52602.39, 33206.64, 37309.38, 57367.43, 54713.05, 27668.84, 0.00, 0.00, 0.00, 0.00
119, 48479.61, 52617.55, 33211.34, 37297.26, 56685.81, 53809.23, 27662.72, 0.00, 0.00, 0.00, 0.00
120, 48457.17, 52606.13, 33240.75, 37306.69, 56664.69, 53634.60, 27697.74, 0.00, 0.00, 0.00, 0.00
121, 48465.60, 52587.77, 33243.10, 37308.50, 57049.61, 54202.29, 27713.84, 0.00, 0.00, 0.00, 0.00
122, 48505.47, 52581.18, 33206.62, 37273.68, 57430.84, 54790.45, 27678.95, 0.00, 0.00, 0.00, 0.00
123, 48465.60, 52594.55, 33189.77, 37265.63, 56773.96, 53972.24, 27649.91, 0.00, 0.00, 0.00, 0.00
124, 48434.13, 52585.81, 33222.54, 37286.38, 56625.41, 53633.48, 27685.94, 0.00, 0.13, 0.93, 0.34
125, 48434.86, 52564.28, 33223.68, 37286.35, 56937.07, 54086.41, 27704.23, 0.00, 0.00, 0.00, 0.00
126, 48489.49, 52558.47, 33201.26, 37260.42, 57438.68, 54814.88, 27674.61, 0.00, 0.00, 0.00, 0.00
127, 48475.63, 52583.89, 33174.08, 37255.20, 56880.25, 54153.69, 27641.57, 0.00, 0.00, 0.00, 0.00
128, 48446.91, 52592.22, 33213.33, 37288.50, 56600.07, 53641.12, 27684.96, 0.00, 0.00, 0.00, 0.00
129, 48440.23, 52568.35, 33227.99, 37285.46, 56862.19, 53993.43, 27714.26, 0.00, 0.00, 0.00, 0.00
130, 48489.25, 52554.92, 33213.13, 37261.88, 57425.30, 54796.77, 27704.07, 0.00, 0.00, 0.00, 0.00
131, 48497.50, 52573.65, 33177.57, 37240.00, 57033.09, 54364.65, 27649.87, 0.00, 0.00, 0.00, 0.00
132, 48468.41, 52587.57, 33213.75, 37267.40, 56602.39, 53672.82, 27678.95, 0.00, 0.00, 0.00, 0.00
133, 48465.91, 52575.84, 33231.37, 37278.66, 56803.36, 53904.52, 27714.78, 0.00, 0.00, 0.00, 0.00
134, 48512.07, 52565.13, 33227.77, 37266.88, 57357.14, 54707.34, 27708.00, 0.00, 0.13, 0.93, 0.34
135, 48533.10, 52575.64, 33190.57, 37234.61, 57178.73, 54558.28, 27649.29, 0.00, 0.00, 0.00, 0.00
136, 48504.25, 52597.25, 33224.66, 37268.18, 56621.73, 53745.89, 27675.84, 0.00, 0.00, 0.00, 0.00
137, 48502.52, 52589.50, 33242.63, 37280.99, 56750.61, 53844.97, 27707.47, 0.00, 0.00, 0.00, 0.00
138, 48539.63, 52576.80, 33240.46, 37250.12, 57252.94, 54569.10, 27709.99, 0.00, 0.00, 0.00, 0.00
139, 48576.29, 52585.74, 33201.48, 37213.71, 57299.50, 54708.78, 27666.27, 0.00, 0.00, 0.00, 0.00
140, 48541.86, 52612.32, 33220.66, 37237.31, 56653.49, 53822.44, 27666.43, 0.00, 0.00, 0.00, 0.00
141, 48534.04, 52611.78, 33247.73, 37259.98, 56701.55, 53782.90, 27692.96, 0.00, 0.00, 0.00, 0.00
142, 48568.30, 52613.34, 33256.24, 37265.68, 57140.42, 54430.86, 27708.76, 0.00, 0.00, 0.00, 0.00
143, 48618.17, 52624.14, 33215.27, 37236.46, 57402.03, 54841.55, 27686.30, 0.00, 0.13, 0.92, 0.34
144, 48580.46, 52651.57, 33210.63, 37253.41, 56727.56, 53963.43, 27672.96, 0.00, 0.00, 0.00, 0.00
145, 48560.84, 52647.27, 33240.57, 37277.10, 56676.07, 53759.16, 27714.13, 0.00, 0.00, 0.00, 0.00
146, 48573.36, 52636.99, 33246.86, 37278.35, 57039.66, 54289.39, 27734.00, 0.00, 0.00, 0.00, 0.00
147, 48621.05, 52628.19, 33220.30, 37245.52, 57450.53, 54903.44, 27695.13, 0.00, 0.00, 0.00, 0.00
148, 48595.06, 52649.33, 33204.95, 37243.26, 56815.43, 54111.31, 27668.53, 0.00, 0.00, 0.00, 0.00
149, 48574.09, 52660.24, 33238.99, 37273.72, 56639.52, 53733.59, 27709.93, 0.00, 0.00, 0.00, 0.00
150, 48578.81, 52641.20, 33245.40, 37277.10, 56937.82, 54165.96, 27719.80, 0.00, 0.00, 0.00, 0.00
151, 48625.68, 52626.64, 33224.19, 37244.31, 57453.21, 54908.15, 27695.11, 0.00, 0.00, 0.00, 0.00
152, 48611.42, 52641.46, 33194.93, 37222.45, 56936.60, 54290.80, 27658.96, 0.00, 0.00, 0.00, 0.00
153, 48587.82, 52658.03, 33240.15, 37261.79, 56625.19, 53743.43, 27698.84, 0.00, 0.14, 0.91, 0.34
154, 48584.69, 52641.95, 33246.95, 37257.47, 56860.22, 54052.73, 27715.56, 0.00, 0.00, 0.00, 0.00
155, 48636.34, 52631.65, 33232.08, 37246.72, 57408.64, 54845.17, 27701.57, 0.00, 0.00, 0.00, 0.00
156, 48638.87, 52645.22, 33193.84, 37233.96, 57068.56, 54481.35, 27653.00, 0.00, 0.00, 0.00, 0.00
157, 48603.42, 52662.81, 33236.15, 37245.89, 56616.32, 53772.73, 27683.04, 0.00, 0.00, 0.00, 0.00
158, 48599.42, 52651.16, 33247.91, 37258.84, 56797.41, 53978.14, 27717.53, 0.00, 0.00, 0.00, 0.00
159, 48640.08, 52639.88, 33238.38, 37246.79, 57335.11, 54760.09, 27712.99, 0.00, 0.00, 0.00, 0.00
160, 48656.53, 52648.48, 33194.46, 37231.07, 57207.01, 54674.06, 27658.56, 0.00, 0.00, 0.00, 0.00
161, 48613.86, 52661.13, 33219.63, 37272.34, 56632.16, 53842.96, 27679.53, 0.00, 0.00, 0.00, 0.00
162, 48600.29, 52649.96, 33237.20, 37248.09, 56745.20, 53915.04, 27715.00, 0.00, 0.00, 0.00, 0.00
163, 48628.77, 52633.39, 33234.45, 37244.24, 57227.86, 54620.73, 27720.05, 0.00, 0.15, 0.90, 0.35
164, 48655.23, 52630.18, 33193.25, 37208.23, 57316.62, 54811.93, 27669.89, 0.00, 0.00, 0.00, 0.00
165, 48613.63, 52651.43, 33206.55, 37230.07, 56665.34, 53915.49, 27669.69, 0.00, 0.00, 0.00, 0.00
166, 48603.51, 52650.85, 33237.07, 37260.56, 56694.37, 53846.94, 27701.28, 0.00, 0.00, 0.00, 0.00
167, 48622.08, 52632.12, 33246.57, 37260.40, 57108.82, 54475.94, 27701.25, 0.00, 0.00, 0.00, 0.00
168, 48669.11, 52632.25, 33210.71, 37223.66, 57397.24, 54927.93, 27663.70, 0.00, 0.00, 0.00, 0.00
169, 48634.82, 52654.14, 33196.47, 37232.57, 56732.59, 54049.45, 27660.06, 0.00, 0.00, 0.00, 0.00
170, 48610.89, 52653.46, 33230.14, 37258.88, 56648.77, 53810.48, 27687.53, 0.00, 0.00, 0.00, 0.00
171, 48628.07, 52647.25, 33239.14, 37265.03, 56994.93, 54330.90, 27706.35, 0.00, 0.00, 0.00, 0.00
172, 48673.85, 52637.11, 33204.88, 37226.61, 57425.96, 54969.84, 27666.61, 0.00, 0.00, 0.00, 0.00
173, 48649.46, 52658.63, 33194.35, 37229.82, 56817.57, 54200.65, 27643.43, 0.00, 0.17, 0.91, 0.35
174, 48621.55, 52660.02, 33234.16, 37259.62, 56616.56, 53788.02, 27685.79, 0.00, 0.00, 0.00, 0.00
175, 48626.31, 52641.53, 33241.07, 37272.96, 56899.56, 54190.26, 27711.63, 0.00, 0.00, 0.00, 0.00
176, 48679.84, 52635.29, 33220.19, 37254.63, 57426.41, 54951.94, 27700.61, 0.00, 0.00, 0.00, 0.00
177, 48665.87, 52649.78, 33183.15, 37240.82, 56942.65, 54371.46, 27657.56, 0.00, 0.00, 0.00, 0.00
178, 48629.53, 52654.52, 33217.13, 37250.93, 56599.84, 53779.39, 27687.78, 0.00, 0.00, 0.00, 0.00
179, 48626.40, 52639.83, 33225.64, 37262.79, 56821.26, 54072.27, 27710.19, 0.00, 0.00, 0.00, 0.00
180, 48679.46, 52626.02, 33214.27, 37247.75, 57370.80, 54868.75, 27700.25, 0.00, 0.00, 0.00, 0.00
181, 48677.43, 52634.51, 33174.59, 37220.77, 57072.03, 54542.86, 27643.61, 0.00, 0.00, 0.00, 0.00
182, 48635.56, 52652.06, 33210.31, 37256.91, 56591.66, 53796.98, 27670.12, 0.00, 0.00, 0.00, 0.00
183, 48631.32, 52638.31, 33225.20, 37271.51, 56756.62, 53982.66, 27704.92, 0.00, 0.18, 0.92, 0.35
184, 48670.68, 52624.90, 33221.08, 37262.64, 57284.68, 54754.02, 27706.64, 0.00, 0.00, 0.00, 0.00
185, 48690.90, 52629.37, 33174.88, 37230.14, 57205.04, 54722.19, 27658.92, 0.00, 0.00, 0.00, 0.00
186, 48651.34, 52644.08, 33199.11, 37249.32, 56616.77, 53866.07, 27670.95, 0.00, 0.00, 0.00, 0.00
187, 48640.86, 52635.25, 33218.54, 37257.83, 56708.61, 53909.41, 27688.11, 0.00, 0.00, 0.00, 0.00
188, 48671.17, 52636.97, 33217.06, 37260.34, 57181.77, 54619.39, 27698.68, 0.00, 0.00, 0.00, 0.00
189, 48707.58, 52652.73, 33178.91, 37240.64, 57325.34, 54883.95, 27671.75, 0.00, 0.00, 0.00, 0.00
190, 48669.83, 52669.52, 33195.80, 37257.47, 56675.98, 53984.00, 27678.83, 0.00, 0.00, 0.00, 0.00
191, 48653.06, 52662.83, 33215.27, 37272.40, 56685.74, 53881.11, 27702.44, 0.00, 0.00, 0.00, 0.00
192, 48668.04, 52647.92, 33220.91, 37273.41, 57084.23, 54485.57, 27708.29, 0.00, 0.17, 0.92, 0.34
193, 48708.14, 52638.42, 33193.01, 37238.30, 57405.49, 54978.83, 27670.14, 0.00, 0.00, 0.00, 0.00
194, 48674.23, 52656.91, 33191.22, 37254.84, 56751.39, 54122.73, 27649.78, 0.00, 0.00, 0.00, 0.00
195, 48655.28, 52661.02, 33216.32, 37271.51, 56649.55, 53857.53, 27680.60, 0.00, 0.00, 0.00, 0.00
196, 48661.73, 52643.30, 33214.00, 37267.75, 56978.77, 54355.06, 27700.65, 0.00, 0.00, 0.00, 0.00
197, 48711.22, 52635.56, 33189.68, 37236.89, 57432.49, 55026.86, 27670.74, 0.00, 0.00, 0.00, 0.00
198, 48688.89, 52648.82, 33171.13, 37231.21, 56853.87, 54292.12, 27640.55, 0.00, 0.00, 0.00, 0.00
199, 48658.07, 52649.15, 33208.41, 37259.53, 56626.20, 53848.88, 27683.98, 0.00, 0.00, 0.00, 0.00
200, 48661.02, 52640.86, 33214.49, 37268.20, 56892.86, 54243.61, 27696.96, 0.00, 0.00, 0.00, 0.00
201, 48715.69, 52630.49, 33200.30, 37247.37, 57425.45, 55014.46, 27676.18, 0.00, 0.00, 0.00, 0.00
202, 48710.13, 52644.95, 33166.55, 37230.36, 56982.53, 54484.14, 27631.40, 0.00, 0.16, 0.93, 0.34
203, 48677.70, 52652.19, 33199.83, 37255.35, 56606.82, 53865.82, 27656.46, 0.00, 0.00, 0.00, 0.00
204, 48672.04, 52638.98, 33210.42, 37261.95, 56819.94, 54139.12, 27685.38, 0.00, 0.00, 0.00, 0.00
205, 48712.38, 52628.39, 33195.78, 37241.27, 57368.48, 54929.84, 27674.12, 0.00, 0.00, 0.00, 0.00
206, 48722.29, 52641.46, 33159.50, 37215.50, 57115.84, 54661.88, 27622.82, 0.00, 0.00, 0.00, 0.00
207, 48685.18, 52656.77, 33196.83, 37250.28, 56619.20, 53899.22, 27655.68, 0.00, 0.00, 0.00, 0.00
208, 48677.02, 52643.59, 33209.75, 37256.51, 56770.66, 54051.70, 27689.32, 0.00, 0.00, 0.00, 0.00
209, 48715.09, 52630.45, 33201.75, 37244.75, 57287.00, 54809.38, 27691.89, 0.00, 0.00, 0.00, 0.00
210, 48736.34, 52636.77, 33158.68, 37211.81, 57249.97, 54838.35, 27645.08, 0.00, 0.00, 0.00, 0.00
211, 48692.47, 52652.91, 33184.81, 37239.32, 56640.19, 53975.37, 27656.17, 0.00, 0.00, 0.00, 0.00
212, 48676.75, 52645.31, 33197.68, 37258.25, 56712.45, 53979.86, 27677.05, 0.00, 0.15, 0.94, 0.34
213, 48704.70, 52631.45, 33196.88, 37267.60, 57168.92, 54633.36, 27683.33, 0.00, 0.00, 0.00, 0.00
214, 48746.52, 52631.90, 33165.65, 37213.55, 57348.67, 54894.90, 27651.01, 0.00, 0.00, 0.00, 0.00
215, 48706.17, 52648.21, 33170.32, 37228.39, 56691.35, 53966.27, 27645.38, 0.00, 0.00, 0.00, 0.00
216, 48683.46, 52645.49, 33198.40, 37255.42, 56675.06, 53803.20, 27684.80, 0.00, 0.00, 0.00, 0.00
217, 48695.09, 52631.25, 33204.43, 37256.47, 57064.40, 54354.37, 27687.91, 0.00, 0.00, 0.00, 0.00
218, 48742.36, 52627.88, 33166.66, 37228.68, 57417.92, 54851.80, 27648.93, 0.00, 0.00, 0.00, 0.00
219, 48703.87, 52640.66, 33157.87, 37221.09, 56766.93, 53988.94, 27633.88, 0.00, 0.00, 0.00, 0.00
220, 48676.35, 52634.31, 33189.63, 37243.21, 56639.30, 53660.12, 27672.58, 0.00, 0.00, 0.00, 0.00
221, 48678.34, 52613.68, 33192.23, 37245.31, 56956.02, 54085.95, 27690.01, 0.00, 0.00, 0.00, 0.00
222, 48725.57, 52607.24, 33166.86, 37209.64, 57430.14, 54728.38, 27657.96, 0.00, 0.15, 0.93, 0.33
223, 48708.14, 52632.12, 33147.84, 37200.66, 56869.72, 53990.37, 27616.00, 0.00, 0.00, 0.00, 0.00
224, 48674.32, 52634.89, 33184.58, 37230.27, 56614.13, 53475.81, 27648.19, 0.00, 0.00, 0.00, 0.00
225, 48672.91, 52615.20, 33189.95, 37237.58, 56869.30, 53804.02, 27677.38, 0.00, 0.00, 0.00, 0.00
226, 48725.95, 52605.66, 33171.48, 37218.09, 57402.05, 54529.54, 27661.74, 0.00, 0.00, 0.00, 0.00
227, 48716.48, 52619.27, 33131.16, 37193.26, 56993.57, 54004.56, 27623.36, 0.00, 0.00, 0.00, 0.00
228, 48679.77, 52627.94, 33166.19, 37219.97, 56593.25, 53319.05, 27657.00, 0.00, 0.00, 0.00, 0.00
229, 48678.86, 52617.82, 33180.56, 37229.22, 56788.38, 53528.25, 27675.57, 0.00, 0.00, 0.00, 0.00
230, 48723.14, 52615.94, 33171.80, 37219.81, 57334.68, 54276.67, 27668.58, 0.00, 0.00, 0.00, 0.00
231, 48727.89, 52623.70, 33130.63, 37192.05, 57123.50, 54039.61, 27620.63, 0.00, 0.00, 0.00, 0.00
232, 48687.42, 52636.03, 33163.75, 37227.19, 56598.62, 53205.64, 27651.83, 0.00, 0.15, 0.93, 0.33
233, 48669.56, 52613.55, 33181.25, 37248.46, 56733.62, 53275.98, 27677.76, 0.00, 0.00, 0.00, 0.00
234, 48708.72, 52604.65, 33181.48, 37224.55, 57240.67, 53979.55, 27681.58, 0.00, 0.00, 0.00, 0.00
235, 48732.37, 52610.24, 33132.13, 37192.05, 57248.74, 54035.03, 27633.86, 0.00, 0.00, 0.00, 0.00
236, 48683.15, 52625.82, 33147.77, 37214.80, 56625.17, 53142.61, 27639.25, 0.00, 0.00, 0.00, 0.00
237, 48666.86, 52619.47, 33174.91, 37236.57, 56690.30, 53132.96, 27682.03, 0.00, 0.00, 0.00, 0.00
238, 48686.55, 52599.57, 33169.29, 37229.00, 57131.59, 53790.05, 27688.49, 0.00, 0.00, 0.00, 0.00
239, 48726.29, 52597.52, 33128.93, 37196.05, 57339.58, 54126.56, 27640.95, 0.00, 0.00, 0.00, 0.00
240, 48689.32, 52618.51, 33134.02, 37212.14, 56680.40, 53238.30, 27631.20, 0.00, 0.00, 0.00, 0.00
241, 48671.79, 52612.94, 33163.53, 37230.27, 56647.68, 53077.93, 27676.69, 0.00, 0.15, 0.94, 0.33
242, 48676.93, 52592.71, 33165.25, 37224.17, 57020.13, 53632.47, 27685.72, 0.00, 0.00, 0.00, 0.00
243, 48724.68, 52593.12, 33132.77, 37192.14, 57395.93, 54183.36, 27646.07, 0.00, 0.00, 0.00, 0.00
244, 48695.57, 52610.30, 33122.51, 37195.63, 56768.60, 53370.44, 27616.32, 0.00, 0.00, 0.00, 0.00
245, 48672.42, 52608.47, 33161.98, 37226.14, 56622.18, 53037.65, 27655.39, 0.00, 0.00, 0.00, 0.00
246, 48676.89, 52593.00, 33166.19, 37230.99, 56922.49, 53479.63, 27672.60, 0.00, 0.00, 0.00, 0.00
247, 48728.75, 52587.51, 33142.43, 37201.37, 57408.46, 54184.94, 27648.57, 0.00, 0.00, 0.00, 0.00
248, 48713.77, 52605.34, 33122.47, 37193.66, 56878.57, 53534.75, 27620.88, 0.00, 0.00, 0.00, 0.00
249, 48679.19, 52605.70, 33157.00, 37220.08, 56591.08, 53026.16, 27655.19, 0.00, 0.00, 0.00, 0.00
250, 48677.70, 52590.99, 33163.64, 37225.31, 56833.84, 53363.96, 27677.09, 0.00, 0.00, 0.00, 0.00
251, 48721.95, 52578.18, 33145.69, 37197.53, 57377.33, 54133.51, 27653.78, 0.00, 0.15, 0.93, 0.33
252, 48715.58, 52590.77, 33106.69, 37183.33, 57004.05, 53707.84, 27607.89, 0.00, 0.00, 0.00, 0.00
253, 48678.95, 52603.31, 33136.55, 37221.75, 56582.10, 53026.02, 27640.48, 0.00, 0.00, 0.00, 0.00
254, 48671.39, 52587.06, 33151.08, 37209.13, 56770.10, 53233.18, 27658.58, 0.00, 0.00, 0.00, 0.00
255, 48707.45, 52567.14, 33141.54, 37199.23, 57307.90, 54001.66, 27654.29, 0.00, 0.00, 0.00, 0.00
0, 48723.40, 52577.52, 33103.63, 37175.20, 57142.61, 53846.89, 27619.74, 0.00, 0.00, 0.00, 0.00
1, 48684.24, 52595.02, 33128.21, 37198.20, 56599.18, 53045.61, 27634.18, 0.00, 0.00, 0.00, 0.00
2, 48675.48, 52588.80, 33151.97, 37210.78, 56719.18, 53141.45, 27662.72, 0.00, 0.00, 0.00, 0.00
3, 48700.85, 52574.05, 33140.95, 37202.24, 57208.26, 53859.79, 27661.06, 0.00, 0.00, 0.00, 0.00
4, 48734.09, 52583.24, 33097.32, 37175.24, 57256.02, 53998.26, 27615.38, 0.00, 0.00, 0.00, 0.00
5, 48696.36, 52598.01, 33117.89, 37186.80, 56628.72, 53117.20, 27616.32, 0.00, 0.15, 0.92, 0.32
6, 48680.46, 52587.19, 33139.97, 37207.92, 56674.77, 53080.43, 27661.91, 0.00, 0.00, 0.00, 0.00
7, 48701.05, 52572.11, 33139.23, 37203.70, 57099.92, 53715.24, 27683.69, 0.00, 0.00, 0.00, 0.00
8, 48749.78, 52575.86, 33105.75, 37168.56, 57350.28, 54102.06, 27635.09, 0.00, 0.00, 0.00, 0.00
9, 48716.05, 52594.05, 33114.85, 37182.48, 56704.30, 53233.11, 27631.65, 0.00, 0.00, 0.00, 0.00
10, 48686.66, 52577.07, 33140.71, 37193.84, 56648.84, 53017.71, 27653.64, 0.00, 0.00, 0.00, 0.00
11, 48712.86, 52573.13, 33145.71, 37193.95, 56995.38, 53529.88, 27664.26, 0.00, 0.00, 0.00, 0.00
12, 48752.39, 52562.09, 33111.00, 37160.78, 57404.33, 54129.39, 27643.90, 0.00, 0.00, 0.00, 0.00
13, 48687.64, 52550.96, 33097.21, 37163.17, 56804.14, 53354.37, 27631.58, 0.00, 0.00, 0.00, 0.00
14, 48638.24, 52530.87, 33131.23, 37193.50, 56627.65, 52982.37, 27657.94, 0.00, 0.00, 0.00, 0.00
15, 48620.36, 52492.87, 33132.37, 37186.51, 56908.59, 53390.02, 27666.50, 0.00, 0.15, 0.90, 0.33
16, 48652.64, 52472.08, 33109.97, 37153.70, 57403.95, 54092.80, 27643.61, 0.00, 0.00, 0.00, 0.00
17, 48614.06, 52468.21, 33082.91, 37149.96, 56909.84, 53480.75, 27618.22, 0.00, 0.00, 0.00, 0.00
18, 48565.67, 52455.36, 33115.81, 37156.93, 56602.24, 52926.74, 27657.47, 0.00, 0.00, 0.00, 0.00
19, 48541.13, 52435.07, 33117.86, 37183.36, 56827.50, 53230.25, 27674.57, 0.00, 0.00, 0.00, 0.00
20, 48568.75, 52414.64, 33091.80, 37152.35, 57361.86, 54014.46, 27654.22, 0.00, 0.00, 0.00, 0.00
21, 48549.39, 52409.43, 33053.89, 37105.93, 57033.00, 53675.21, 27608.18, 0.00, 0.00, 0.00, 0.00
22, 48495.77, 52403.71, 33088.05, 37138.65, 56585.81, 53015.41, 27633.46, 0.00, 0.00, 0.00, 0.00
23, 48482.50, 52388.53, 33101.39, 37149.87, 56748.71, 53226.18, 27655.32, 0.00, 0.00, 0.00, 0.00
24, 48522.91, 52381.18, 33095.80, 37148.02, 57273.23, 54017.05, 27654.92, 0.00, 0.16, 0.89, 0.33
25, 48542.87, 52391.68, 33051.23, 37109.10, 57155.60, 53968.46, 27605.97, 0.00, 0.00, 0.00, 0.00
26, 48507.06, 52419.82, 33082.05, 37134.49, 56593.81, 53163.29, 27624.14, 0.00, 0.00, 0.00, 0.00
27, 48502.28, 52415.46, 33106.46, 37158.79, 56698.39, 53236.67, 27657.22, 0.00, 0.00, 0.00, 0.00
28, 48534.11, 52395.35, 33096.09, 37141.47, 57166.77, 53918.62, 27651.79, 0.00, 0.00, 0.00, 0.00
29, 48582.21, 52411.31, 33057.36, 37104.52, 57260.43, 54097.32, 27604.22, 0.00, 0.00, 0.00, 0.00
30, 48547.68, 52436.27, 33073.68, 37125.15, 56624.32, 53212.37, 27605.28, 0.00, 0.00, 0.00, 0.00
31, 48529.61, 52426.93, 33097.77, 37144.13, 56652.33, 53123.12, 27632.39, 0.00, 0.00, 0.00, 0.00
32, 48551.45, 52415.64, 33100.12, 37143.19, 57087.31, 53719.42, 27637.51, 0.00, 0.00, 0.00, 0.00
33, 48599.75, 52414.97, 33064.69, 37107.56, 57381.91, 54144.24, 27592.11, 0.00, 0.00, 0.00, 0.00
34, 48567.39, 52433.91, 33062.39, 37108.75, 56735.07, 53276.52, 27574.65, 0.00, 0.15, 0.93, 0.33
35, 48548.28, 52436.39, 33099.78, 37139.55, 56656.66, 53037.80, 27616.27, 0.00, 0.00, 0.00, 0.00
36, 48559.18, 52421.95, 33105.30, 37150.23, 56994.29, 53534.59, 27628.72, 0.00, 0.00, 0.00, 0.00
37, 48605.66, 52413.01, 33073.94, 37124.70, 57420.76, 54142.74, 27586.61, 0.00, 0.00, 0.00, 0.00
38, 48581.74, 52429.25, 33061.25, 37099.63, 56832.97, 53380.01, 27579.57, 0.00, 0.00, 0.00, 0.00
39, 48557.93, 52435.74, 33100.23, 37134.47, 56633.98, 52973.43, 27619.89, 0.00, 0.00, 0.00, 0.00
40, 48566.72, 52426.77, 33103.45, 37147.28, 56903.94, 53364.07, 27629.35, 0.00, 0.00, 0.00, 0.00
41, 48628.99, 52432.03, 33096.56, 37139.41, 57418.75, 54097.99, 27604.72, 0.00, 0.00, 0.00, 0.00
42, 48627.00, 52451.92, 33072.02, 37130.25, 56957.45, 53538.42, 27560.55, 0.00, 0.00, 0.00, 0.00
43, 48593.27, 52457.89, 33098.48, 37156.06, 56611.98, 52967.22, 27591.75, 0.00, 0.00, 0.00, 0.00
44, 48579.23, 52440.95, 33097.16, 37152.98, 56824.86, 53242.70, 27603.82, 0.00, 0.14, 0.96, 0.33
45, 48626.49, 52432.47, 33087.55, 37131.25, 57356.61, 53986.08, 27577.16, 0.00, 0.00, 0.00, 0.00
46, 48640.70, 52449.66, 33059.48, 37115.65, 57075.85, 53670.74, 27546.65, 0.00, 0.00, 0.00, 0.00
47, 48596.29, 52459.90, 33088.76, 37146.12, 56602.84, 52946.88, 27569.96, 0.00, 0.00, 0.00, 0.00
48, 48576.62, 52436.83, 33099.80, 37141.91, 56755.52, 53101.77, 27589.45, 0.00, 0.00, 0.00, 0.00
49, 48610.04, 52420.00, 33089.01, 37118.91, 57276.66, 53841.33, 27595.37, 0.00, 0.00, 0.00, 0.00
50, 48629.57, 52415.46, 33044.37, 37085.05, 57195.96, 53793.72, 27544.57, 0.00, 0.00, 0.00, 0.00
51, 48595.29, 52430.04, 33081.81, 37113.19, 56622.04, 52963.46, 27563.70, 0.00, 0.00, 0.00, 0.00
52, 48586.45, 52424.63, 33098.86, 37135.48, 56719.52, 53012.10, 27601.32, 0.00, 0.00, 0.00, 0.00
53, 48607.15, 52408.58, 33084.34, 37121.53, 57172.05, 53680.80, 27604.16, 0.00, 0.00, 0.00, 0.00
54, 48639.07, 52411.02, 33045.82, 37081.01, 57298.83, 53905.57, 27547.67, 0.00, 0.13, 0.95, 0.31
55, 48606.53, 52425.93, 33061.61, 37120.03, 56657.63, 53030.27, 27553.69, 0.00, 0.00, 0.00, 0.00
56, 48587.91, 52413.68, 33089.25, 37129.84, 56663.41, 52923.03, 27594.77, 0.00, 0.00, 0.00, 0.00
57, 48604.09, 52399.75, 33091.87, 37125.84, 57058.95, 53507.64, 27607.67, 0.00, 0.00, 0.00, 0.00
58, 48658.43, 52407.55, 33062.03, 37102.51, 57379.61, 53981.03, 27572.62, 0.00, 0.00, 0.00, 0.00
59, 48628.43, 52433.35, 33058.81, 37113.98, 56737.31, 53142.14, 27567.43, 0.00, 0.00, 0.00, 0.00
60, 48598.61, 52419.31, 33086.84, 37130.40, 56625.08, 52864.38, 27598.95, 0.00, 0.00, 0.00, 0.00
61, 48605.10, 52401.79, 33083.57, 37129.24, 56942.59, 53332.63, 27598.44, 0.00, 0.00, 0.00, 0.00
62, 48660.62, 52402.28, 33059.73, 37106.15, 57394.88, 53973.29, 27572.17, 0.00, 0.00, 0.00, 0.00
63, 48646.69, 52423.20, 33044.55, 37105.17, 56825.69, 53258.95, 27550.47, 0.00, 0.00, 0.00, 0.00
64, 48615.80, 52418.44, 33077.81, 37134.81, 56589.99, 52819.38, 27581.58, 0.00, 0.13, 0.94, 0.31
65, 48603.51, 52398.14, 33075.39, 37134.61, 56847.46, 53187.98, 27592.94, 0.00, 0.00, 0.00, 0.00
66, 48655.25, 52398.48, 33061.76, 37114.15, 57374.42, 53926.35, 27577.27, 0.00, 0.00, 0.00, 0.00
67, 48644.91, 52410.46, 33033.06, 37100.36, 56946.23, 53412.49, 27557.04, 0.00, 0.00, 0.00, 0.00
68, 48606.35, 52403.64, 33070.93, 37132.01, 56576.71, 52802.71, 27588.91, 0.00, 0.00, 0.00, 0.00
69, 48599.57, 52388.44, 33077.43, 37142.59, 56785.23, 53070.17, 27606.04, 0.00, 0.00, 0.00, 0.00
70, 48641.55, 52374.11, 33063.62, 37121.95, 57325.67, 53835.88, 27596.65, 0.00, 0.00, 0.00, 0.00
71, 48648.12, 52382.74, 33026.40, 37078.82, 57081.35, 53572.19, 27549.33, 0.00, 0.00, 0.00, 0.00
72, 48609.50, 52398.30, 33054.07, 37108.10, 56578.07, 52805.73, 27563.37, 0.00, 0.00, 0.00, 0.00
73, 48595.89, 52387.86, 33066.23, 37134.38, 56724.14, 52943.88, 27592.91, 0.00, 0.14, 0.94, 0.31
74, 48626.51, 52370.63, 33063.41, 37109.28, 57236.42, 53677.15, 27597.47, 0.00, 0.00, 0.00, 0.00
75, 48654.02, 52378.90, 33024.34, 37067.19, 57203.45, 53694.83, 27549.17, 0.00, 0.00, 0.00, 0.00
76, 48611.09, 52393.34, 33047.52, 37092.70, 56601.34, 52842.85, 27561.80, 0.00, 0.00, 0.00, 0.00
77, 48597.59, 52381.65, 33073.34, 37112.90, 56677.14, 52857.52, 27597.50, 0.00, 0.00, 0.00, 0.00
78, 48627.43, 52374.58, 33080.71, 37122.07, 57138.84, 53530.82, 27614.28, 0.00, 0.00, 0.00, 0.00
79, 48661.51, 52376.57, 33034.43, 37088.56, 57312.78, 53819.73, 27566.67, 0.00, 0.00, 0.00, 0.00
80, 48612.38, 52375.14, 33029.13, 37091.27, 56653.73, 52933.18, 27546.74, 0.00, 0.00, 0.00, 0.00
81, 48594.34, 52368.70, 33058.36, 37109.68, 56636.14, 52790.08, 27570.07, 0.00, 0.00, 0.00, 0.00
82, 48611.09, 52361.20, 33060.89, 37116.16, 57024.39, 53361.35, 27592.96, 0.00, 0.00, 0.00, 0.00
83, 48656.71, 52360.05, 33029.73, 37082.62, 57373.68, 53880.18, 27567.41, 0.00, 0.14, 0.94, 0.30
84, 48626.57, 52379.55, 33029.57, 37089.81, 56745.11, 53068.61, 27556.46, 0.00, 0.00, 0.00, 0.00
85, 48598.03, 52375.01, 33063.04, 37114.09, 56617.44, 52758.05, 27589.34, 0.00, 0.00, 0.00, 0.00
86, 48605.74, 52364.52, 33064.09, 37121.89, 56930.47, 53216.68, 27602.44, 0.00, 0.00, 0.00, 0.00
87, 48656.86, 52353.24, 33040.48, 37093.01, 57398.90, 53891.93, 27577.94, 0.00, 0.00, 0.00, 0.00
88, 48640.90, 52378.43, 33030.49, 37090.68, 56851.68, 53209.80, 27551.74, 0.00, 0.00, 0.00, 0.00
89, 48606.30, 52380.84, 33065.56, 37119.94, 56590.97, 52730.09, 27578.63, 0.00, 0.00, 0.00, 0.00
90, 48599.71, 52366.74, 33065.36, 37124.12, 56841.07, 53079.58, 27593.43, 0.00, 0.00, 0.00, 0.00
91, 48651.66, 52359.32, 33050.23, 37103.13, 57373.55, 53834.13, 27586.63, 0.00, 0.00, 0.00, 0.00
92, 48655.10, 52374.63, 33023.88, 37084.63, 56974.91, 53362.31, 27548.46, 0.00, 0.00, 0.00, 0.00
93, 48621.70, 52379.28, 33061.00, 37115.99, 56577.20, 52717.84, 27569.74, 0.00, 0.15, 0.94, 0.30
94, 48599.64, 52355.92, 33066.99, 37131.25, 56769.23, 52956.42, 27597.01, 0.00, 0.00, 0.00, 0.00
95, 48626.71, 52332.61, 33057.51, 37126.85, 57307.48, 53724.41, 27585.65, 0.00, 0.00, 0.00, 0.00
96, 48639.96, 52347.07, 33021.30, 37094.77, 57102.54, 53511.89, 27528.61, 0.00, 0.00, 0.00, 0.00
97, 48593.09, 52358.51, 33051.88, 37123.86, 56584.76, 52736.30, 27555.63, 0.00, 0.00, 0.00, 0.00
98, 48581.14, 52340.96, 33062.97, 37115.36, 56715.23, 52854.41, 27579.21, 0.00, 0.00, 0.00, 0.00
99, 48617.21, 52329.59, 33061.94, 37104.77, 57212.98, 53575.61, 27576.78, 0.00, 0.00, 0.00, 0.00
100, 48647.63, 52341.82, 33023.23, 37076.78, 57222.57, 53651.27, 27523.78, 0.00, 0.00, 0.00, 0.00
101, 48613.66, 52367.09, 33040.59, 37101.68, 56605.21, 52784.22, 27528.72, 0.00, 0.00, 0.00, 0.00
102, 48593.23, 52351.00, 33062.14, 37120.17, 56663.10, 52760.64, 27570.85, 0.00, 0.00, 0.00, 0.00
103, 48612.72, 52333.55, 33061.09, 37121.20, 57101.53, 53405.38, 27578.10, 0.00, 0.14, 0.94, 0.30
104, 48654.14, 52337.75, 33027.47, 37085.63, 57318.54, 53742.38, 27536.03, 0.00, 0.00, 0.00, 0.00
105, 48616.85, 52354.58, 33033.11, 37096.03, 56659.59, 52859.84, 27511.26, 0.00, 0.00, 0.00, 0.00
106, 48591.57, 52345.75, 33053.45, 37119.21, 56622.44, 52703.36, 27555.45, 0.00, 0.00, 0.00, 0.00
107, 48600.13, 52328.43, 33053.49, 37121.53, 56993.13, 53251.20, 27579.84, 0.00, 0.00, 0.00, 0.00
108, 48651.05, 52329.05, 33029.98, 37097.64, 57376.55, 53807.93, 27556.91, 0.00, 0.00, 0.00, 0.00
109, 48622.15, 52351.76, 33023.88, 37100.25, 56758.54, 53007.25, 27537.93, 0.00, 0.00, 0.00, 0.00
110, 48595.57, 52353.10, 33055.32, 37125.33, 56603.76, 52670.52, 27574.88, 0.00, 0.00, 0.00, 0.00
111, 48596.74, 52336.70, 33057.49, 37127.61, 56898.62, 53106.04, 27591.57, 0.00, 0.00, 0.00, 0.00
112, 48643.07, 52330.15, 33035.68, 37099.67, 57379.83, 53797.16, 27559.54, 0.00, 0.00, 0.00, 0.00
113, 48626.33, 52352.50, 33014.91, 37090.28, 56857.72, 53152.85, 27524.23, 0.00, 0.13, 0.93, 0.31
114, 48594.55, 52358.82, 33044.77, 37116.55, 56569.94, 52644.68, 27556.04, 0.00, 0.00, 0.00, 0.00
115, 48590.03, 52342.38, 33046.92, 37118.60, 56803.11, 52971.24, 27566.94, 0.00, 0.00, 0.00, 0.00
116, 48638.76, 52328.85, 33041.35, 37104.72, 57341.25, 53736.34, 27554.25, 0.00, 0.00, 0.00, 0.00
117, 48640.03, 52344.27, 33012.05, 37085.48, 56982.06, 53317.60, 27523.02, 0.00, 0.00, 0.00, 0.00
118, 48595.44, 52351.79, 33042.38, 37107.65, 56554.74, 52639.94, 27550.04, 0.00, 0.00, 0.00, 0.00
119, 48585.65, 52342.00, 33052.89, 37117.17, 56735.16, 52851.50, 27574.03, 0.00, 0.00, 0.00, 0.00
120, 48626.17, 52327.46, 33045.38, 37103.00, 57274.42, 53614.08, 27576.29, 0.00, 0.00, 0.00, 0.00
121, 48642.18, 52334.02, 33005.34, 37080.58, 57116.17, 53463.54, 27527.49, 0.00, 0.00, 0.00, 0.00
122, 48602.75, 52350.36, 33028.25, 37128.13, 56571.21, 52671.97, 27546.67, 0.00, 0.13, 0.93, 0.31
123, 48589.76, 52339.91, 33045.73, 37138.29, 56689.23, 52767.41, 27574.68, 0.00, 0.00, 0.00, 0.00
124, 48616.45, 52324.89, 33044.28, 37111.54, 57178.26, 53479.05, 27575.35, 0.00, 0.00, 0.00, 0.00
125, 48643.21, 52331.11, 33005.99, 37053.76, 57229.43, 53605.32, 27526.22, 0.00, 0.00, 0.00, 0.00
126, 48597.32, 52343.80, 33022.89, 37084.88, 56602.84, 52741.11, 27547.00, 0.00, 0.00, 0.00, 0.00
127, 48575.48, 52325.28, 33038.54, 37105.44, 56638.52, 52696.34, 27572.31, 0.00, 0.00, 0.00, 0.00
128, 48600.04, 52316.38, 33039.32, 37106.27, 57055.89, 53318.59, 27571.75, 0.00, 0.00, 0.00, 0.00
129, 48644.34, 52317.23, 33004.23, 37072.07, 57316.73, 53714.86, 27549.33, 0.00, 0.00, 0.00, 0.00
130, 48604.40, 52343.43, 33005.32, 37083.46, 56666.63, 52850.68, 27549.22, 0.00, 0.00, 0.00, 0.00
131, 48574.12, 52333.21, 33030.94, 37104.05, 56602.93, 52642.98, 27573.29, 0.00, 0.00, 0.00, 0.00
132, 48580.57, 52311.51, 33036.86, 37109.53, 56959.98, 53176.00, 27596.49, 0.00, 0.13, 0.94, 0.30
133, 48631.94, 52310.59, 33007.69, 37081.81, 57371.96, 53777.54, 27573.42, 0.00, 0.00, 0.00, 0.00
134, 48601.74, 52328.23, 32991.09, 37078.44, 56759.13, 53000.75, 27545.37, 0.00, 0.00, 0.00, 0.00
135, 48568.57, 52325.12, 33022.49, 37103.69, 56576.55, 52627.09, 27573.38, 0.00, 0.00, 0.00, 0.00
136, 48570.63, 52311.86, 33034.20, 37108.52, 56861.96, 53032.66, 27593.88, 0.00, 0.00, 0.00, 0.00
137, 48630.02, 52313.09, 33018.80, 37082.62, 57371.70, 53759.45, 27570.56, 0.00, 0.00, 0.00, 0.00
138, 48616.03, 52329.59, 32985.63, 37068.80, 56875.60, 53163.58, 27534.62, 0.00, 0.00, 0.00, 0.00
139, 48568.80, 52327.31, 33020.92, 37101.10, 56561.51, 52615.89, 27575.10, 0.00, 0.00, 0.00, 0.00
140, 48549.46, 52302.50, 33024.21, 37099.94, 56789.54, 52923.25, 27589.45, 0.00, 0.00, 0.00, 0.00
141, 48589.74, 52290.07, 33008.68, 37078.48, 57327.46, 53693.87, 27572.93, 0.00, 0.00, 0.00, 0.00
142, 48591.39, 52303.01, 32977.07, 37056.57, 57000.61, 53327.84, 27526.26, 0.00, 0.13, 0.92, 0.31
143, 48559.21, 52324.45, 33014.82, 37099.63, 56551.77, 52628.36, 27555.95, 0.00, 0.00, 0.00, 0.00
144, 48548.88, 52313.12, 33027.50, 37117.37, 56726.31, 52826.89, 27583.42, 0.00, 0.00, 0.00, 0.00
145, 48585.63, 52296.82, 33017.95, 37076.69, 57254.73, 53582.74, 27576.73, 0.00, 0.00, 0.00, 0.00
146, 48605.45, 52302.34, 32978.39, 37051.77, 57134.32, 53490.98, 27534.64, 0.00, 0.00, 0.00, 0.00
147, 48558.29, 52309.54, 32998.08, 37075.98, 56569.65, 52675.19, 27550.16, 0.00, 0.00, 0.00, 0.00
148, 48548.01, 52299.86, 33015.43, 37093.72, 56674.43, 52745.38, 27582.07, 0.00, 0.00, 0.00, 0.00
149, 48580.40, 52294.23, 33018.42, 37092.41, 57151.38, 53437.74, 27583.04, 0.00, 0.00, 0.00, 0.00
150, 48609.25, 52297.67, 32976.46, 37051.39, 57244.74, 53627.24, 27527.80, 0.00, 0.00, 0.00, 0.00
151, 48573.40, 52319.02, 32997.21, 37070.55, 56611.00, 52753.45, 27537.39, 0.00, 0.00, 0.00, 0.00
152, 48554.98, 52309.56, 33022.06, 37087.42, 56633.93, 52678.90, 27563.21, 0.00, 0.14, 0.93, 0.31
153, 48571.43, 52291.03, 33018.91, 37081.61, 57039.19, 53280.43, 27563.34, 0.00, 0.00, 0.00, 0.00
154, 48613.97, 52292.20, 32984.18, 37048.30, 57328.11, 53712.71, 27528.92, 0.00, 0.00, 0.00, 0.00
155, 48577.16, 52317.32, 32988.74, 37064.96, 56679.39, 52857.38, 27527.74, 0.00, 0.00, 0.00, 0.00
156, 48553.04, 52315.22, 33022.00, 37088.18, 56596.09, 52623.56, 27552.08, 0.00, 0.00, 0.00, 0.00
157, 48554.43, 52292.44, 33020.75, 37083.91, 56930.18, 53127.48, 27557.31, 0.00, 0.00, 0.00, 0.00
158, 48604.83, 52286.18, 32990.93, 37050.99, 57363.96, 53760.95, 27538.58, 0.00, 0.00, 0.00, 0.00
159, 48584.27, 52307.86, 32975.80, 37048.35, 56772.45, 53008.48, 27517.21, 0.00, 0.00, 0.00, 0.00
160, 48554.60, 52310.88, 33008.03, 37076.13, 56565.36, 52601.48, 27545.35, 0.00, 0.00, 0.00, 0.00
161, 48555.43, 52300.13, 33013.14, 37079.33, 56837.98, 52990.20, 27561.02, 0.00, 0.14, 0.92, 0.31
162, 48604.40, 52293.22, 32995.55, 37059.30, 57356.95, 53727.82, 27550.71, 0.00, 0.00, 0.00, 0.00
163, 48589.54, 52297.36, 32968.22, 37041.49, 56890.84, 53169.34, 27508.83, 0.00, 0.00, 0.00, 0.00
164, 48556.64, 52302.66, 33005.75, 37072.51, 56549.66, 52589.05, 27533.30, 0.00, 0.00, 0.00, 0.00
165, 48550.63, 52288.84, 33012.59, 37079.51, 56764.69, 52874.68, 27553.75, 0.00, 0.00, 0.00, 0.00
166, 48599.53, 52281.49, 33005.81, 37059.97, 57305.42, 53648.97, 27544.84, 0.00, 0.00, 0.00, 0.00
167, 48606.44, 52295.48, 32977.02, 37032.55, 57018.43, 53330.32, 27496.56, 0.00, 0.00, 0.00, 0.00
168, 48564.55, 52311.66, 33001.88, 37061.49, 56543.52, 52599.20, 27518.97, 0.00, 0.00, 0.00, 0.00
169, 48546.07, 52290.83, 32998.26, 37068.22, 56693.99, 52771.21, 27544.05, 0.00, 0.00, 0.00, 0.00
170, 48582.14, 52274.00, 32995.20, 37060.11, 57212.64, 53522.01, 27541.91, 0.00, 0.00, 0.00, 0.00
171, 48611.22, 52285.47, 32966.23, 37034.76, 57139.68, 53489.13, 27500.04, 0.00, 0.14, 0.93, 0.31
172, 48563.93, 52298.45, 32981.00, 37052.46, 56554.25, 52646.34, 27511.60, 0.00, 0.00, 0.00, 0.00
173, 48542.98, 52285.24, 32999.06, 37073.23, 56643.81, 52687.17, 27540.07, 0.00, 0.00, 0.00, 0.00
174, 48569.40, 52273.00, 33002.46, 37052.84, 57112.30, 53366.38, 27547.38, 0.00, 0.00, 0.00, 0.00
175, 48607.75, 52280.32, 32963.30, 37023.85, 57242.73, 53603.13, 27501.16, 0.00, 0.00, 0.00, 0.00
176, 48570.29, 52301.36, 32975.97, 37042.45, 56595.04, 52726.24, 27502.21, 0.00, 0.00, 0.00, 0.00
177, 48549.29, 52292.75, 33000.14, 37060.15, 56603.98, 52632.05, 27537.06, 0.00, 0.00, 0.00, 0.00
178, 48567.46, 52280.13, 32999.06, 37065.02, 57004.46, 53225.13, 27547.03, 0.00, 0.00, 0.00, 0.00
179, 48611.15, 52274.89, 32961.98, 37027.34, 57314.65, 53700.76, 27507.98, 0.00, 0.00, 0.00, 0.00
180, 48575.66, 52293.60, 32958.74, 37031.50, 56669.83, 52856.69, 27498.93, 0.00, 0.00, 0.00, 0.00
181, 48544.90, 52286.00, 32990.97, 37052.89, 56572.24, 52590.30, 27531.00, 0.00, 0.15, 0.93, 0.31
182, 48551.63, 52267.70, 32991.31, 37054.34, 56896.00, 53072.52, 27540.23, 0.00, 0.00, 0.00, 0.00
183, 48600.25, 52261.26, 32963.93, 37023.38, 57349.86, 53730.57, 27516.14, 0.00, 0.00, 0.00, 0.00
184, 48580.02, 52282.27, 32948.75, 37022.73, 56772.91, 53004.16, 27493.36, 0.00, 0.00, 0.00, 0.00
185, 48546.33, 52287.64, 32979.39, 37048.51, 56537.04, 52561.36, 27512.07, 0.00, 0.00, 0.00, 0.00
186, 48546.56, 52270.80, 32986.88, 37058.61, 56800.90, 52938.83, 27525.19, 0.00, 0.00, 0.00, 0.00
187, 48598.88, 52258.73, 32974.90, 37040.84, 57340.45, 53709.07, 27535.31, 0.00, 0.00, 0.00, 0.00
188, 48584.38, 52270.80, 32935.61, 37018.04, 56902.46, 53194.11, 27504.25, 0.00, 0.00, 0.00, 0.00
189, 48542.24, 52274.09, 32968.87, 37046.29, 56529.15, 52582.59, 27530.55, 0.00, 0.00, 0.00, 0.00
190, 48535.31, 52259.09, 32977.05, 37050.30, 56731.32, 52844.06, 27538.67, 0.00, 0.00, 0.00, 0.00
191, 48581.31, 52248.95, 32966.79, 37034.78, 57271.29, 53615.60, 27525.75, 0.00, 0.14, 0.93, 0.31
192, 48589.79, 52266.65, 32929.68, 37019.25, 57028.62, 53363.87, 27490.28, 0.00, 0.00, 0.00, 0.00
193, 48550.85, 52285.11, 32963.50, 37054.68, 56533.53, 52618.89, 27521.26, 0.00, 0.00, 0.00, 0.00
194, 48539.40, 52272.14, 32978.30, 37066.75, 56681.30, 52765.49, 27546.33, 0.00, 0.00, 0.00, 0.00
195, 48572.75, 52261.33, 32971.35, 37065.16, 57193.51, 53503.79, 27534.35, 0.00, 0.00, 0.00, 0.00
196, 48600.87, 52269.98, 32935.61, 37033.13, 57150.39, 53514.01, 27481.69, 0.00, 0.00, 0.00, 0.00
197, 48566.79, 52289.96, 32966.45, 37039.14, 56554.36, 52663.88, 27507.49, 0.00, 0.00, 0.00, 0.00
198, 48551.34, 52280.75, 32982.81, 37062.23, 56637.51, 52685.54, 27540.34, 0.00, 0.00, 0.00, 0.00
199, 48570.65, 52257.10, 32978.50, 37055.14, 57089.35, 53351.76, 27541.57, 0.00, 0.00, 0.00, 0.00
200, 48606.10, 52255.23, 32940.79, 37018.33, 57258.35, 53643.94, 27499.42, 0.00, 0.00, 0.00, 0.00
201, 48570.76, 52273.42, 32956.33, 37036.17, 56607.94, 52765.67, 27501.88, 0.00, 0.15, 0.93, 0.30
202, 48546.73, 52262.24, 32986.79, 37055.97, 56598.30, 52634.04, 27533.68, 0.00, 0.00, 0.00, 0.00
203, 48553.55, 52244.27, 32979.73, 37048.89, 56982.95, 53208.24, 27541.91, 0.00, 0.00, 0.00, 0.00
204, 48596.78, 52238.13, 32943.54, 37013.13, 57331.38, 53723.20, 27502.77, 0.00, 0.00, 0.00, 0.00
205, 48565.42, 52259.18, 32934.73, 37011.94, 56688.78, 52883.31, 27483.88, 0.00, 0.00, 0.00, 0.00
206, 48540.63, 52257.68, 32967.95, 37034.87, 56563.08, 52579.77, 27523.13, 0.00, 0.00, 0.00, 0.00
207, 48550.31, 52248.59, 32975.35, 37036.55, 56879.89, 53041.05, 27537.88, 0.00, 0.00, 0.00, 0.00
208, 48599.42, 52241.61, 32946.31, 37004.56, 57350.77, 53718.26, 27506.26, 0.00, 0.00, 0.00, 0.00
209, 48578.50, 52258.06, 32930.06, 36994.73, 56794.24, 53034.94, 27478.29, 0.00, 0.00, 0.00, 0.00
210, 48546.98, 52259.45, 32965.16, 37017.48, 56538.16, 52558.20, 27508.69, 0.00, 0.15, 0.94, 0.30
211, 48549.13, 52249.14, 32966.86, 37023.99, 56786.53, 52912.99, 27524.74, 0.00, 0.00, 0.00, 0.00
212, 48601.54, 52242.75, 32960.80, 37007.80, 57322.86, 53685.09, 27521.59, 0.00, 0.00, 0.00, 0.00
213, 48595.95, 52252.30, 32928.75, 36986.05, 56920.04, 53211.37, 27480.37, 0.00, 0.00, 0.00, 0.00
214, 48553.64, 52257.26, 32957.04, 37010.80, 56520.41, 52562.27, 27509.43, 0.00, 0.00, 0.00, 0.00
215, 48545.35, 52245.61, 32965.11, 37018.49, 56714.55, 52807.20, 27531.67, 0.00, 0.00, 0.00, 0.00
216, 48586.68, 52232.20, 32952.59, 37004.90, 57253.68, 53583.12, 27516.72, 0.00, 0.00, 0.00, 0.00
217, 48593.92, 52241.03, 32908.56, 36965.11, 57038.54, 53371.36, 27469.22, 0.00, 0.00, 0.00, 0.00
218, 48551.99, 52250.20, 32937.33, 37003.65, 56516.20, 52595.31, 27495.13, 0.00, 0.00, 0.00, 0.00
219, 48540.23, 52238.24, 32949.31, 37019.45, 56651.07, 52719.45, 27519.02, 0.00, 0.00, 0.00, 0.00
220, 48572.33, 52229.41, 32947.10, 37020.75, 57156.58, 53454.29, 27527.80, 0.00, 0.14, 0.95, 0.30
221, 48605.59, 52238.06, 32907.76, 36961.52, 57167.80, 53545.48, 27489.02, 0.00, 0.00, 0.00, 0.00
222, 48568.82, 52258.38, 32930.29, 36994.89, 56548.48, 52684.11, 27496.78, 0.00, 0.00, 0.00, 0.00
223, 48549.80, 52252.14, 32949.13, 37018.85, 56605.46, 52670.45, 27509.03, 0.00, 0.00, 0.00, 0.00
224, 48575.10, 52242.95, 32949.69, 37026.65, 57046.86, 53331.24, 27520.43, 0.00, 0.00, 0.00, 0.00
225, 48629.14, 52255.11, 32922.64, 37001.64, 57268.95, 53691.44, 27494.52, 0.00, 0.00, 0.00, 0.00
226, 48590.52, 52275.41, 32927.67, 37013.68, 56604.47, 52805.14, 27478.99, 0.00, 0.00, 0.00, 0.00
227, 48564.97, 52261.91, 32947.16, 37023.85, 56561.54, 52626.51, 27501.90, 0.00, 0.00, 0.00, 0.00
228, 48573.96, 52244.77, 32943.81, 37019.92, 56926.40, 53174.73, 27514.57, 0.00, 0.00, 0.00, 0.00
229, 48621.95, 52247.52, 32910.89, 36992.32, 57305.31, 53737.35, 27482.99, 0.00, 0.00, 0.00, 0.00
230, 48586.16, 52264.64, 32894.75, 36988.47, 56672.89, 52929.29, 27456.08, 0.00, 0.15, 0.94, 0.30
231, 48554.67, 52253.82, 32924.70, 37005.75, 56516.32, 52585.29, 27493.36, 0.00, 0.00, 0.00, 0.00
232, 48559.41, 52233.28, 32927.18, 37005.86, 56815.59, 53024.75, 27512.09, 0.00, 0.00, 0.00, 0.00
233, 48609.07, 52225.50, 32901.83, 36976.18, 57307.37, 53731.20, 27480.64, 0.00, 0.00, 0.00, 0.00
234, 48595.66, 52246.29, 32881.85, 36966.77, 56784.70, 53091.00, 27450.15, 0.00, 0.00, 0.00, 0.00
235, 48559.92, 52248.61, 32920.07, 36997.72, 56501.61, 52580.40, 27493.72, 0.00, 0.00, 0.00, 0.00
236, 48555.50, 52232.47, 32924.75, 37005.66, 56739.88, 52914.49, 27520.38, 0.00, 0.00, 0.00, 0.00
237, 48604.09, 52224.04, 32911.36, 36987.51, 57282.07, 53695.41, 27503.75, 0.00, 0.00, 0.00, 0.00
238, 48597.12, 52234.91, 32875.46, 36964.15, 56916.61, 53277.93, 27456.28, 0.00, 0.00, 0.00, 0.00
239, 48553.87, 52242.53, 32910.37, 36988.18, 56489.50, 52595.06, 27487.48, 0.00, 0.00, 0.00, 0.00
240, 48546.49, 52226.82, 32923.58, 36999.94, 56671.62, 52814.33, 27518.30, 0.00, 0.15, 0.94, 0.30
241, 48585.11, 52212.85, 32915.31, 36986.93, 57212.98, 53593.63, 27516.70, 0.00, 0.00, 0.00, 0.00
242, 48599.69, 52220.11, 32871.88, 36951.21, 57048.47, 53447.02, 27463.77, 0.00, 0.00, 0.00, 0.00
243, 48556.66, 52231.58, 32897.32, 36976.47, 56499.38, 52640.97, 27480.37, 0.00, 0.00, 0.00, 0.00
244, 48540.14, 52220.67, 32913.46, 36990.53, 56620.86, 52736.21, 27503.11, 0.00, 0.00, 0.00, 0.00
245, 48570.43, 52208.75, 32913.55, 36985.88, 57115.54, 53454.66, 27513.03, 0.00, 0.00, 0.00, 0.00
246, 48597.81, 52210.52, 32873.36, 36953.40, 57171.20, 53593.65, 27473.36, 0.00, 0.00, 0.00, 0.00
247, 48559.21, 52230.35, 32894.35, 36976.22, 56538.60, 52713.86, 27480.91, 0.00, 0.00, 0.00, 0.00
248, 48541.01, 52216.31, 32920.16, 36989.21, 56584.80, 52663.57, 27515.82, 0.00, 0.00, 0.00, 0.00
249, 48559.16, 52197.82, 32923.61, 36988.11, 57016.13, 53292.01, 27518.46, 0.00, 0.14, 0.94, 0.31
250, 48598.01, 52193.22, 32878.88, 36955.73, 57268.68, 53700.80, 27477.38, 0.00, 0.00, 0.00, 0.00
251, 48562.92, 52215.82, 32886.48, 36963.21, 56613.19, 52827.50, 27476.80, 0.00, 0.00, 0.00, 0.00
252, 48545.68, 52214.72, 32919.60, 36986.48, 56561.60, 52622.29, 27513.10, 0.00, 0.00, 0.00, 0.00
253, 48553.15, 52201.09, 32916.50, 36997.34, 56910.31, 53153.90, 27519.13, 0.00, 0.00, 0.00, 0.00
254, 48599.02, 52194.70, 32886.77, 36972.15, 57314.59, 53756.12, 27478.52, 0.00, 0.00, 0.00, 0.00
255, 48576.62, 52218.90, 32878.52, 36954.74, 56703.60, 52969.45, 27463.30, 0.00, 0.00, 0.00, 0.00
0, 48552.37, 52219.42, 32913.50, 36987.31, 56533.39, 52607.60, 27517.97, 0.00, 0.00, 0.00, 0.00
1, 48550.82, 52198.38, 32915.94, 36988.47, 56826.22, 53034.92, 27537.50, 0.00, 0.00, 0.00, 0.00
2, 48602.44, 52197.82, 32895.82, 36966.18, 57328.45, 53766.85, 27513.39, 0.00, 0.00, 0.00, 0.00
3, 48594.01, 52219.91, 32876.24, 36959.46, 56828.48, 53163.13, 27486.21, 0.00, 0.15, 0.93, 0.30
4, 48555.61, 52218.50, 32911.98, 36987.09, 56516.07, 52612.00, 27513.70, 0.00, 0.00, 0.00, 0.00
5, 48547.85, 52199.77, 32918.48, 36989.90, 56747.30, 52927.57, 27529.95, 0.00, 0.00, 0.00, 0.00
6, 48596.51, 52192.57, 32905.61, 36971.89, 57288.61, 53708.07, 27511.49, 0.00, 0.00, 0.00, 0.00
7, 48595.48, 52203.64, 32860.73, 36947.77, 56958.30, 53341.05, 27462.98, 0.00, 0.00, 0.00, 0.00
8, 48555.90, 52216.15, 32895.20, 36980.29, 56506.64, 52636.03, 27490.83, 0.00, 0.00, 0.00, 0.00
9, 48541.91, 52194.68, 32905.19, 36987.13, 56679.51, 52832.41, 27514.91, 0.00, 0.00, 0.00, 0.00
10, 48580.02, 52181.87, 32902.79, 36978.12, 57207.03, 53596.84, 27512.72, 0.00, 0.00, 0.00, 0.00
11, 48600.60, 52194.34, 32864.82, 36950.63, 57093.15, 53514.25, 27464.12, 0.00, 0.00, 0.00, 0.00
12, 48559.59, 52212.55, 32888.85, 36973.58, 56520.25, 52684.25, 27480.08, 0.00, 0.00, 0.00, 0.00
13, 48545.91, 52196.29, 32908.20, 36986.91, 56624.34, 52748.50, 27501.50, 0.00, 0.15, 0.93, 0.30
14, 48580.96, 52183.57, 32912.52, 36989.68, 57105.20, 53454.93, 27511.29, 0.00, 0.00, 0.00, 0.00
15, 48615.38, 52190.07, 32873.87, 36954.83, 57206.23, 53654.38, 27467.57, 0.00, 0.00, 0.00, 0.00
16, 48573.11, 52210.84, 32888.38, 36970.99, 56563.61, 52769.20, 27467.34, 0.00, 0.00, 0.00, 0.00
17, 48557.33, 52202.23, 32909.39, 36994.17, 56588.31, 52696.31, 27507.75, 0.00, 0.00, 0.00, 0.00
18, 48574.41, 52183.83, 32906.82, 36992.11, 56994.27, 53301.67, 27509.03, 0.00, 0.00, 0.00, 0.00
19, 48617.03, 52182.94, 32876.02, 36963.55, 57275.67, 53745.73, 27466.56, 0.00, 0.00, 0.00, 0.00
20, 48577.49, 52199.39, 32875.70, 36960.15, 56621.91, 52881.27, 27455.70, 0.00, 0.00, 0.00, 0.00
21, 48557.51, 52200.69, 32906.19, 36989.10, 56544.86, 52641.13, 27489.49, 0.00, 0.00, 0.00, 0.00
22, 48565.20, 52193.82, 32910.71, 37000.16, 56888.90, 53149.74, 27514.15, 0.00, 0.00, 0.00, 0.00
23, 48611.09, 52185.11, 32881.14, 36970.12, 57320.78, 53782.74, 27486.45, 0.00, 0.14, 0.94, 0.30
24, 48582.50, 52196.71, 32861.55, 36958.45, 56716.84, 53025.15, 27447.00, 0.00, 0.00, 0.00, 0.00
25, 48550.65, 52193.94, 32901.07, 36986.79, 56509.63, 52607.20, 27474.27, 0.00, 0.00, 0.00, 0.00
26, 48551.63, 52177.57, 32903.42, 37006.24, 56786.19, 53002.15, 27495.95, 0.00, 0.00, 0.00, 0.00
27, 48599.20, 52166.38, 32881.32, 36969.67, 57300.04, 53741.21, 27483.53, 0.00, 0.00, 0.00, 0.00
28, 48592.55, 52188.44, 32860.62, 36954.83, 56837.00, 53186.33, 27460.84, 0.00, 0.00, 0.00, 0.00
29, 48559.03, 52199.03, 32896.52, 36983.39, 56496.25, 52605.63, 27494.23, 0.00, 0.00, 0.00, 0.00
30, 48555.21, 52180.93, 32903.42, 36999.60, 56714.51, 52899.22, 27518.93, 0.00, 0.00, 0.00, 0.00
31, 48600.49, 52166.00, 32892.78, 36985.65, 57256.09, 53677.69, 27507.89, 0.00, 0.00, 0.00, 0.00
32, 48592.85, 52169.84, 32855.25, 36952.33, 56974.75, 53368.05, 27461.04, 0.00, 0.00, 0.00, 0.00
33, 48546.63, 52181.46, 32886.32, 36982.77, 56496.78, 52637.42, 27485.36, 0.00, 0.14, 0.94, 0.30
34, 48537.44, 52170.38, 32898.50, 36992.79, 56655.10, 52808.88, 27508.89, 0.00, 0.00, 0.00, 0.00
35, 48575.08, 52155.87, 32893.90, 36982.23, 57175.36, 53559.98, 27501.52, 0.00, 0.00, 0.00, 0.00
36, 48599.53, 52166.54, 32857.91, 36950.32, 57100.03, 53531.29, 27451.72, 0.00, 0.00, 0.00, 0.00
37, 48553.87, 52179.54, 32875.53, 36968.29, 56511.89, 52684.42, 27463.43, 0.00, 0.00, 0.00, 0.00
38, 48540.07, 52170.11, 32892.85, 36983.46, 56605.25, 52719.45, 27498.48, 0.00, 0.00, 0.00, 0.00
39, 48569.89, 52160.32, 32897.83, 36982.03, 57070.15, 53404.89, 27506.90, 0.00, 0.00, 0.00, 0.00
40, 48603.22, 52158.17, 32847.59, 36945.60, 57204.86, 53656.99, 27460.01, 0.00, 0.00, 0.00, 0.00
41, 48560.23, 52173.39, 32849.24, 36963.32, 56551.36, 52771.71, 27458.83, 0.00, 0.00, 0.00, 0.00
42, 48541.19, 52167.29, 32882.75, 36989.34, 56554.96, 52659.16, 27487.59, 0.00, 0.14, 0.94, 0.30
43, 48557.02, 52158.02, 32889.16, 36993.79, 56953.00, 53249.88, 27512.63, 0.00, 0.00, 0.00, 0.00
44, 48591.55, 52147.04, 32848.66, 36952.17, 57273.35, 53740.23, 27469.89, 0.00, 0.00, 0.00, 0.00
45, 48560.97, 52163.45, 32849.87, 36951.75, 56628.46, 52894.15, 27455.88, 0.00, 0.00, 0.00, 0.00
46, 48533.10, 52155.25, 32877.47, 36972.94, 56526.69, 52621.32, 27488.60, 0.00, 0.00, 0.00, 0.00
47, 48536.72, 52143.73, 32874.52, 36980.47, 56845.83, 53102.04, 27498.08, 0.00, 0.00, 0.00, 0.00
48, 48587.89, 52137.86, 32850.65, 36956.98, 57298.00, 53762.74, 27469.71, 0.00, 0.00, 0.00, 0.00
49, 48566.14, 52157.77, 32836.39, 36949.71, 56725.39, 53044.06, 27437.84, 0.00, 0.00, 0.00, 0.00
50, 48539.70, 52161.46, 32875.23, 36987.29, 56497.52, 52600.92, 27484.20, 0.00, 0.00, 0.00, 0.00
51, 48535.83, 52142.50, 32876.91, 36993.45, 56761.65, 52970.95, 27498.01, 0.00, 0.00, 0.00, 0.00
52, 48586.79, 52133.30, 32861.04, 36951.50, 57282.27, 53720.94, 27474.52, 0.00, 0.14, 0.94, 0.31
53, 48576.08, 52144.65, 32833.23, 36942.18, 56854.12, 53220.11, 27453.10, 0.00, 0.00, 0.00, 0.00
54, 48536.99, 52154.29, 32871.52, 36980.09, 56483.06, 52604.89, 27484.67, 0.00, 0.00, 0.00, 0.00
55, 48528.52, 52139.53, 32881.27, 36981.83, 56687.51, 52867.30, 27498.34, 0.00, 0.00, 0.00, 0.00
56, 48569.07, 52117.18, 32870.43, 36953.89, 57232.63, 53646.38, 27486.07, 0.00, 0.00, 0.00, 0.00
57, 48576.82, 52126.97, 32831.05, 36926.27, 56988.77, 53393.18, 27446.02, 0.00, 0.00, 0.00, 0.00
58, 48532.81, 52140.83, 32858.72, 36953.11, 56491.33, 52636.34, 27472.17, 0.00, 0.00, 0.00, 0.00
59, 48519.29, 52129.99, 32871.28, 36968.06, 56636.46, 52775.51, 27497.67, 0.00, 0.00, 0.00, 0.00
60, 48553.20, 52114.30, 32871.57, 36964.40, 57143.33, 53521.43, 27502.66, 0.00, 0.00, 0.00, 0.00
61, 48578.41, 52115.82, 32830.60, 36927.79, 57113.24, 53559.92, 27452.66, 0.00, 0.00, 0.00, 0.00
62, 48534.31, 52134.53, 32853.51, 36948.35, 56507.71, 52702.24, 27451.65, 0.00, 0.15, 0.94, 0.31
63, 48519.76, 52124.04, 32871.03, 36963.23, 56578.90, 52709.90, 27477.20, 0.00, 0.00, 0.00, 0.00
64, 48547.38, 52112.11, 32870.07, 36962.95, 57028.04, 53374.09, 27499.73, 0.00, 0.00, 0.00, 0.00
65, 48587.57, 52121.09, 32838.58, 36932.86, 57205.40, 53673.53, 27458.76, 0.00, 0.00, 0.00, 0.00
66, 48546.22, 52139.89, 32851.77, 36951.39, 56556.75, 52793.97, 27454.83, 0.00, 0.00, 0.00, 0.00
67, 48526.42, 52131.78, 32874.72, 36968.96, 56544.05, 52650.23, 27484.58, 0.00, 0.00, 0.00, 0.00
68, 48538.76, 52113.74, 32871.99, 36960.80, 56920.57, 53210.70, 27495.73, 0.00, 0.00, 0.00, 0.00
69, 48587.13, 52113.76, 32842.11, 36925.24, 57276.54, 53742.82, 27463.63, 0.00, 0.00, 0.00, 0.00
70, 48557.35, 52130.48, 32837.57, 36926.29, 56643.39, 52920.50, 27445.13, 0.00, 0.00, 0.00, 0.00
71, 48527.09, 52127.57, 32868.08, 36949.45, 56513.57, 52614.86, 27476.48, 0.00, 0.00, 0.00, 0.00
72, 48529.48, 52114.23, 32871.79, 36955.03, 56825.82, 53074.06, 27489.49, 0.00, 0.15, 0.94, 0.30
73, 48580.15, 52102.85, 32846.63, 36927.83, 57301.33, 53758.38, 27460.44, 0.00, 0.00, 0.00, 0.00
74, 48555.72, 52111.37, 32827.36, 36925.44, 56749.13, 53077.37, 27425.57, 0.00, 0.00, 0.00, 0.00
75, 48525.93, 52117.36, 32867.46, 36956.91, 56489.20, 52597.30, 27465.82, 0.00, 0.00, 0.00, 0.00
76, 48525.32, 52107.99, 32870.50, 36948.01, 56742.20, 52947.39, 27493.34, 0.00, 0.00, 0.00, 0.00
77, 48570.50, 52095.28, 32845.46, 36929.11, 57271.85, 53715.11, 27469.20, 0.00, 0.00, 0.00, 0.00
78, 48569.64, 52114.16, 32813.63, 36918.66, 56871.04, 53262.33, 27434.84, 0.00, 0.00, 0.00, 0.00
79, 48534.98, 52128.09, 32850.34, 36949.06, 56473.42, 52617.37, 27470.16, 0.00, 0.00, 0.00, 0.00
80, 48523.13, 52114.16, 32856.46, 36952.66, 56667.32, 52850.30, 27489.43, 0.00, 0.00, 0.00, 0.00
81, 48567.10, 52101.67, 32852.17, 36941.46, 57199.86, 53620.94, 27483.46, 0.00, 0.00, 0.00, 0.00
82, 48575.99, 52106.95, 32813.54, 36908.25, 57002.09, 53432.11, 27432.83, 0.00, 0.15, 0.94, 0.31
83, 48530.75, 52121.34, 32840.48, 36938.78, 56475.77, 52650.23, 27453.33, 0.00, 0.00, 0.00, 0.00
84, 48524.09, 52120.27, 32859.81, 36961.47, 56610.13, 52767.73, 27488.69, 0.00, 0.00, 0.00, 0.00
85, 48555.27, 52102.05, 32854.45, 36948.91, 57108.84, 53494.45, 27491.46, 0.00, 0.00, 0.00, 0.00
86, 48582.50, 52103.41, 32804.87, 36913.37, 57122.77, 53591.21, 27434.49, 0.00, 0.00, 0.00, 0.00
87, 48545.77, 52128.98, 32828.97, 36941.24, 56502.32, 52724.84, 27444.81, 0.00, 0.00, 0.00, 0.00
88, 48530.06, 52118.05, 32855.99, 36962.25, 56563.86, 52704.43, 27474.25, 0.00, 0.00, 0.00, 0.00
89, 48545.62, 52102.27, 32847.32, 36954.61, 56999.09, 53347.42, 27483.35, 0.00, 0.00, 0.00, 0.00
90, 48582.10, 52097.64, 32805.50, 36913.48, 57217.56, 53704.33, 27443.90, 0.00, 0.00, 0.00, 0.00
91, 48546.58, 52116.33, 32817.34, 36936.95, 56563.64, 52826.80, 27440.70, 0.00, 0.15, 0.94, 0.30
92, 48525.75, 52112.73, 32853.33, 36955.90, 56528.99, 52646.74, 27476.42, 0.00, 0.00, 0.00, 0.00
93, 48536.57, 52098.96, 32854.76, 36950.43, 56894.15, 53184.30, 27494.01, 0.00, 0.00, 0.00, 0.00
94, 48582.81, 52085.66, 32819.58, 36911.71, 57271.54, 53757.51, 27451.72, 0.00, 0.00, 0.00, 0.00
95, 48553.60, 52101.22, 32811.73, 36911.78, 56641.75, 52960.29, 27430.39, 0.00, 0.00, 0.00, 0.00
96, 48528.81, 52108.62, 32850.18, 36940.86, 56495.66, 52620.25, 27477.85, 0.00, 0.00, 0.00, 0.00
97, 48527.67, 52092.84, 32849.75, 36945.40, 56794.06, 53055.84, 27484.78, 0.00, 0.00, 0.00, 0.00
98, 48573.91, 52078.42, 32821.43, 36925.55, 57283.68, 53764.77, 27456.95, 0.00, 0.00, 0.00, 0.00
99, 48559.36, 52096.95, 32800.02, 36904.38, 56762.63, 53127.05, 27432.81, 0.00, 0.00, 0.00, 0.00
100, 48526.39, 52095.99, 32840.72, 36923.43, 56477.45, 52610.95, 27463.54, 0.00, 0.00, 0.00, 0.00
101, 48524.27, 52083.72, 32848.55, 36939.00, 56710.87, 52931.48, 27483.57, 0.00, 0.15, 0.94, 0.30
102, 48570.05, 52075.25, 32834.96, 36919.29, 57253.79, 53709.47, 27477.98, 0.00, 0.00, 0.00, 0.00
103, 48570.88, 52089.64, 32803.11, 36901.99, 56894.11, 53307.43, 27432.27, 0.00, 0.00, 0.00, 0.00
104, 48528.88, 52087.39, 32836.16, 36933.44, 56466.41, 52624.81, 27457.35, 0.00, 0.00, 0.00, 0.00
105, 48524.36, 52075.92, 32856.93, 36952.24, 56650.70, 52842.05, 27490.70, 0.00, 0.00, 0.00, 0.00
106, 48568.13, 52076.05, 32851.68, 36949.62, 57188.07, 53625.97, 27497.09, 0.00, 0.00, 0.00, 0.00
107, 48577.45, 52080.23, 32792.20, 36908.56, 57020.82, 53497.25, 27439.80, 0.00, 0.00, 0.00, 0.00
108, 48529.05, 52084.17, 32814.44, 36925.89, 56463.25, 52688.51, 27458.80, 0.00, 0.00, 0.00, 0.00
109, 48513.88, 52071.25, 32833.80, 36939.16, 56583.89, 52770.25, 27485.83, 0.00, 0.00, 0.00, 0.00
110, 48546.07, 52064.01, 32834.84, 36930.87, 57072.23, 53479.07, 27488.67, 0.00, 0.00, 0.00, 0.00
111, 48579.75, 52068.99, 32794.10, 36893.95, 57133.98, 53632.63, 27435.11, 0.00, 0.15, 0.94, 0.30
112, 48538.29, 52088.57, 32810.62, 36914.80, 56501.16, 52757.80, 27444.16, 0.00, 0.00, 0.00, 0.00
113, 48521.28, 52074.94, 32835.49, 36938.22, 56543.21, 52709.73, 27484.46, 0.00, 0.00, 0.00, 0.00
114, 48538.58, 52054.53, 32832.77, 36927.67, 56962.19, 53329.72, 27477.56, 0.00, 0.00, 0.00, 0.00
115, 48581.96, 52055.22, 32797.63, 36881.41, 57222.65, 53735.89, 27434.82, 0.00, 0.00, 0.00, 0.00
116, 48545.06, 52077.21, 32802.66, 36894.73, 56568.84, 52868.38, 27438.31, 0.00, 0.00, 0.00, 0.00
117, 48526.04, 52075.61, 32831.61, 36923.02, 56510.21, 52656.98, 27467.01, 0.00, 0.00, 0.00, 0.00
118, 48533.64, 52056.83, 32830.20, 36924.84, 56859.42, 53170.42, 27476.64, 0.00, 0.00, 0.00, 0.00
119, 48584.73, 52049.41, 32802.21, 36896.29, 57267.38, 53776.71, 27440.32, 0.00, 0.00, 0.00, 0.00
120, 48559.75, 52069.75, 32790.61, 36895.51, 56654.07, 53007.90, 27423.49, 0.00, 0.00, 0.00, 0.00
121, 48525.86, 52070.76, 32825.43, 36937.64, 56478.32, 52634.76, 27466.07, 0.00, 0.15, 0.93, 0.30
122, 48527.16, 52057.34, 32830.75, 36925.37, 56762.43, 53046.41, 27487.79, 0.00, 0.00, 0.00, 0.00
123, 48574.00, 52045.57, 32805.79, 36892.07, 57269.35, 53776.60, 27463.90, 0.00, 0.00, 0.00, 0.00
124, 48557.06, 52057.48, 32776.89, 36876.64, 56773.29, 53182.66, 27419.96, 0.00, 0.00, 0.00, 0.00
125, 48525.59, 52064.99, 32816.81, 36909.41, 56454.18, 52627.32, 27457.82, 0.00, 0.00, 0.00, 0.00
126, 48525.90, 52057.41, 32824.90, 36923.54, 56681.27, 52934.09, 27486.30, 0.00, 0.00, 0.00, 0.00
127, 48571.34, 52047.80, 32809.07, 36908.65, 57218.74, 53714.88, 27466.85, 0.00, 0.00, 0.00, 0.00
128, 48572.57, 52065.32, 32771.75, 36882.43, 56897.84, 53363.02, 27418.44, 0.00, 0.00, 0.00, 0.00
129, 48532.21, 52081.13, 32800.91, 36908.34, 56439.38, 52649.55, 27450.76, 0.00, 0.00, 0.00, 0.00
130, 48521.21, 52064.23, 32815.22, 36916.68, 56615.98, 52841.22, 27487.08, 0.00, 0.15, 0.94, 0.30
131, 48559.52, 52047.76, 32810.97, 36915.31, 57137.34, 53598.97, 27482.72, 0.00, 0.00, 0.00, 0.00
132, 48578.45, 52051.58, 32771.14, 36883.04, 57032.55, 53530.77, 27434.06, 0.00, 0.00, 0.00, 0.00
133, 48535.47, 52063.40, 32793.65, 36901.81, 56465.02, 52701.34, 27447.34, 0.00, 0.00, 0.00, 0.00
134, 48525.64, 52054.95, 32811.36, 36917.04, 56569.11, 52759.75, 27475.32, 0.00, 0.00, 0.00, 0.00
135, 48552.52, 52046.91, 32810.91, 36910.15, 57042.12, 53451.22, 27478.32, 0.00, 0.00, 0.00, 0.00
136, 48580.35, 52041.12, 32773.04, 36876.44, 57144.16, 53663.68, 27427.47, 0.00, 0.00, 0.00, 0.00
137, 48539.63, 52061.88, 32790.32, 36899.87, 56500.38, 52779.57, 27428.70, 0.00, 0.00, 0.00, 0.00
138, 48520.45, 52055.69, 32825.30, 36917.26, 56529.59, 52697.63, 27465.20, 0.00, 0.00, 0.00, 0.00
139, 48537.44, 52041.83, 32816.36, 36912.30, 56938.16, 53303.37, 27473.89, 0.00, 0.00, 0.00, 0.00
140, 48581.16, 52036.85, 32766.63, 36863.32, 57220.73, 53751.61, 27427.13, 0.00, 0.15, 0.94, 0.31
141, 48547.74, 52054.13, 32770.20, 36869.83, 56565.80, 52897.88, 27417.74, 0.00, 0.00, 0.00, 0.00
142, 48521.21, 52052.18, 32809.79, 36899.51, 56487.62, 52657.27, 27450.76, 0.00, 0.00, 0.00, 0.00
143, 48527.63, 52036.74, 32811.06, 36903.40, 56828.26, 53156.80, 27468.39, 0.00, 0.00, 0.00, 0.00
144, 48580.87, 52031.60, 32782.27, 36884.16, 57261.01, 53790.88, 27438.64, 0.00, 0.00, 0.00, 0.00
145, 48556.68, 52049.52, 32770.59, 36861.07, 56665.71, 53045.80, 27412.76, 0.00, 0.00, 0.00, 0.00
146, 48528.43, 52056.29, 32808.63, 36886.59, 56458.80, 52622.49, 27449.08, 0.00, 0.00, 0.00, 0.00
147, 48531.11, 52040.85, 32816.79, 36898.23, 56739.54, 53018.09, 27470.52, 0.00, 0.00, 0.00, 0.00
148, 48578.14, 52020.18, 32786.95, 36870.23, 57249.92, 53764.68, 27442.98, 0.00, 0.00, 0.00, 0.00
149, 48562.38, 52031.48, 32756.37, 36850.96, 56781.90, 53218.14, 27403.21, 0.00, 0.00, 0.00, 0.00
150, 48527.67, 52043.75, 32802.19, 36887.20, 56441.28, 52625.44, 27448.86, 0.00, 0.15, 0.93, 0.30
151, 48516.38, 52029.59, 32802.03, 36887.95, 56656.75, 52901.14, 27464.30, 0.00, 0.00, 0.00, 0.00
152, 48560.55, 52018.09, 32790.21, 36872.73, 57190.63, 53675.19, 27450.58, 0.00, 0.00, 0.00, 0.00
153, 48563.28, 52026.61, 32756.75, 36842.98, 56909.84, 53378.85, 27402.01, 0.00, 0.00, 0.00, 0.00
154, 48519.27, 52033.65, 32788.20, 36865.54, 56432.21, 52641.26, 27422.55, 0.00, 0.00, 0.00, 0.00
155, 48519.58, 52026.01, 32800.20, 36877.40, 56586.59, 52800.54, 27447.63, 0.00, 0.00, 0.00, 0.00
156, 48555.41, 52016.89, 32793.00, 36876.46, 57109.44, 53558.40, 27456.88, 0.00, 0.00, 0.00, 0.00
157, 48565.06, 52024.15, 32753.35, 36855.43, 57057.32, 53562.85, 27427.02, 0.00, 0.00, 0.00, 0.00
158, 48521.14, 52039.75, 32776.46, 36884.24, 56470.21, 52723.29, 27441.35, 0.00, 0.00, 0.00, 0.00
159, 48510.53, 52035.48, 32793.54, 36897.83, 56559.75, 52756.71, 27464.84, 0.00, 0.00, 0.00, 0.00
160, 48538.11, 52035.82, 32795.46, 36905.66, 57023.61, 53435.26, 27473.60, 0.00, 0.14, 0.94, 0.30
161, 48584.67, 52052.36, 32762.83, 36884.31, 57168.68, 53700.33, 27436.30, 0.00, 0.00, 0.00, 0.00
162, 48550.25, 52079.03, 32773.96, 36903.64, 56521.39, 52826.74, 27437.23, 0.00, 0.00, 0.00, 0.00
163, 48538.78, 52081.08, 32805.52, 36930.40, 56520.43, 52713.37, 27466.96, 0.00, 0.00, 0.00, 0.00
164, 48555.05, 52063.49, 32803.51, 36932.21, 56902.46, 53295.00, 27472.55, 0.00, 0.00, 0.00, 0.00
165, 48597.52, 52056.92, 32762.36, 36892.87, 57220.55, 53791.17, 27427.09, 0.00, 0.00, 0.00, 0.00
166, 48559.63, 52079.38, 32762.02, 36892.63, 56574.39, 52951.53, 27400.20, 0.00, 0.00, 0.00, 0.00
167, 48537.50, 52070.46, 32806.75, 36901.23, 56477.92, 52670.68, 27451.58, 0.00, 0.00, 0.00, 0.00
168, 48541.24, 52049.41, 32788.27, 36900.07, 56795.87, 53140.22, 27472.37, 0.00, 0.00, 0.00, 0.00
169, 48586.28, 52041.65, 32752.52, 36865.07, 57241.23, 53793.81, 27434.20, 0.00, 0.00, 0.00, 0.00
170, 48564.39, 52057.73, 32736.30, 36854.63, 56673.47, 53085.26, 27406.03, 0.00, 0.14, 0.94, 0.30
171, 48530.69, 52054.93, 32771.99, 36883.24, 56437.66, 52632.30, 27442.13, 0.00, 0.00, 0.00, 0.00
172, 48526.95, 52034.46, 32774.65, 36883.73, 56699.22, 52999.96, 27457.84, 0.00, 0.00, 0.00, 0.00
173, 48571.68, 52023.37, 32757.75, 36857.02, 57225.70, 53754.89, 27442.04, 0.00, 0.00, 0.00, 0.00
174, 48566.45, 52044.29, 32728.27, 36841.64, 56800.27, 53256.70, 27402.63, 0.00, 0.00, 0.00, 0.00
175, 48531.47, 52056.70, 32770.59, 36871.70, 56430.48, 52637.91, 27441.66, 0.00, 0.00, 0.00, 0.00
176, 48525.79, 52045.61, 32782.39, 36881.96, 56636.48, 52892.85, 27467.79, 0.00, 0.00, 0.00, 0.00
177, 48567.43, 52032.04, 32770.14, 36868.93, 57176.34, 53678.27, 27455.32, 0.00, 0.00, 0.00, 0.00
178, 48577.18, 52039.73, 32733.19, 36838.73, 56938.14, 53440.74, 27398.77, 0.00, 0.00, 0.00, 0.00
179, 48535.70, 52049.59, 32761.80, 36864.71, 56433.04, 52675.37, 27419.31, 0.00, 0.14, 0.93, 0.31
180, 48526.06, 52037.36, 32780.55, 36875.39, 56579.84, 52809.53, 27448.86, 0.00, 0.00, 0.00, 0.00
181, 48559.72, 52026.28, 32782.05, 36860.42, 57089.93, 53544.14, 27449.08, 0.00, 0.00, 0.00, 0.00
182, 48581.94, 52027.66, 32736.99, 36824.34, 57063.20, 53588.21, 27398.37, 0.00, 0.00, 0.00, 0.00
183, 48539.54, 52050.37, 32755.83, 36849.89, 56458.63, 52735.90, 27411.08, 0.00, 0.00, 0.00, 0.00
184, 48522.95, 52041.48, 32779.37, 36874.92, 56532.03, 52738.00, 27444.63, 0.00, 0.00, 0.00, 0.00
185, 48545.17, 52019.19, 32777.56, 36867.79, 56976.25, 53397.13, 27454.33, 0.00, 0.00, 0.00, 0.00
186, 48584.89, 52025.34, 32738.60, 36838.38, 57157.75, 53716.89, 27404.15, 0.00, 0.00, 0.00, 0.00
187, 48553.31, 52051.42, 32747.63, 36864.82, 56507.98, 52844.89, 27394.16, 0.00, 0.00, 0.00, 0.00
188, 48538.64, 52049.97, 32780.33, 36878.72, 56495.29, 52702.48, 27435.56, 0.00, 0.00, 0.00, 0.00
189, 48550.09, 52033.09, 32776.80, 36865.58, 56872.80, 53263.40, 27455.68, 0.00, 0.15, 0.94, 0.31
190, 48591.37, 52030.03, 32739.69, 36833.64, 57223.13, 53801.99, 27415.69, 0.00, 0.00, 0.00, 0.00
191, 48558.94, 52048.29, 32729.99, 36836.48, 56588.11, 52991.65, 27396.49, 0.00, 0.00, 0.00, 0.00
192, 48532.32, 52046.57, 32761.93, 36861.89, 56453.08, 52671.93, 27427.51, 0.00, 0.00, 0.00, 0.00
193, 48530.78, 52030.57, 32762.56, 36864.86, 56755.79, 53111.41, 27444.50, 0.00, 0.00, 0.00, 0.00
194, 48583.48, 52024.02, 32741.93, 36837.42, 57234.39, 53799.02, 27423.31, 0.00, 0.00, 0.00, 0.00
195, 48566.11, 52038.93, 32723.87, 36826.78, 56696.41, 53138.90, 27396.04, 0.00, 0.00, 0.00, 0.00
196, 48527.94, 52039.42, 32761.11, 36855.14, 56433.82, 52657.22, 27434.13, 0.00, 0.00, 0.00, 0.00
197, 48519.78, 52023.55, 32763.61, 36858.72, 56666.97, 52992.00, 27449.91, 0.00, 0.00, 0.00, 0.00
198, 48574.03, 52022.12, 32750.04, 36845.04, 57200.59, 53762.74, 27434.71, 0.00, 0.00, 0.00, 0.00
199, 48571.59, 52033.05, 32716.38, 36824.01, 56817.98, 53324.69, 27389.47, 0.00, 0.15, 0.93, 0.31
200, 48536.43, 52044.16, 32753.44, 36852.77, 56419.96, 52675.71, 27434.73, 0.00, 0.00, 0.00, 0.00
201, 48523.80, 52027.46, 32760.97, 36865.04, 56607.58, 52912.68, 27455.23, 0.00, 0.00, 0.00, 0.00
202, 48560.04, 52007.12, 32745.26, 36849.26, 57141.83, 53687.68, 27449.53, 0.00, 0.00, 0.00, 0.00
203, 48579.50, 52023.41, 32711.46, 36823.74, 56953.67, 53514.72, 27402.54, 0.00, 0.00, 0.00, 0.00
204, 48537.04, 52036.74, 32742.13, 36850.40, 56429.21, 52729.28, 27418.50, 0.00, 0.00, 0.00, 0.00
205, 48516.11, 52015.05, 32751.07, 36858.23, 56550.61, 52822.49, 27439.22, 0.00, 0.00, 0.00, 0.00
206, 48547.94, 52002.85, 32749.86, 36856.04, 57049.23, 53539.96, 27447.03, 0.00, 0.00, 0.00, 0.00
207, 48579.75, 52012.53, 32713.68, 36825.26, 57075.20, 53647.96, 27402.54, 0.00, 0.00, 0.00, 0.00
208, 48537.84, 52030.79, 32734.42, 36845.71, 56464.62, 52794.91, 27416.58, 0.00, 0.00, 0.00, 0.00
209, 48522.53, 52020.89, 32757.66, 36864.35, 56519.16, 52770.25, 27451.21, 0.00, 0.15, 0.93, 0.31
210, 48544.93, 52006.79, 32761.29, 36869.00, 56943.57, 53407.57, 27457.20, 0.00, 0.00, 0.00, 0.00
211, 48586.25, 52010.07, 32725.59, 36834.58, 57172.12, 53781.45, 27413.43, 0.00, 0.00, 0.00, 0.00
212, 48547.12, 52030.61, 32725.72, 36838.64, 56520.14, 52911.14, 27409.00, 0.00, 0.00, 0.00, 0.00
213, 48524.18, 52025.16, 32754.92, 36860.30, 56475.66, 52722.20, 27441.97, 0.00, 0.00, 0.00, 0.00
214, 48530.51, 52001.98, 32754.56, 36859.21, 56833.84, 53254.13, 27449.71, 0.00, 0.00, 0.00, 0.00
215, 48581.61, 51998.92, 32730.87, 36831.00, 57221.27, 53829.77, 27418.73, 0.00, 0.00, 0.00, 0.00
216, 48554.71, 52022.41, 32721.77, 36830.62, 56605.86, 53046.99, 27397.85, 0.00, 0.00, 0.00, 0.00
217, 48529.12, 52020.96, 32754.96, 36856.75, 56446.89, 52695.27, 27430.35, 0.00, 0.00, 0.00, 0.00
218, 48533.46, 52010.52, 32756.90, 36867.10, 56738.70, 53119.32, 27444.72, 0.00, 0.14, 0.94, 0.31
219, 48585.94, 52006.83, 32731.78, 36850.58, 57223.88, 53827.38, 27416.02, 0.00, 0.00, 0.00, 0.00
220, 48568.37, 52020.66, 32703.04, 36813.03, 56709.91, 53198.16, 27377.29, 0.00, 0.00, 0.00, 0.00
221, 48537.97, 52027.21, 32738.73, 36844.48, 56413.34, 52666.54, 27415.04, 0.00, 0.00, 0.00, 0.00
222, 48537.88, 52020.35, 32749.46, 36862.63, 56647.16, 52986.11, 27432.76, 0.00, 0.00, 0.00, 0.00
223, 48585.29, 52012.22, 32738.91, 36849.11, 57184.68, 53760.26, 27432.88, 0.00, 0.00, 0.00, 0.00
224, 48579.66, 52018.97, 32700.09, 36823.22, 56833.98, 53376.93, 27396.49, 0.00, 0.00, 0.00, 0.00
225, 48540.03, 52036.40, 32733.99, 36849.31, 56402.48, 52690.77, 27420.96, 0.00, 0.00, 0.00, 0.00
226, 48531.31, 52023.21, 32746.89, 36865.94, 56583.86, 52897.30, 27447.14, 0.00, 0.00, 0.00, 0.00
227, 48567.34, 51999.57, 32737.75, 36849.26, 57111.88, 53658.89, 27432.32, 0.00, 0.00, 0.00, 0.00
228, 48574.00, 51994.85, 32696.49, 36804.63, 56966.01, 53540.50, 27382.63, 0.00, 0.14, 0.93, 0.31
229, 48530.42, 52008.39, 32721.50, 36832.68, 56411.33, 52728.57, 27404.45, 0.00, 0.00, 0.00, 0.00
230, 48519.33, 52003.95, 32736.77, 36855.32, 56525.73, 52810.82, 27434.78, 0.00, 0.00, 0.00, 0.00
231, 48548.95, 51991.03, 32732.61, 36850.27, 57005.08, 53512.89, 27450.94, 0.00, 0.00, 0.00, 0.00
232, 48581.78, 51996.62, 32691.66, 36817.68, 57069.57, 53675.99, 27404.96, 0.00, 0.00, 0.00, 0.00
233, 48542.02, 52017.00, 32705.74, 36840.12, 56442.49, 52804.56, 27412.65, 0.00, 0.00, 0.00, 0.00
234, 48522.80, 52010.45, 32726.22, 36860.55, 56478.18, 52746.45, 27445.93, 0.00, 0.00, 0.00, 0.00
235, 48536.77, 51994.65, 32719.27, 36857.91, 56891.36, 53354.26, 27447.94, 0.00, 0.00, 0.00, 0.00
236, 48579.48, 51990.96, 32683.81, 36820.68, 57152.98, 53767.34, 27407.39, 0.00, 0.00, 0.00, 0.00
237, 48540.79, 52006.79, 32691.46, 36830.89, 56509.63, 52908.54, 27399.75, 0.00, 0.00, 0.00, 0.00
238, 48518.35, 52004.89, 32721.16, 36858.34, 56451.81, 52689.70, 27435.89, 0.00, 0.14, 0.93, 0.30
239, 48524.94, 51990.00, 32716.13, 36862.23, 56789.99, 53197.84, 27447.58, 0.00, 0.00, 0.00, 0.00
240, 48566.92, 51983.09, 32685.36, 36825.13, 57196.61, 53802.37, 27414.48, 0.00, 0.00, 0.00, 0.00
241, 48540.63, 52000.59, 32675.48, 36811.15, 56600.58, 53041.61, 27391.50, 0.00, 0.00, 0.00, 0.00
242, 48514.44, 51997.44, 32709.99, 36844.79, 56413.36, 52656.37, 27431.76, 0.00, 0.00, 0.00, 0.00
243, 48515.31, 51981.39, 32709.94, 36852.17, 56689.63, 53063.69, 27446.20, 0.00, 0.00, 0.00, 0.00
244, 48567.77, 51975.87, 32689.18, 36831.20, 57195.90, 53794.07, 27426.80, 0.00, 0.00, 0.00, 0.00
245, 48550.02, 51990.34, 32660.66, 36819.87, 56717.28, 53225.36, 27389.04, 0.00, 0.00, 0.00, 0.00
246, 48514.91, 51996.86, 32695.97, 36858.54, 56391.53, 52666.70, 27422.59, 0.00, 0.00, 0.00, 0.00
247, 48513.75, 51988.88, 32712.87, 36879.55, 56613.41, 52958.84, 27447.20, 0.00, 0.00, 0.00, 0.00
248, 48560.26, 51982.80, 32700.06, 36841.89, 57146.61, 53727.18, 27438.26, 0.00, 0.14, 0.94, 0.31
249, 48564.30, 51996.01, 32657.10, 36821.75, 56850.03, 53403.90, 27393.31, 0.00, 0.00, 0.00, 0.00
250, 48522.24, 52000.35, 32684.93, 36850.45, 56387.84, 52690.70, 27415.73, 0.00, 0.00, 0.00, 0.00
251, 48509.74, 51982.20, 32693.76, 36858.36, 56544.41, 52855.50, 27444.28, 0.00, 0.00, 0.00, 0.00
252, 48549.53, 51972.54, 32687.48, 36845.57, 57053.14, 53602.01, 27442.22, 0.00, 0.00, 0.00, 0.00
253, 48578.12, 51990.89, 32655.03, 36815.87, 56972.45, 53569.95, 27394.07, 0.00, 0.00, 0.00, 0.00
254, 48536.66, 52002.16, 32678.05, 36838.71, 56409.99, 52754.38, 27413.83, 0.00, 0.00, 0.00, 0.00
255, 48513.43, 51981.10, 32693.25, 36850.96, 56502.23, 52789.86, 27443.54, 0.00, 0.00, 0.00, 0.00
0, 48545.11, 51971.16, 32694.70, 36841.84, 56959.04, 53453.55, 27434.82, 0.00, 0.00, 0.00, 0.00
1, 48585.96, 51975.65, 32658.71, 36803.42, 57087.56, 53683.90, 27384.11, 0.00, 0.00, 0.00, 0.00
2, 48547.16, 51996.82, 32674.14, 36827.92, 56478.72, 52843.34, 27405.63, 0.00, 0.15, 0.94, 0.30
3, 48535.20, 51997.96, 32705.79, 36854.61, 56480.98, 52735.16, 27448.05, 0.00, 0.00, 0.00, 0.00
4, 48552.43, 51984.52, 32697.43, 36852.28, 56863.60, 53305.51, 27450.24, 0.00, 0.00, 0.00, 0.00
5, 48596.22, 51985.42, 32658.15, 36814.02, 57164.61, 53764.06, 27408.80, 0.00, 0.00, 0.00, 0.00
6, 48562.38, 52006.43, 32657.82, 36819.63, 56551.70, 52946.07, 27390.74, 0.00, 0.00, 0.00, 0.00
7, 48532.68, 52001.45, 32688.51, 36843.68, 56444.28, 52670.81, 27427.13, 0.00, 0.00, 0.00, 0.00
8, 48535.18, 51981.98, 32692.42, 36844.73, 56756.98, 53143.19, 27438.53, 0.00, 0.00, 0.00, 0.00
9, 48581.89, 51972.59, 32663.16, 36815.20, 57183.52, 53777.02, 27401.43, 0.00, 0.00, 0.00, 0.00
10, 48561.98, 51987.79, 32643.89, 36806.23, 56647.54, 53091.94, 27382.67, 0.00, 0.00, 0.00, 0.00
11, 48531.36, 51990.83, 32678.88, 36833.64, 56417.54, 52654.18, 27431.83, 0.00, 0.15, 0.93, 0.31
12, 48530.69, 51982.24, 32689.74, 36840.10, 56666.27, 53015.90, 27449.26, 0.00, 0.00, 0.00, 0.00
13, 48579.23, 51978.15, 32672.50, 36821.23, 57166.39, 53745.84, 27419.67, 0.00, 0.00, 0.00, 0.00
14, 48570.56, 51990.02, 32638.98, 36808.96, 56764.87, 53259.87, 27372.48, 0.00, 0.00, 0.00, 0.00
15, 48533.48, 51993.98, 32673.27, 36818.78, 56401.25, 52656.21, 27401.92, 0.00, 0.00, 0.00, 0.00
16, 48526.39, 51981.06, 32680.17, 36831.89, 56590.46, 52902.89, 27423.89, 0.00, 0.00, 0.00, 0.00
17, 48571.34, 51970.93, 32678.65, 36821.41, 57113.91, 53657.73, 27425.43, 0.00, 0.00, 0.00, 0.00
18, 48576.91, 51976.21, 32637.64, 36789.90, 56895.74, 53423.89, 27381.06, 0.00, 0.00, 0.00, 0.00
19, 48536.92, 51987.70, 32663.38, 36818.33, 56406.77, 52685.38, 27400.76, 0.00, 0.00, 0.00, 0.00
20, 48525.37, 51981.06, 32683.14, 36836.79, 56528.32, 52813.88, 27426.33, 0.00, 0.00, 0.00, 0.00
21, 48559.25, 51976.05, 32675.63, 36830.44, 57005.02, 53523.87, 27422.21, 0.00, 0.15, 0.94, 0.30
22, 48588.69, 51980.66, 32634.87, 36793.09, 56990.64, 53557.95, 27366.94, 0.00, 0.00, 0.00, 0.00
23, 48552.86, 51994.80, 32658.18, 36810.39, 56419.76, 52743.97, 27382.14, 0.00, 0.00, 0.00, 0.00
24, 48529.17, 51986.33, 32684.04, 36825.62, 56476.00, 52736.04, 27417.07, 0.00, 0.00, 0.00, 0.00
25, 48551.41, 51978.82, 32679.01, 36824.65, 56896.21, 53372.81, 27417.07, 0.00, 0.00, 0.00, 0.00
26, 48591.57, 51975.87, 32638.53, 36785.36, 57073.01, 53670.58, 27364.46, 0.00, 0.00, 0.00, 0.00
27, 48556.55, 51991.83, 32639.45, 36796.20, 56480.20, 52848.33, 27359.79, 0.00, 0.00, 0.00, 0.00
28, 48526.33, 51980.41, 32661.17, 36813.12, 56435.11, 52683.29, 27394.74, 0.00, 0.00, 0.00, 0.00
29, 48532.54, 51966.73, 32659.14, 36811.67, 56748.24, 53185.30, 27410.35, 0.00, 0.00, 0.00, 0.00
30, 48574.30, 51970.96, 32639.16, 36788.20, 57023.68, 53625.77, 27384.39, 0.00, 0.00, 0.00, 0.00
31, 48563.72, 51981.35, 32636.81, 36785.70, 56631.90, 53032.35, 27362.51, 0.00, 0.14, 0.94, 0.31
32, 48534.53, 51973.64, 32650.35, 36806.88, 56478.68, 52723.02, 27389.49, 0.00, 0.00, 0.00, 0.00
33, 48531.07, 51965.05, 32657.75, 36813.97, 56674.72, 53072.41, 27421.81, 0.00, 0.00, 0.00, 0.00
34, 48572.91, 51970.51, 32646.51, 36793.18, 56995.61, 53600.62, 27406.39, 0.00, 0.00, 0.00, 0.00
35, 48572.62, 51984.30, 32636.92, 36781.83, 56713.04, 53160.76, 27375.90, 0.00, 0.00, 0.00, 0.00
36, 48536.79, 51976.63, 32648.39, 36793.18, 56489.16, 52738.07, 27387.44, 0.00, 0.00, 0.00, 0.00
37, 48526.33, 51962.91, 32656.59, 36804.92, 56610.35, 52965.32, 27407.82, 0.00, 0.00, 0.00, 0.00
38, 48564.19, 51968.50, 32640.54, 36798.70, 56966.30, 53552.07, 27403.21, 0.00, 0.00, 0.00, 0.00
39, 48572.98, 51975.76, 32619.26, 36775.86, 56791.63, 53280.32, 27379.61, 0.00, 0.00, 0.00, 0.00
40, 48539.79, 51968.88, 32633.79, 36784.04, 56505.99, 52761.13, 27385.49, 0.00, 0.00, 0.00, 0.00
41, 48516.05, 51955.42, 32642.58, 36796.36, 56566.50, 52890.68, 27402.19, 0.00, 0.15, 0.93, 0.31
42, 48539.34, 51953.66, 32635.69, 36788.82, 56915.00, 53481.26, 27408.47, 0.00, 0.00, 0.00, 0.00
43, 48562.92, 51966.89, 32613.94, 36770.03, 56853.98, 53393.84, 27380.77, 0.00, 0.00, 0.00, 0.00
44, 48537.15, 51969.68, 32625.48, 36780.42, 56521.48, 52810.60, 27379.50, 0.00, 0.00, 0.00, 0.00
45, 48516.23, 51964.03, 32639.38, 36791.60, 56534.38, 52828.57, 27415.96, 0.00, 0.00, 0.00, 0.00
46, 48537.10, 51961.95, 32642.80, 36794.75, 56859.84, 53385.15, 27427.67, 0.00, 0.00, 0.00, 0.00
47, 48567.81, 51966.55, 32625.48, 36787.89, 56926.85, 53495.50, 27392.38, 0.00, 0.00, 0.00, 0.00
48, 48545.06, 51969.41, 32630.30, 36780.15, 56572.66, 52886.48, 27385.67, 0.00, 0.00, 0.00, 0.00
49, 48515.00, 51955.27, 32638.20, 36776.13, 56516.74, 52775.11, 27403.46, 0.00, 0.00, 0.00, 0.00
50, 48521.52, 51945.30, 32635.09, 36778.14, 56785.25, 53257.59, 27414.30, 0.00, 0.00, 0.00, 0.00
51, 48566.56, 51961.25, 32622.08, 36759.66, 56960.98, 53546.64, 27385.85, 0.00, 0.15, 0.93, 0.31
52, 48557.78, 51972.25, 32628.99, 36764.30, 56614.04, 52969.34, 27379.01, 0.00, 0.00, 0.00, 0.00
53, 48530.98, 51962.35, 32649.53, 36782.10, 56505.12, 52752.44, 27410.52, 0.00, 0.00, 0.00, 0.00
54, 48530.80, 51955.36, 32642.31, 36786.61, 56723.61, 53155.00, 27426.39, 0.00, 0.00, 0.00, 0.00
55, 48558.29, 51951.96, 32614.05, 36766.09, 56988.95, 53589.16, 27401.12, 0.00, 0.00, 0.00, 0.00
56, 48550.40, 51961.68, 32614.08, 36762.27, 56688.25, 53076.47, 27379.63, 0.00, 0.00, 0.00, 0.00
57, 48521.93, 51953.63, 32632.74, 36772.17, 56521.93, 52745.22, 27399.26, 0.00, 0.00, 0.00, 0.00
58, 48513.77, 51940.96, 32636.18, 36780.49, 56678.90, 53049.50, 27416.18, 0.00, 0.00, 0.00, 0.00
59, 48548.01, 51949.83, 32621.05, 36762.11, 56997.68, 53577.78, 27397.52, 0.00, 0.00, 0.00, 0.00
60, 48548.19, 51958.55, 32604.53, 36747.92, 56752.62, 53178.78, 27367.34, 0.00, 0.15, 0.93, 0.32
61, 48520.65, 51954.06, 32627.91, 36776.69, 56520.83, 52747.30, 27392.71, 0.00, 0.00, 0.00, 0.00
62, 48506.43, 51945.32, 32634.31, 36782.45, 56628.01, 52961.92, 27417.74, 0.00, 0.00, 0.00, 0.00
63, 48550.42, 51955.98, 32619.67, 36775.35, 56967.22, 53539.15, 27407.13, 0.00, 0.00, 0.00, 0.00
64, 48572.08, 51978.45, 32602.83, 36765.11, 56823.07, 53317.04, 27386.36, 0.00, 0.00, 0.00, 0.00
65, 48546.38, 51982.31, 32617.21, 36772.71, 56535.11, 52792.88, 27396.11, 0.00, 0.00, 0.00, 0.00
66, 48524.43, 51967.80, 32622.93, 36778.48, 56580.31, 52888.63, 27411.57, 0.00, 0.00, 0.00, 0.00
67, 48547.27, 51957.99, 32619.24, 36777.58, 56914.49, 53468.23, 27402.21, 0.00, 0.00, 0.00, 0.00
68, 48571.99, 51968.74, 32603.55, 36755.99, 56882.64, 53425.79, 27368.88, 0.00, 0.00, 0.00, 0.00
69, 48552.57, 51977.59, 32616.85, 36759.81, 56554.49, 52842.45, 27381.87, 0.00, 0.00, 0.00, 0.00
70, 48532.05, 51969.35, 32623.49, 36774.65, 56547.34, 52828.61, 27400.35, 0.00, 0.15, 0.93, 0.32
71, 48542.42, 51958.33, 32617.81, 36769.27, 56844.91, 53362.55, 27407.33, 0.00, 0.00, 0.00, 0.00
72, 48571.25, 51960.41, 32600.78, 36746.56, 56933.94, 53511.86, 27386.76, 0.00, 0.00, 0.00, 0.00
73, 48553.93, 51970.26, 32610.37, 36753.73, 56585.45, 52915.72, 27380.75, 0.00, 0.00, 0.00, 0.00
74, 48530.87, 51966.26, 32626.82, 36780.82, 56517.48, 52790.59, 27408.27, 0.00, 0.00, 0.00, 0.00
75, 48539.89, 51961.88, 32627.35, 36774.79, 56772.02, 53255.80, 27422.33, 0.00, 0.00, 0.00, 0.00
76, 48580.66, 51969.88, 32603.86, 36742.58, 56963.98, 53573.73, 27392.35, 0.00, 0.00, 0.00, 0.00
77, 48564.13, 51974.00, 32599.86, 36738.64, 56622.49, 52999.45, 27369.96, 0.00, 0.00, 0.00, 0.00
78, 48534.53, 51971.85, 32617.94, 36754.27, 56490.70, 52749.51, 27393.92, 0.00, 0.00, 0.00, 0.00
79, 48532.81, 51963.69, 32623.09, 36767.86, 56693.12, 53128.87, 27413.63, 0.00, 0.00, 0.00, 0.00
80, 48573.94, 51969.14, 32610.21, 36746.80, 56971.31, 53586.27, 27391.26, 0.00, 0.15, 0.92, 0.32
81, 48577.85, 51981.44, 32599.10, 36737.46, 56671.71, 53096.61, 27372.57, 0.00, 0.00, 0.00, 0.00
82, 48554.65, 51975.47, 32609.70, 36764.06, 56478.90, 52746.85, 27396.49, 0.00, 0.00, 0.00, 0.00
83, 48545.84, 51964.88, 32614.26, 36765.85, 56627.23, 53031.55, 27407.57, 0.00, 0.00, 0.00, 0.00
84, 48580.93, 51967.96, 32604.11, 36749.20, 56956.69, 53578.09, 27397.40, 0.00, 0.00, 0.00, 0.00
85, 48587.75, 51980.81, 32596.31, 36739.54, 56732.37, 53221.98, 27370.96, 0.00, 0.00, 0.00, 0.00
86, 48554.94, 51979.38, 32614.19, 36757.40, 56487.50, 52765.96, 27388.29, 0.00, 0.00, 0.00, 0.00
87, 48536.01, 51967.78, 32616.51, 36765.58, 56575.55, 52946.21, 27402.84, 0.00, 0.00, 0.00, 0.00
88, 48563.77, 51965.08, 32605.90, 36752.64, 56924.35, 53526.23, 27403.44, 0.00, 0.00, 0.00, 0.00
89, 48577.11, 51971.40, 32592.06, 36732.92, 56800.96, 53328.71, 27372.44, 0.00, 0.00, 0.00, 0.00
90, 48554.89, 51971.22, 32611.44, 36753.93, 56501.54, 52795.29, 27384.51, 0.00, 0.15, 0.93, 0.31
91, 48539.89, 51967.27, 32624.02, 36761.49, 56538.60, 52877.36, 27406.46, 0.00, 0.00, 0.00, 0.00
92, 48564.73, 51966.26, 32616.65, 36752.88, 56868.82, 53446.98, 27400.60, 0.00, 0.00, 0.00, 0.00
93, 48594.66, 51976.81, 32589.94, 36732.66, 56856.11, 53442.19, 27360.12, 0.00, 0.00, 0.00, 0.00
94, 48567.68, 51972.30, 32594.74, 36741.91, 56520.05, 52855.97, 27362.29, 0.00, 0.00, 0.00, 0.00
95, 48548.68, 51966.08, 32609.47, 36769.07, 56512.92, 52823.52, 27398.95, 0.00, 0.00, 0.00, 0.00
96, 48563.39, 51966.73, 32607.91, 36749.75, 56812.21, 53342.73, 27416.00, 0.00, 0.00, 0.00, 0.00
97, 48595.82, 51976.07, 32585.65, 36726.95, 56926.27, 53526.88, 27377.94, 0.00, 0.00, 0.00, 0.00
98, 48584.58, 51988.77, 32589.24, 36737.24, 56578.54, 52927.45, 27368.41, 0.00, 0.00, 0.00, 0.00
99, 48558.34, 51979.34, 32600.31, 36752.17, 56504.34, 52779.11, 27396.51, 0.00, 0.16, 0.93, 0.31
100, 48554.45, 51962.48, 32591.55, 36748.86, 56749.56, 53225.52, 27396.96, 0.00, 0.00, 0.00, 0.00
101, 48582.99, 51960.36, 32570.02, 36722.33, 56962.88, 53576.48, 27370.00, 0.00, 0.00, 0.00, 0.00
102, 48575.59, 51969.28, 32578.49, 36719.85, 56629.13, 53015.12, 27356.66, 0.00, 0.00, 0.00, 0.00
103, 48547.45, 51963.31, 32596.08, 36732.09, 56494.84, 52746.05, 27384.64, 0.00, 0.00, 0.00, 0.00
104, 48544.28, 51952.83, 32593.25, 36737.62, 56687.87, 53107.72, 27404.91, 0.00, 0.00, 0.00, 0.00
105, 48584.93, 51955.02, 32575.21, 36723.54, 56977.81, 53587.72, 27389.92, 0.00, 0.00, 0.00, 0.00
106, 48580.69, 51967.36, 32571.77, 36721.25, 56691.42, 53126.54, 27364.19, 0.00, 0.00, 0.00, 0.00
107, 48552.10, 51964.68, 32587.43, 36731.16, 56488.94, 52745.29, 27383.75, 0.00, 0.00, 0.00, 0.00
108, 48542.54, 51953.05, 32585.13, 36734.60, 56622.24, 53016.95, 27401.38, 0.00, 0.00, 0.00, 0.00
109, 48580.15, 51952.56, 32580.19, 36730.55, 56956.11, 53579.30, 27393.76, 0.00, 0.16, 0.93, 0.31
110, 48591.86, 51968.16, 32562.49, 36718.68, 56755.01, 53252.70, 27363.96, 0.00, 0.00, 0.00, 0.00
111, 48565.20, 51970.64, 32575.39, 36733.93, 56494.10, 52776.04, 27372.93, 0.00, 0.00, 0.00, 0.00
112, 48544.93, 51956.94, 32583.28, 36743.83, 56569.00, 52942.63, 27394.10, 0.00, 0.00, 0.00, 0.00
113, 48577.98, 51964.83, 32582.20, 36744.05, 56906.15, 53533.25, 27392.87, 0.00, 0.00, 0.00, 0.00
114, 48603.49, 51981.66, 32567.16, 36732.32, 56811.00, 53379.45, 27369.64, 0.00, 0.00, 0.00, 0.00
115, 48578.52, 51985.62, 32579.19, 36741.21, 56498.10, 52820.07, 27372.10, 0.00, 0.00, 0.00, 0.00
116, 48552.01, 51967.00, 32582.99, 36743.50, 56519.47, 52869.92, 27384.42, 0.00, 0.00, 0.00, 0.00
117, 48569.91, 51957.88, 32575.30, 36736.72, 56840.66, 53429.70, 27381.62, 0.00, 0.00, 0.00, 0.00
118, 48595.77, 51966.11, 32555.07, 36712.11, 56855.88, 53461.59, 27352.07, 0.00, 0.00, 0.00, 0.00
119, 48570.36, 51963.02, 32568.90, 36717.23, 56519.04, 52865.72, 27351.25, 0.00, 0.15, 0.93, 0.32
120, 48540.70, 51949.81, 32578.70, 36738.29, 56487.21, 52811.02, 27375.10, 0.00, 0.00, 0.00, 0.00
121, 48542.87, 51934.81, 32571.38, 36709.14, 56770.05, 53313.47, 27381.62, 0.00, 0.00, 0.00, 0.00
122, 48577.36, 51944.47, 32552.32, 36689.14, 56903.23, 53537.12, 27353.64, 0.00, 0.00, 0.00, 0.00
123, 48563.54, 51957.99, 32561.60, 36693.49, 56559.32, 52941.82, 27349.59, 0.00, 0.00, 0.00, 0.00
124, 48540.66, 51951.44, 32573.67, 36709.61, 56470.07, 52766.27, 27376.42, 0.00, 0.00, 0.00, 0.00
125, 48544.86, 51942.39, 32571.50, 36716.56, 56704.99, 53204.44, 27387.93, 0.00, 0.00, 0.00, 0.00
126, 48584.11, 51947.78, 32559.43, 36699.08, 56936.06, 53585.91, 27368.77, 0.00, 0.00, 0.00, 0.00
127, 48581.58, 51964.54, 32560.59, 36705.21, 56616.79, 53047.75, 27357.04, 0.00, 0.00, 0.00, 0.00
128, 48548.84, 51960.23, 32563.88, 36702.26, 56462.41, 52754.38, 27376.62, 0.00, 0.00, 0.00, 0.00
129, 48541.59, 51952.11, 32569.60, 36706.12, 56637.95, 53095.45, 27389.96, 0.00, 0.15, 0.93, 0.32
130, 48579.19, 51950.46, 32557.95, 36696.51, 56945.74, 53597.02, 27373.60, 0.00, 0.00, 0.00, 0.00
131, 48579.35, 51958.35, 32552.10, 36690.45, 56672.80, 53154.26, 27343.69, 0.00, 0.00, 0.00, 0.00
132, 48546.89, 51953.32, 32564.81, 36705.27, 56453.82, 52755.64, 27362.94, 0.00, 0.00, 0.00, 0.00
133, 48537.66, 51947.13, 32569.08, 36715.29, 56578.50, 53001.30, 27389.51, 0.00, 0.00, 0.00, 0.00
134, 48576.91, 51952.31, 32558.80, 36705.03, 56917.66, 53567.92, 27379.90, 0.00, 0.00, 0.00, 0.00
135, 48583.73, 51955.20, 32544.68, 36683.04, 56728.37, 53273.61, 27346.31, 0.00, 0.00, 0.00, 0.00
136, 48554.47, 51951.84, 32554.04, 36691.71, 56458.94, 52776.31, 27360.48, 0.00, 0.00, 0.00, 0.00
137, 48535.58, 51943.53, 32561.37, 36706.57, 56525.21, 52920.73, 27378.27, 0.00, 0.00, 0.00, 0.00
138, 48564.80, 51946.41, 32565.93, 36702.32, 56875.98, 53509.88, 27385.33, 0.00, 0.00, 0.00, 0.00
139, 48585.02, 51953.03, 32543.49, 36681.69, 56798.30, 53385.82, 27350.11, 0.00, 0.15, 0.93, 0.31
140, 48563.36, 51956.81, 32553.48, 36688.29, 56483.48, 52817.08, 27350.22, 0.00, 0.00, 0.00, 0.00
141, 48539.56, 51948.54, 32563.81, 36701.56, 56511.98, 52853.45, 27375.66, 0.00, 0.00, 0.00, 0.00
142, 48553.91, 51945.30, 32558.91, 36713.21, 56835.30, 53408.11, 27373.69, 0.00, 0.00, 0.00, 0.00
143, 48579.61, 51953.25, 32534.10, 36663.07, 56876.65, 53480.73, 27344.68, 0.00, 0.00, 0.00, 0.00
144, 48563.25, 51959.18, 32548.07, 36676.08, 56533.10, 52888.54, 27355.27, 0.00, 0.00, 0.00, 0.00
145, 48538.22, 51946.93, 32556.12, 36688.20, 56484.71, 52802.26, 27371.36, 0.00, 0.00, 0.00, 0.00
146, 48550.65, 51946.52, 32555.02, 36695.80, 56755.68, 53300.77, 27376.44, 0.00, 0.00, 0.00, 0.00
147, 48582.95, 51971.58, 32537.52, 36674.94, 56908.52, 53565.26, 27348.90, 0.00, 0.00, 0.00, 0.00
148, 48572.84, 51989.62, 32544.16, 36679.84, 56568.04, 52981.28, 27349.84, 0.00, 0.15, 0.93, 0.31
149, 48541.89, 51976.45, 32554.40, 36693.96, 56469.11, 52780.22, 27368.73, 0.00, 0.00, 0.00, 0.00
150, 48541.68, 51965.43, 32551.98, 36700.73, 56686.66, 53194.71, 27372.79, 0.00, 0.00, 0.00, 0.00
151, 48583.32, 51971.76, 32533.83, 36670.34, 56933.11, 53604.29, 27348.14, 0.00, 0.00, 0.00, 0.00
152, 48579.86, 51984.93, 32535.00, 36662.67, 56618.96, 53074.75, 27340.68, 0.00, 0.00, 0.00, 0.00
153, 48549.77, 51978.24, 32549.73, 36683.28, 56458.76, 52758.41, 27361.53, 0.00, 0.00, 0.00, 0.00
154, 48545.39, 51970.66, 32555.85, 36698.37, 56628.23, 53082.80, 27376.28, 0.00, 0.00, 0.00, 0.00
155, 48582.27, 51975.20, 32548.07, 36686.12, 56944.42, 53610.05, 27367.47, 0.00, 0.00, 0.00, 0.00
156, 48584.53, 51983.76, 32535.78, 36669.20, 56684.71, 53192.50, 27330.10, 0.00, 0.00, 0.00, 0.00
157, 48556.35, 51976.72, 32549.15, 36682.48, 56447.00, 52758.70, 27337.39, 0.00, 0.00, 0.00, 0.00
158, 48540.34, 51959.51, 32553.84, 36691.84, 56560.33, 52987.00, 27363.54, 0.00, 0.15, 0.93, 0.31
159, 48570.96, 51957.28, 32543.94, 36682.99, 56903.38, 53572.14, 27358.49, 0.00, 0.00, 0.00, 0.00
160, 48579.70, 51964.43, 32532.09, 36662.67, 56738.85, 53305.91, 27327.44, 0.00, 0.00, 0.00, 0.00
161, 48552.48, 51968.05, 32559.79, 36684.11, 56464.06, 52794.10, 27339.20, 0.00, 0.00, 0.00, 0.00
162, 48535.71, 51959.18, 32555.40, 36710.75, 56517.93, 52924.14, 27358.40, 0.00, 0.00, 0.00, 0.00
163, 48555.61, 51954.71, 32538.33, 36681.38, 56849.76, 53505.63, 27352.92, 0.00, 0.00, 0.00, 0.00
164, 48576.53, 51974.13, 32524.54, 36664.59, 56793.46, 53425.88, 27322.15, 0.00, 0.00, 0.00, 0.00
165, 48555.99, 51979.23, 32539.24, 36683.66, 56469.69, 52846.41, 27333.63, 0.00, 0.00, 0.00, 0.00
166, 48534.55, 51960.79, 32547.98, 36696.71, 56473.13, 52859.06, 27352.48, 0.00, 0.00, 0.00, 0.00
167, 48555.41, 51956.89, 32547.83, 36697.85, 56782.35, 53414.25, 27362.11, 0.00, 0.00, 0.00, 0.00
168, 48588.80, 51972.25, 32532.98, 36679.70, 56850.83, 53524.67, 27326.15, 0.00, 0.15, 0.93, 0.31
169, 48573.80, 51985.75, 32535.18, 36680.55, 56504.40, 52915.70, 27315.04, 0.00, 0.00, 0.00, 0.00
170, 48543.02, 51972.50, 32544.27, 36697.85, 56446.82, 52804.27, 27350.13, 0.00, 0.00, 0.00, 0.00
171, 48533.64, 51946.93, 32549.86, 36693.65, 56719.02, 53287.14, 27365.64, 0.00, 0.00, 0.00, 0.00
172, 48560.62, 51939.68, 32526.28, 36661.66, 56896.45, 53573.78, 27330.08, 0.00, 0.00, 0.00, 0.00
173, 48549.91, 51955.15, 32527.51, 36670.90, 56551.77, 52991.27, 27321.05, 0.00, 0.00, 0.00, 0.00
174, 48519.89, 51946.88, 32541.61, 36691.04, 56434.75, 52767.06, 27342.93, 0.00, 0.00, 0.00, 0.00
175, 48522.89, 51941.94, 32544.83, 36700.87, 56649.11, 53163.46, 27360.10, 0.00, 0.00, 0.00, 0.00
176, 48563.25, 51951.67, 32527.42, 36683.39, 56920.68, 53609.56, 27347.16, 0.00, 0.00, 0.00, 0.00
177, 48560.77, 51960.83, 32518.90, 36672.48, 56612.79, 53096.63, 27323.33, 0.00, 0.00, 0.00, 0.00
178, 48538.89, 51961.37, 32538.57, 36690.23, 56435.56, 52751.32, 27343.25, 0.00, 0.15, 0.93, 0.31
179, 48525.01, 51947.82, 32539.71, 36696.96, 56589.56, 53053.54, 27347.60, 0.00, 0.00, 0.00, 0.00
180, 48557.96, 51944.74, 32523.87, 36677.60, 56913.20, 53591.73, 27341.70, 0.00, 0.00, 0.00, 0.00
181, 48562.20, 51953.59, 32519.02, 36665.73, 56677.45, 53198.40, 27323.29, 0.00, 0.00, 0.00, 0.00
182, 48531.52, 51951.69, 32534.84, 36682.09, 56449.08, 52748.08, 27334.91, 0.00, 0.00, 0.00, 0.00
183, 48514.77, 51942.17, 32537.08, 36692.60, 56559.81, 52949.52, 27348.12, 0.00, 0.00, 0.00, 0.00
184, 48547.23, 51943.24, 32529.74, 36692.36, 56905.17, 53541.70, 27345.82, 0.00, 0.00, 0.00, 0.00
185, 48564.24, 51954.01, 32523.49, 36672.08, 56765.09, 53315.68, 27317.38, 0.00, 0.00, 0.00, 0.00
186, 48533.55, 51950.68, 32533.25, 36670.34, 56474.65, 52780.13, 27329.03, 0.00, 0.00, 0.00, 0.00
187, 48509.79, 51938.48, 32526.68, 36688.73, 56515.82, 52876.78, 27348.21, 0.00, 0.15, 0.93, 0.31
188, 48536.70, 51933.52, 32523.75, 36683.75, 56848.71, 53461.93, 27345.62, 0.00, 0.00, 0.00, 0.00
189, 48561.87, 51939.82, 32507.79, 36660.05, 56817.66, 53423.55, 27313.34, 0.00, 0.00, 0.00, 0.00
190, 48535.29, 51940.87, 32519.02, 36670.07, 56491.66, 52838.43, 27321.45, 0.00, 0.00, 0.00, 0.00
191, 48508.40, 51915.30, 32525.12, 36688.62, 56483.01, 52820.23, 27345.23, 0.00, 0.00, 0.00, 0.00
192, 48523.71, 51910.00, 32520.13, 36690.05, 56781.97, 53358.77, 27350.60, 0.00, 0.00, 0.00, 0.00
193, 48560.79, 51922.50, 32505.98, 36663.66, 56872.61, 53511.39, 27320.49, 0.00, 0.00, 0.00, 0.00
194, 48545.98, 51935.08, 32511.48, 36667.21, 56525.73, 52901.37, 27308.04, 0.00, 0.00, 0.00, 0.00
195, 48513.90, 51920.26, 32518.08, 36685.71, 56455.01, 52769.96, 27332.25, 0.00, 0.00, 0.00, 0.00
196, 48514.10, 51906.71, 32516.04, 36686.79, 56709.26, 53240.51, 27345.10, 0.00, 0.00, 0.00, 0.00
197, 48554.56, 51917.87, 32503.19, 36661.06, 56911.54, 53566.07, 27324.07, 0.00, 0.15, 0.94, 0.31
198, 48546.82, 51929.16, 32502.41, 36661.38, 56571.10, 52985.43, 27305.09, 0.00, 0.00, 0.00, 0.00
199, 48517.63, 51917.31, 32514.05, 36678.41, 56443.16, 52740.30, 27325.21, 0.00, 0.00, 0.00, 0.00
200, 48517.37, 51908.75, 32522.03, 36688.53, 56642.29, 53123.23, 27347.98, 0.00, 0.00, 0.00, 0.00
201, 48560.39, 51918.14, 32512.47, 36670.25, 56916.77, 53587.01, 27333.61, 0.00, 0.00, 0.00, 0.00
202, 48559.07, 51929.67, 32509.18, 36655.61, 56612.34, 53091.63, 27308.89, 0.00, 0.00, 0.00, 0.00
203, 48532.00, 51928.04, 32528.80, 36670.14, 56424.25, 52730.27, 27336.50, 0.00, 0.00, 0.00, 0.00
204, 48522.42, 51920.89, 32527.69, 36684.46, 56573.63, 53018.20, 27360.57, 0.00, 0.00, 0.00, 0.00
205, 48554.76, 51913.42, 32513.05, 36677.94, 56891.85, 53566.58, 27340.85, 0.00, 0.00, 0.00, 0.00
206, 48561.98, 51925.45, 32505.78, 36659.23, 56671.73, 53202.67, 27313.27, 0.00, 0.00, 0.00, 0.00
207, 48527.11, 51923.19, 32518.28, 36659.18, 56422.35, 52739.59, 27320.76, 0.00, 0.15, 0.93, 0.31
208, 48506.17, 51910.65, 32521.09, 36671.46, 56506.50, 52926.79, 27342.31, 0.00, 0.00, 0.00, 0.00
209, 48535.49, 51909.42, 32514.25, 36664.77, 56853.74, 53518.30, 27350.73, 0.00, 0.00, 0.00, 0.00
210, 48549.21, 51917.82, 32496.26, 36640.16, 56732.88, 53322.50, 27317.50, 0.00, 0.00, 0.00, 0.00
211, 48523.36, 51918.25, 32511.59, 36656.93, 56435.00, 52768.73, 27317.25, 0.00, 0.00, 0.00, 0.00
212, 48503.24, 51905.46, 32518.52, 36674.09, 56477.18, 52845.40, 27344.81, 0.00, 0.00, 0.00, 0.00
213, 48530.35, 51905.35, 32514.70, 36663.72, 56804.41, 53422.16, 27355.67, 0.00, 0.00, 0.00, 0.00
214, 48555.41, 51914.00, 32490.23, 36636.25, 56793.86, 53418.52, 27318.03, 0.00, 0.00, 0.00, 0.00
215, 48531.04, 51920.15, 32503.97, 36646.53, 56465.67, 52827.59, 27323.87, 0.00, 0.00, 0.00, 0.00
216, 48508.18, 51909.76, 32516.56, 36662.45, 56447.47, 52789.92, 27346.93, 0.00, 0.00, 0.00, 0.00
217, 48523.33, 51901.80, 32509.90, 36661.57, 56737.46, 53318.43, 27350.67, 0.00, 0.15, 0.93, 0.31
218, 48556.46, 51914.63, 32487.90, 36637.77, 56848.64, 53510.21, 27313.83, 0.00, 0.00, 0.00, 0.00
219, 48535.45, 51918.74, 32499.57, 36635.09, 56504.70, 52902.96, 27311.80, 0.00, 0.00, 0.00, 0.00
220, 48511.29, 51909.87, 32520.02, 36656.03, 56426.62, 52741.60, 27330.84, 0.00, 0.00, 0.00, 0.00
221, 48519.78, 51906.58, 32514.79, 36663.30, 56668.73, 53200.86, 27348.68, 0.00, 0.00, 0.00, 0.00
222, 48552.70, 51919.93, 32493.91, 36643.14, 56883.29, 53565.66, 27333.41, 0.00, 0.00, 0.00, 0.00
223, 48538.91, 51928.89, 32495.66, 36642.69, 56553.84, 53000.68, 27318.37, 0.00, 0.00, 0.00, 0.00
224, 48513.70, 51920.26, 32513.74, 36656.75, 56419.71, 52722.53, 27341.32, 0.00, 0.00, 0.00, 0.00
225, 48505.81, 51901.15, 32512.80, 36659.59, 56609.19, 53084.70, 27351.81, 0.00, 0.00, 0.00, 0.00
226, 48547.70, 51907.68, 32500.31, 36645.55, 56896.30, 53575.14, 27331.47, 0.00, 0.00, 0.00, 0.00
227, 48544.88, 51918.14, 32488.28, 36636.36, 56613.75, 53107.05, 27307.21, 0.00, 0.15, 0.93, 0.31
228, 48507.51, 51903.01, 32496.15, 36655.61, 56408.56, 52714.82, 27320.92, 0.00, 0.00, 0.00, 0.00
229, 48498.79, 51898.04, 32499.84, 36656.03, 56540.99, 52980.09, 27337.70, 0.00, 0.00, 0.00, 0.00
230, 48536.36, 51903.68, 32496.17, 36633.46, 56873.54, 53539.76, 27323.71, 0.00, 0.00, 0.00, 0.00
231, 48543.58, 51909.45, 32484.33, 36620.79, 56678.12, 53208.64, 27290.83, 0.00, 0.00, 0.00, 0.00
232, 48521.61, 51911.43, 32496.48, 36640.30, 56428.79, 52720.63, 27314.81, 0.00, 0.00, 0.00, 0.00
233, 48509.97, 51912.39, 32505.87, 36654.58, 56512.00, 52884.88, 27337.99, 0.00, 0.00, 0.00, 0.00
234, 48536.95, 51912.95, 32494.74, 36641.19, 56856.87, 53473.15, 27335.31, 0.00, 0.00, 0.00, 0.00
235, 48551.74, 51909.49, 32468.50, 36617.74, 56759.23, 53321.63, 27306.41, 0.00, 0.00, 0.00, 0.00
236, 48528.61, 51917.65, 32491.05, 36635.40, 56449.42, 52759.28, 27315.57, 0.00, 0.15, 0.94, 0.31
237, 48509.77, 51909.85, 32504.60, 36655.30, 56478.97, 52813.77, 27346.15, 0.00, 0.00, 0.00, 0.00
238, 48536.77, 51905.75, 32500.31, 36650.78, 56801.28, 53384.55, 27349.44, 0.00, 0.00, 0.00, 0.00
239, 48570.07, 51917.13, 32482.43, 36626.93, 56821.02, 53429.43, 27317.88, 0.00, 0.00, 0.00, 0.00
240, 48544.77, 51921.20, 32491.75, 36630.80, 56480.49, 52824.64, 27315.15, 0.00, 0.00, 0.00, 0.00
241, 48520.67, 51915.57, 32503.46, 36649.68, 56443.92, 52754.99, 27333.34, 0.00, 0.00, 0.00, 0.00
242, 48534.87, 51910.81, 32496.93, 36656.32, 56726.02, 53272.32, 27340.56, 0.00, 0.00, 0.00, 0.00
243, 48566.41, 51916.15, 32473.04, 36629.41, 56859.77, 53501.29, 27314.46, 0.00, 0.00, 0.00, 0.00
244, 48550.58, 51931.28, 32482.92, 36630.24, 56515.91, 52902.24, 27309.72, 0.00, 0.00, 0.00, 0.00
245, 48521.52, 51921.04, 32501.76, 36647.14, 56426.38, 52721.19, 27326.93, 0.00, 0.00, 0.00, 0.00
246, 48519.80, 51911.21, 32494.81, 36650.33, 56654.25, 53152.78, 27334.93, 0.00, 0.15, 0.93, 0.32
247, 48555.95, 51910.43, 32469.13, 36628.36, 56881.57, 53535.76, 27309.29, 0.00, 0.00, 0.00, 0.00
248, 48543.98, 51915.34, 32467.34, 36620.11, 56557.82, 52984.72, 27289.40, 0.00, 0.00, 0.00, 0.00
249, 48512.09, 51911.95, 32483.74, 36637.73, 56407.62, 52683.15, 27312.00, 0.00, 0.00, 0.00, 0.00
250, 48511.18, 51924.11, 32487.34, 36661.91, 56585.99, 53034.99, 27332.63, 0.00, 0.00, 0.00, 0.00
251, 48557.22, 51940.51, 32472.35, 36644.57, 56884.61, 53541.03, 27312.45, 0.00, 0.00, 0.00, 0.00
252, 48561.13, 51953.59, 32463.83, 36608.91, 56610.77, 53093.55, 27283.97, 0.00, 0.00, 0.00, 0.00
253, 48512.11, 51923.19, 32481.78, 36624.85, 56397.23, 52685.77, 27311.69, 0.00, 0.00, 0.00, 0.00
254, 48484.33, 51892.43, 32487.88, 36640.39, 56523.18, 52931.75, 27333.08, 0.00, 0.00, 0.00, 0.00
255, 48518.06, 51893.80, 32478.18, 36632.81, 56861.00, 53510.25, 27321.56, 0.00, 0.00, 0.00, 0.00
0, 48521.99, 51898.98, 32460.74, 36613.18, 56676.40, 53213.89, 27285.36, 0.00, 0.15, 0.93, 0.32
1, 48487.55, 51889.19, 32470.76, 36607.44, 56403.86, 52704.63, 27292.19, 0.00, 0.00, 0.00, 0.00
2, 48465.53, 51878.22, 32475.81, 36616.65, 56470.43, 52841.04, 27310.05, 0.00, 0.00, 0.00, 0.00
3, 48489.56, 51867.15, 32472.10, 36610.32, 56808.59, 53430.59, 27314.59, 0.00, 0.00, 0.00, 0.00
4, 48510.04, 51874.38, 32451.98, 36589.22, 56735.45, 53319.50, 27285.62, 0.00, 0.00, 0.00, 0.00
5, 48484.08, 51881.66, 32464.14, 36602.48, 56417.43, 52744.84, 27289.11, 0.00, 0.00, 0.00, 0.00
6, 48464.57, 51872.32, 32477.60, 36618.93, 56429.28, 52773.63, 27314.32, 0.00, 0.00, 0.00, 0.00
7, 48490.90, 51873.32, 32477.22, 36621.16, 56750.74, 53335.42, 27318.44, 0.00, 0.00, 0.00, 0.00
8, 48526.33, 51886.29, 32455.47, 36597.25, 56792.61, 53412.35, 27291.97, 0.00, 0.00, 0.00, 0.00
9, 48502.43, 51887.43, 32463.63, 36596.49, 56448.68, 52808.01, 27289.02, 0.00, 0.00, 0.00, 0.00
10, 48476.77, 51878.53, 32473.51, 36610.28, 56405.86, 52719.29, 27303.77, 0.00, 0.15, 0.94, 0.32
11, 48488.29, 51876.59, 32473.31, 36615.80, 56679.91, 53220.71, 27320.60, 0.00, 0.00, 0.00, 0.00
12, 48521.07, 51888.61, 32459.38, 36594.95, 56835.30, 53488.04, 27296.71, 0.00, 0.00, 0.00, 0.00
13, 48507.60, 51896.30, 32463.83, 36596.60, 56493.38, 52899.34, 27285.71, 0.00, 0.00, 0.00, 0.00
14, 48479.90, 51886.27, 32471.29, 36611.73, 56387.39, 52692.36, 27305.56, 0.00, 0.00, 0.00, 0.00
15, 48484.75, 51882.62, 32475.25, 36630.13, 56608.16, 53112.95, 27317.61, 0.00, 0.00, 0.00, 0.00
16, 48526.21, 51892.88, 32460.97, 36593.85, 56855.08, 53525.68, 27291.43, 0.00, 0.00, 0.00, 0.00
17, 48521.79, 51895.79, 32458.06, 36580.84, 56535.63, 52990.48, 27260.90, 0.00, 0.00, 0.00, 0.00
18, 48491.17, 51882.29, 32472.37, 36598.79, 56372.80, 52665.91, 27281.11, 0.00, 0.00, 0.00, 0.00
19, 48483.57, 51878.15, 32476.46, 36608.20, 56541.33, 52993.08, 27308.64, 0.00, 0.00, 0.00, 0.00
20, 48523.20, 51883.18, 32463.58, 36596.06, 56856.55, 53515.86, 27295.26, 0.00, 0.15, 0.93, 0.32
21, 48530.15, 51899.12, 32459.38, 36589.38, 56605.21, 53099.68, 27269.33, 0.00, 0.00, 0.00, 0.00
22, 48502.46, 51898.31, 32476.17, 36593.05, 56380.24, 52671.86, 27283.39, 0.00, 0.00, 0.00, 0.00
23, 48492.62, 51892.37, 32485.58, 36605.41, 56494.81, 52893.48, 27306.79, 0.00, 0.00, 0.00, 0.00
24, 48524.59, 51890.89, 32473.62, 36594.83, 56835.86, 53472.12, 27295.90, 0.00, 0.00, 0.00, 0.00
25, 48537.88, 51901.49, 32459.98, 36573.73, 56669.83, 53207.97, 27262.67, 0.00, 0.00, 0.00, 0.00
26, 48515.98, 51904.79, 32480.88, 36592.51, 56397.70, 52691.20, 27278.56, 0.00, 0.00, 0.00, 0.00
27, 48500.07, 51901.78, 32494.32, 36607.98, 56457.82, 52808.32, 27296.60, 0.00, 0.00, 0.00, 0.00
28, 48524.56, 51898.49, 32479.72, 36603.19, 56797.93, 53392.19, 27299.59, 0.00, 0.00, 0.00, 0.00
29, 48541.68, 51899.09, 32446.89, 36579.23, 56738.80, 53312.42, 27260.14, 0.00, 0.15, 0.93, 0.31
30, 48523.09, 51911.59, 32462.89, 36592.24, 56414.17, 52729.93, 27271.94, 0.00, 0.00, 0.00, 0.00
31, 48500.60, 51901.51, 32476.70, 36606.16, 56423.11, 52741.35, 27308.40, 0.00, 0.00, 0.00, 0.00
32, 48522.37, 51899.25, 32478.94, 36608.31, 56735.59, 53295.30, 27313.00, 0.00, 0.00, 0.00, 0.00
33, 48559.77, 51913.20, 32465.60, 36586.88, 56802.78, 53411.37, 27279.10, 0.00, 0.00, 0.00, 0.00
34, 48540.81, 51921.67, 32472.70, 36596.87, 56459.79, 52802.71, 27269.64, 0.00, 0.00, 0.00, 0.00
35, 48506.73, 51910.38, 32474.18, 36614.93, 56401.45, 52692.43, 27290.34, 0.00, 0.00, 0.00, 0.00
36, 48517.81, 51901.84, 32469.57, 36594.72, 56660.62, 53167.71, 27310.43, 0.00, 0.00, 0.00, 0.00
37, 48558.47, 51906.31, 32454.64, 36577.36, 56833.62, 53461.53, 27284.68, 0.00, 0.00, 0.00, 0.00
38, 48543.11, 51916.51, 32460.07, 36579.97, 56492.94, 52882.39, 27265.19, 0.00, 0.00, 0.00, 0.00
39, 48508.85, 51904.46, 32466.33, 36592.89, 56381.20, 52651.25, 27288.01, 0.00, 0.15, 0.93, 0.31
40, 48512.43, 51899.09, 32468.03, 36607.82, 56592.89, 53052.02, 27312.58, 0.00, 0.00, 0.00, 0.00
41, 48549.84, 51902.78, 32447.15, 36578.98, 56855.59, 53490.70, 27286.07, 0.00, 0.00, 0.00, 0.00
42, 48538.91, 51910.61, 32440.47, 36570.29, 56553.91, 52978.93, 27268.55, 0.00, 0.00, 0.00, 0.00
43, 48509.18, 51903.79, 32456.92, 36588.98, 56381.25, 52635.32, 27287.68, 0.00, 0.00, 0.00, 0.00
44, 48499.11, 51890.42, 32459.49, 36599.41, 56529.08, 52938.85, 27300.15, 0.00, 0.00, 0.00, 0.00
45, 48531.52, 51892.28, 32442.95, 36581.00, 56849.94, 53482.11, 27285.62, 0.00, 0.00, 0.00, 0.00
46, 48530.57, 51893.84, 32430.23, 36563.79, 56615.02, 53096.63, 27263.27, 0.00, 0.00, 0.00, 0.00
47, 48505.77, 51890.94, 32446.66, 36584.73, 56381.69, 52648.97, 27286.29, 0.00, 0.00, 0.00, 0.00
48, 48493.58, 51880.16, 32452.56, 36602.95, 56484.44, 52845.69, 27309.27, 0.00, 0.00, 0.00, 0.00
49, 48520.79, 51889.66, 32438.08, 36587.32, 56829.33, 53434.39, 27295.93, 0.00, 0.15, 0.94, 0.31
50, 48532.43, 51904.68, 32424.31, 36557.08, 56680.40, 53205.55, 27249.41, 0.00, 0.00, 0.00, 0.00
51, 48509.90, 51906.38, 32438.88, 36571.45, 56390.95, 52673.80, 27269.93, 0.00, 0.00, 0.00, 0.00
52, 48501.74, 51903.83, 32451.00, 36591.28, 56439.02, 52767.35, 27298.05, 0.00, 0.00, 0.00, 0.00
53, 48520.85, 51895.56, 32451.47, 36587.14, 56776.40, 53351.42, 27300.80, 0.00, 0.00, 0.00, 0.00
54, 48538.00, 51891.34, 32438.59, 36572.37, 56751.68, 53319.86, 27267.59, 0.00, 0.00, 0.00, 0.00
55, 48516.67, 51894.11, 32442.06, 36581.73, 56420.00, 52733.30, 27266.36, 0.00, 0.00, 0.00, 0.00
56, 48492.36, 51888.21, 32441.34, 36576.30, 56400.00, 52703.82, 27280.93, 0.00, 0.00, 0.00, 0.00
57, 48511.73, 51888.75, 32450.48, 36584.98, 56702.57, 53245.47, 27299.55, 0.00, 0.00, 0.00, 0.00
58, 48547.14, 51901.24, 32431.91, 36562.16, 56800.90, 53410.59, 27279.14, 0.00, 0.00, 0.00, 0.00
59, 48533.48, 51908.95, 32445.75, 36567.59, 56457.58, 52806.69, 27279.25, 0.00, 0.14, 0.94, 0.31
60, 48504.91, 51897.93, 32461.28, 36593.98, 56393.67, 52679.11, 27298.03, 0.00, 0.00, 0.00, 0.00
61, 48517.14, 51897.80, 32464.07, 36598.77, 56644.41, 53148.87, 27306.32, 0.00, 0.00, 0.00, 0.00
62, 48558.36, 51911.07, 32444.65, 36568.70, 56840.91, 53481.31, 27280.26, 0.00, 0.00, 0.00, 0.00
63, 48554.16, 51930.52, 32447.22, 36574.05, 56505.50, 52914.51, 27265.08, 0.00, 0.00, 0.00, 0.00
64, 48521.66, 51920.06, 32456.03, 36588.95, 56378.99, 52661.45, 27282.83, 0.00, 0.00, 0.00, 0.00
65, 48511.18, 51899.74, 32448.65, 36590.96, 56567.77, 53036.75, 27288.91, 0.00, 0.00, 0.00, 0.00
66, 48545.55, 51900.05, 32427.64, 36573.44, 56838.79, 53508.27, 27268.14, 0.00, 0.00, 0.00, 0.00
67, 48542.20, 51914.65, 32422.52, 36558.91, 56543.79, 53014.47, 27251.89, 0.00, 0.00, 0.00, 0.00
68, 48506.43, 51906.80, 32432.78, 36566.54, 56357.84, 52640.55, 27272.21, 0.00, 0.15, 0.93, 0.30
69, 48493.09, 51886.11, 32435.06, 36572.95, 56491.98, 52914.60, 27280.21, 0.00, 0.00, 0.00, 0.00
70, 48523.87, 51880.68, 32424.24, 36553.13, 56814.40, 53463.54, 27265.06, 0.00, 0.00, 0.00, 0.00
71, 48530.64, 51892.12, 32407.30, 36530.68, 56594.57, 53102.73, 27239.58, 0.00, 0.00, 0.00, 0.00
72, 48506.30, 51898.65, 32425.09, 36548.52, 56350.27, 52635.56, 27261.48, 0.00, 0.00, 0.00, 0.00
73, 48486.83, 51883.36, 32427.75, 36562.63, 56439.85, 52815.54, 27283.50, 0.00, 0.00, 0.00, 0.00
74, 48513.52, 51868.68, 32419.75, 36557.13, 56779.31, 53399.61, 27275.39, 0.00, 0.00, 0.00, 0.00
75, 48528.05, 51872.38, 32408.38, 36529.07, 56662.30, 53213.55, 27247.09, 0.00, 0.00, 0.00, 0.00
76, 48500.69, 51878.98, 32428.22, 36540.09, 56366.49, 52668.33, 27258.60, 0.00, 0.00, 0.00, 0.00
77, 48482.25, 51874.62, 32434.82, 36558.82, 56403.80, 52737.46, 27283.48, 0.00, 0.00, 0.00, 0.00
78, 48507.26, 51874.08, 32434.26, 36569.75, 56733.78, 53310.85, 27286.76, 0.00, 0.15, 0.94, 0.31
79, 48531.52, 51872.16, 32420.06, 36542.64, 56732.46, 53318.54, 27249.86, 0.00, 0.00, 0.00, 0.00
80, 48509.16, 51886.73, 32428.54, 36536.20, 56400.78, 52723.47, 27254.24, 0.00, 0.00, 0.00, 0.00
81, 48475.66, 51867.09, 32436.49, 36551.56, 56379.37, 52679.26, 27273.71, 0.00, 0.00, 0.00, 0.00
82, 48484.02, 51860.61, 32441.37, 36560.88, 56669.61, 53201.71, 27282.49, 0.00, 0.00, 0.00, 0.00
83, 48511.42, 51865.61, 32426.32, 36522.82, 56780.71, 53397.78, 27240.67, 0.00, 0.00, 0.00, 0.00
84, 48497.38, 51873.57, 32437.12, 36525.54, 56432.41, 52796.52, 27238.24, 0.00, 0.00, 0.00, 0.00
85, 48467.54, 51867.58, 32450.87, 36542.17, 56356.52, 52634.89, 27276.35, 0.00, 0.00, 0.00, 0.00
86, 48476.86, 51866.55, 32456.74, 36550.53, 56602.41, 53084.48, 27283.99, 0.00, 0.00, 0.00, 0.00
87, 48515.49, 51873.30, 32435.58, 36532.05, 56825.35, 53448.88, 27251.20, 0.00, 0.00, 0.00, 0.00
88, 48507.71, 51876.14, 32426.79, 36527.13, 56488.54, 52892.03, 27247.13, 0.00, 0.16, 0.93, 0.31
89, 48475.77, 51859.04, 32438.86, 36539.60, 56347.16, 52616.21, 27281.73, 0.00, 0.00, 0.00, 0.00
90, 48469.40, 51863.91, 32441.50, 36547.74, 56533.35, 52980.90, 27297.11, 0.00, 0.00, 0.00, 0.00
91, 48506.75, 51872.79, 32431.33, 36534.13, 56826.87, 53474.38, 27283.16, 0.00, 0.00, 0.00, 0.00
92, 48504.58, 51882.71, 32422.17, 36523.84, 56546.96, 53012.82, 27260.88, 0.00, 0.00, 0.00, 0.00
93, 48475.37, 51878.91, 32433.23, 36538.37, 56343.45, 52619.76, 27277.26, 0.00, 0.00, 0.00, 0.00
94, 48466.14, 51867.58, 32438.33, 36547.47, 56473.65, 52879.33, 27292.80, 0.00, 0.00, 0.00, 0.00
95, 48500.13, 51868.43, 32430.01, 36536.56, 56807.27, 53443.33, 27280.77, 0.00, 0.00, 0.00, 0.00
96, 48512.92, 51883.58, 32419.57, 36527.20, 56611.18, 53126.36, 27251.71, 0.00, 0.00, 0.00, 0.00
97, 48485.16, 51878.87, 32433.52, 36536.56, 56353.11, 52642.74, 27261.88, 0.00, 0.00, 0.00, 0.00
98, 48469.58, 51865.30, 32440.36, 36541.01, 56429.73, 52799.20, 27276.86, 0.00, 0.15, 0.92, 0.32
99, 48500.24, 51863.11, 32436.83, 36535.94, 56772.00, 53384.61, 27275.47, 0.00, 0.00, 0.00, 0.00
100, 48516.02, 51860.14, 32418.59, 36516.71, 56679.44, 53238.41, 27251.38, 0.00, 0.00, 0.00, 0.00
101, 48489.92, 51856.74, 32430.46, 36524.34, 56374.59, 52673.63, 27254.82, 0.00, 0.00, 0.00, 0.00
102, 48470.11, 51847.29, 32436.81, 36535.18, 56390.50, 52713.77, 27267.70, 0.00, 0.00, 0.00, 0.00
103, 48489.94, 51847.57, 32438.84, 36532.36, 56714.24, 53281.55, 27280.95, 0.00, 0.00, 0.00, 0.00
104, 48514.93, 51864.38, 32423.42, 36509.52, 56746.59, 53334.43, 27254.78, 0.00, 0.00, 0.00, 0.00
105, 48494.32, 51874.73, 32432.96, 36531.60, 56407.46, 52735.70, 27246.87, 0.00, 0.00, 0.00, 0.00
106, 48462.80, 51855.00, 32439.20, 36532.36, 56373.60, 52666.61, 27266.11, 0.00, 0.00, 0.00, 0.00
107, 48473.02, 51842.84, 32437.81, 36511.80, 56648.44, 53167.85, 27274.07, 0.00, 0.00, 0.00, 0.00
108, 48510.32, 51851.33, 32420.53, 36497.67, 56786.28, 53402.34, 27246.62, 0.00, 0.15, 0.93, 0.32
109, 48500.76, 51867.45, 32424.69, 36506.79, 56444.61, 52810.22, 27238.24, 0.00, 0.00, 0.00, 0.00
110, 48475.03, 51857.03, 32437.25, 36520.71, 56352.95, 52622.09, 27254.15, 0.00, 0.00, 0.00, 0.00
111, 48470.72, 51843.55, 32430.39, 36525.01, 56577.88, 53047.80, 27266.98, 0.00, 0.00, 0.00, 0.00
112, 48503.93, 51846.19, 32418.54, 36507.53, 56805.53, 53436.40, 27247.11, 0.00, 0.00, 0.00, 0.00
113, 48496.33, 51858.91, 32423.15, 36509.90, 56485.74, 52894.11, 27227.13, 0.00, 0.00, 0.00, 0.00
114, 48471.59, 51857.23, 32446.26, 36532.07, 56343.54, 52598.39, 27255.74, 0.00, 0.00, 0.00, 0.00
115, 48468.59, 51847.51, 32451.71, 36540.56, 56519.71, 52940.46, 27284.82, 0.00, 0.00, 0.00, 0.00
116, 48500.22, 51848.73, 32432.94, 36520.47, 56819.52, 53450.95, 27268.93, 0.00, 0.00, 0.00, 0.00
117, 48498.88, 51860.67, 32419.44, 36506.68, 56554.56, 53014.11, 27236.99, 0.00, 0.14, 0.93, 0.32
118, 48473.82, 51861.63, 32437.77, 36523.53, 56340.57, 52601.57, 27251.94, 0.00, 0.00, 0.00, 0.00
119, 48464.91, 51847.57, 32445.19, 36535.54, 56462.27, 52839.34, 27268.26, 0.00, 0.00, 0.00, 0.00
120, 48501.59, 51848.42, 32442.57, 36528.63, 56799.67, 53410.32, 27259.52, 0.00, 0.00, 0.00, 0.00
121, 48516.00, 51862.10, 32434.46, 36514.50, 56624.16, 53123.93, 27233.16, 0.00, 0.00, 0.00, 0.00
122, 48486.81, 51863.62, 32443.89, 36525.21, 56355.54, 52619.76, 27242.21, 0.00, 0.00, 0.00, 0.00
123, 48463.74, 51850.26, 32444.07, 36538.44, 56413.75, 52750.61, 27260.68, 0.00, 0.00, 0.00, 0.00
124, 48493.80, 51849.79, 32440.36, 36539.38, 56755.46, 53330.61, 27259.96, 0.00, 0.00, 0.00, 0.00
125, 48516.34, 51859.09, 32421.00, 36510.32, 56690.06, 53221.94, 27224.63, 0.00, 0.00, 0.00, 0.00
126, 48491.19, 51863.89, 32432.25, 36519.17, 56374.63, 52648.68, 27232.67, 0.00, 0.00, 0.00, 0.00
127, 48466.43, 51849.79, 32440.49, 36544.50, 56387.70, 52668.44, 27253.46, 0.00, 0.14, 0.93, 0.33
128, 48486.92, 51845.90, 32437.88, 36528.94, 56705.32, 53223.48, 27253.73, 0.00, 0.00, 0.00, 0.00
129, 48513.21, 51852.98, 32419.33, 36502.72, 56748.42, 53313.51, 27220.09, 0.00, 0.00, 0.00, 0.00
130, 48491.64, 51864.05, 32433.90, 36502.05, 56409.57, 52714.89, 27222.84, 0.00, 0.00, 0.00, 0.00
131, 48468.95, 51858.46, 32446.24, 36525.54, 56364.95, 52623.16, 27248.97, 0.00, 0.00, 0.00, 0.00
132, 48475.88, 51845.47, 32440.90, 36529.25, 56632.52, 53113.40, 27266.47, 0.00, 0.00, 0.00, 0.00
133, 48510.17, 51848.13, 32419.10, 36502.92, 56793.03, 53387.56, 27237.83, 0.00, 0.00, 0.00, 0.00
134, 48501.36, 51866.17, 32425.25, 36507.19, 56448.61, 52804.79, 27221.94, 0.00, 0.00, 0.00, 0.00
135, 48474.32, 51859.53, 32438.91, 36521.88, 56343.92, 52594.12, 27242.78, 0.00, 0.00, 0.00, 0.00
136, 48476.84, 51852.94, 32442.46, 36528.96, 56557.27, 52999.94, 27257.77, 0.00, 0.00, 0.00, 0.00
137, 48516.05, 51860.02, 32427.93, 36511.42, 56805.93, 53421.98, 27235.33, 0.00, 0.15, 0.93, 0.32
138, 48509.74, 51867.85, 32424.54, 36500.60, 56499.57, 52904.61, 27217.88, 0.00, 0.00, 0.00, 0.00
139, 48478.88, 51861.66, 32437.92, 36513.25, 56335.56, 52576.96, 27239.09, 0.00, 0.00, 0.00, 0.00
140, 48468.84, 51852.71, 32442.04, 36524.27, 56497.54, 52889.55, 27262.15, 0.00, 0.00, 0.00, 0.00
141, 48508.29, 51858.77, 32435.33, 36514.41, 56808.30, 53410.99, 27246.33, 0.00, 0.00, 0.00, 0.00
142, 48508.80, 51866.68, 32416.13, 36502.54, 56557.98, 53000.59, 27214.21, 0.00, 0.00, 0.00, 0.00
143, 48476.21, 51858.71, 32432.51, 36516.91, 56334.66, 52568.44, 27230.21, 0.00, 0.00, 0.00, 0.00
144, 48459.77, 51844.96, 32439.38, 36504.27, 56443.11, 52780.94, 27250.31, 0.00, 0.00, 0.00, 0.00
145, 48494.05, 51845.72, 32432.36, 36496.73, 56780.18, 53355.82, 27246.13, 0.00, 0.00, 0.00, 0.00
146, 48507.22, 51856.13, 32417.70, 36478.79, 56626.33, 53101.57, 27208.06, 0.00, 0.00, 0.00, 0.00
147, 48477.38, 51850.99, 32432.63, 36491.52, 56350.42, 52580.51, 27220.42, 0.00, 0.15, 0.93, 0.31
148, 48464.04, 51848.29, 32442.53, 36512.67, 56399.17, 52688.83, 27248.18, 0.00, 0.00, 0.00, 0.00
149, 48490.41, 51848.47, 32431.71, 36508.31, 56732.75, 53270.66, 27245.50, 0.00, 0.00, 0.00, 0.00
150, 48508.83, 51850.66, 32408.93, 36472.26, 56688.70, 53203.54, 27208.24, 0.00, 0.00, 0.00, 0.00
151, 48483.12, 51846.50, 32418.61, 36477.58, 56368.68, 52624.92, 27209.54, 0.00, 0.00, 0.00, 0.00
152, 48460.08, 51836.27, 32431.44, 36493.22, 56367.14, 52618.38, 27227.42, 0.00, 0.00, 0.00, 0.00
153, 48474.00, 51836.18, 32430.99, 36497.22, 56669.25, 53162.32, 27241.93, 0.00, 0.00, 0.00, 0.00
154, 48511.75, 51853.39, 32413.18, 36479.57, 56738.40, 53295.05, 27213.70, 0.00, 0.00, 0.00, 0.00
155, 48494.66, 51861.30, 32421.92, 36484.06, 56402.39, 52696.11, 27207.75, 0.00, 0.00, 0.00, 0.00
156, 48461.82, 51845.79, 32430.99, 36496.39, 56344.48, 52576.09, 27226.41, 0.00, 0.00, 0.00, 0.00
157, 48469.60, 51838.03, 32422.84, 36501.67, 56597.01, 53047.35, 27245.86, 0.00, 0.15, 0.93, 0.31
158, 48503.38, 51841.14, 32406.79, 36479.99, 56772.56, 53351.87, 27213.45, 0.00, 0.00, 0.00, 0.00
159, 48486.83, 51842.10, 32407.21, 36471.88, 56436.54, 52780.36, 27204.51, 0.00, 0.00, 0.00, 0.00
160, 48462.87, 51838.86, 32427.40, 36489.87, 56321.66, 52541.80, 27237.39, 0.00, 0.00, 0.00, 0.00
161, 48467.21, 51820.48, 32423.57, 36487.28, 56519.04, 52922.54, 27241.88, 0.00, 0.00, 0.00, 0.00
162, 48510.39, 51828.33, 32403.55, 36472.75, 56784.85, 53371.89, 27222.77, 0.00, 0.00, 0.00, 0.00
163, 48502.59, 51851.04, 32408.42, 36480.88, 56499.69, 52891.73, 27219.75, 0.00, 0.00, 0.00, 0.00
164, 48477.11, 51861.07, 32425.27, 36508.51, 56326.75, 52551.39, 27245.52, 0.00, 0.00, 0.00, 0.00
165, 48478.74, 51864.83, 32428.20, 36516.67, 56471.34, 52841.04, 27256.28, 0.00, 0.00, 0.00, 0.00
166, 48524.72, 51881.55, 32416.20, 36510.48, 56789.61, 53383.34, 27239.51, 0.00, 0.15, 0.93, 0.32
167, 48531.85, 51902.07, 32403.41, 36512.56, 56567.52, 53014.87, 27213.72, 0.00, 0.00, 0.00, 0.00
168, 48510.13, 51909.45, 32424.00, 36514.21, 56337.50, 52560.15, 27236.79, 0.00, 0.00, 0.00, 0.00
169, 48493.32, 51895.43, 32419.95, 36522.21, 56427.16, 52752.86, 27258.20, 0.00, 0.00, 0.00, 0.00
170, 48519.78, 51887.32, 32409.98, 36512.82, 56757.61, 53340.29, 27251.89, 0.00, 0.00, 0.00, 0.00
171, 48534.04, 51896.37, 32392.79, 36491.32, 56632.97, 53136.89, 27219.15, 0.00, 0.00, 0.00, 0.00
172, 48507.69, 51902.67, 32405.80, 36505.09, 56343.56, 52595.62, 27224.16, 0.00, 0.00, 0.00, 0.00
173, 48497.41, 51904.95, 32418.59, 36525.16, 56380.98, 52679.35, 27251.09, 0.00, 0.00, 0.00, 0.00
174, 48519.69, 51895.47, 32407.99, 36522.50, 56705.21, 53259.40, 27257.44, 0.00, 0.00, 0.00, 0.00
175, 48548.25, 51904.08, 32391.57, 36502.36, 56690.57, 53243.17, 27223.46, 0.00, 0.00, 0.00, 0.00
176, 48529.30, 51909.64, 32401.11, 36506.45, 56366.54, 52642.58, 27215.84, 0.00, 0.15, 0.93, 0.31
177, 48498.66, 51898.65, 32408.53, 36510.66, 56346.98, 52610.06, 27235.09, 0.00, 0.00, 0.00, 0.00
178, 48513.57, 51892.37, 32404.98, 36511.75, 56638.83, 53152.69, 27253.19, 0.00, 0.00, 0.00, 0.00
179, 48545.57, 51899.61, 32385.24, 36488.44, 56742.92, 53323.82, 27225.18, 0.00, 0.00, 0.00, 0.00
180, 48528.41, 51904.62, 32391.95, 36490.20, 56406.93, 52709.73, 27211.37, 0.00, 0.00, 0.00, 0.00
181, 48502.37, 51896.79, 32405.02, 36509.18, 56332.00, 52561.04, 27239.13, 0.00, 0.00, 0.00, 0.00
182, 48507.89, 51888.19, 32405.24, 36516.74, 56576.27, 53035.01, 27271.50, 0.00, 0.00, 0.00, 0.00
183, 48550.76, 51897.98, 32384.30, 36496.33, 56780.52, 53386.58, 27240.49, 0.00, 0.00, 0.00, 0.00
184, 48534.71, 51904.84, 32383.43, 36487.88, 56457.06, 52806.91, 27215.01, 0.00, 0.00, 0.00, 0.00
185, 48502.23, 51898.47, 32399.48, 36510.21, 56324.47, 52536.57, 27245.55, 0.00, 0.00, 0.00, 0.00
186, 48500.33, 51889.39, 32404.20, 36515.95, 56510.28, 52909.44, 27260.05, 0.00, 0.15, 0.92, 0.32
187, 48537.32, 51897.91, 32389.51, 36494.27, 56787.18, 53393.71, 27238.15, 0.00, 0.00, 0.00, 0.00
188, 48533.48, 51912.50, 32382.11, 36491.37, 56513.61, 52911.52, 27212.13, 0.00, 0.00, 0.00, 0.00
189, 48503.86, 51901.24, 32392.44, 36504.89, 56321.32, 52531.34, 27226.77, 0.00, 0.00, 0.00, 0.00
190, 48495.46, 51889.10, 32397.85, 36497.67, 56445.68, 52801.93, 27242.82, 0.00, 0.00, 0.00, 0.00
191, 48531.31, 51887.36, 32390.49, 36490.09, 56764.85, 53365.04, 27230.66, 0.00, 0.00, 0.00, 0.00
192, 48546.58, 51900.82, 32381.78, 36474.27, 56563.81, 53015.45, 27201.00, 0.00, 0.00, 0.00, 0.00
193, 48519.51, 51897.08, 32392.33, 36484.33, 56311.98, 52524.52, 27208.29, 0.00, 0.00, 0.00, 0.00
194, 48499.66, 51885.62, 32390.56, 36489.71, 56388.15, 52689.63, 27218.63, 0.00, 0.00, 0.00, 0.00
195, 48528.79, 51885.39, 32384.44, 36481.53, 56720.19, 53281.26, 27225.79, 0.00, 0.00, 0.00, 0.00
196, 48546.33, 51898.27, 32372.54, 36455.87, 56631.36, 53112.64, 27202.05, 0.00, 0.15, 0.93, 0.31
197, 48523.07, 51906.58, 32391.65, 36476.32, 56342.60, 52556.35, 27216.96, 0.00, 0.00, 0.00, 0.00
198, 48498.86, 51897.53, 32395.19, 36488.57, 56363.18, 52621.46, 27240.99, 0.00, 0.00, 0.00, 0.00
199, 48523.94, 51896.57, 32388.39, 36484.44, 56673.14, 53194.60, 27246.84, 0.00, 0.00, 0.00, 0.00
200, 48554.43, 51911.32, 32373.13, 36468.81, 56687.13, 53224.40, 27213.05, 0.00, 0.00, 0.00, 0.00
201, 48528.61, 51914.88, 32375.90, 36469.15, 56358.04, 52621.19, 27204.38, 0.00, 0.00, 0.00, 0.00
202, 48506.12, 51897.64, 32388.30, 36480.32, 56324.67, 52565.73, 27232.20, 0.00, 0.00, 0.00, 0.00
203, 48519.36, 51883.98, 32384.50, 36486.00, 56598.50, 53089.62, 27240.94, 0.00, 0.00, 0.00, 0.00
