%OpenBCI Raw EEG Data
%
%Sample Rate = 250.0 Hz
%First Column = SampleIndex
%Other Columns = EEG data in microvolts followed by Accel Data (in G) interleaved with Aux Data
0, -5159.81, 22948.38, 9868.61, 5251.07, 3401.53, 6952.91, -8243.41, -24938.85, -0.03, 0.46, 0.16
1, -5489.30, 19804.16, 8221.40, 6252.77, 4192.65, 6091.99, -7243.57, -23949.09, 0.00, 0.00, 0.00
2, -5071.92, 20709.18, 9075.10, 5212.02, 4164.71, 6793.16, -8345.40, -24990.97, 0.00, 0.00, 0.00
3, -4766.04, 23644.08, 10616.18, 4283.42, 3381.22, 7604.20, -9247.39, -25882.96, 0.00, 0.00, 0.00
4, -5064.93, 23505.41, 10141.52, 4957.73, 3262.97, 7122.11, -8517.94, -25186.30, 0.00, 0.00, 0.00
5, -5512.25, 20308.21, 8348.22, 6117.56, 3957.40, 6116.69, -7358.40, -24029.44, 0.00, 0.00, 0.00
6, -5201.56, 20302.00, 8707.55, 5399.31, 4167.55, 6541.22, -8145.00, -24758.76, 0.00, 0.00, 0.00
7, -4796.30, 23352.97, 10407.89, 4271.60, 3407.10, 7494.96, -9266.76, -25861.32, -0.06, 0.94, 0.32
8, -4991.39, 23943.28, 10346.76, 4686.53, 3137.11, 7245.85, -8789.98, -25416.08, 0.00, 0.00, 0.00
9, -5455.43, 20931.36, 8553.77, 5999.50, 3783.21, 6190.92, -7459.40, -24106.40, 0.00, 0.00, 0.00
10, -5281.02, 19990.66, 8388.68, 5659.48, 4216.16, 6326.73, -7855.16, -24459.16, 0.00, 0.00, 0.00
11, -4820.29, 22951.42, 10139.06, 4340.55, 3500.86, 7373.95, -9175.52, -25752.54, 0.00, 0.00, 0.00
12, -4908.87, 24239.88, 10499.15, 4451.93, 3070.28, 7369.33, -9010.30, -25606.02, 0.00, 0.00, 0.00
13, -5399.51, 21650.14, 8841.03, 5740.62, 3567.32, 6331.15, -7682.38, -24309.60, 0.00, 0.00, 0.00
14, -5396.20, 19866.19, 8164.24, 5785.91, 4153.98, 6141.23, -7695.79, -24285.06, 0.00, 0.00, 0.00
15, -4916.24, 22524.70, 9834.95, 4392.88, 3546.84, 7186.82, -9119.27, -25667.29, 0.00, 0.00, 0.00
16, -4895.43, 24400.33, 10580.44, 4240.55, 2999.02, 7415.33, -9233.48, -25789.67, 0.00, 0.00, 0.00
17, -5354.40, 22381.23, 9164.93, 5469.47, 3363.74, 6464.93, -7951.28, -24547.36, -0.06, 0.92, 0.32
18, -5510.40, 19893.01, 8028.17, 5902.56, 4060.69, 5980.41, -7545.32, -24132.78, 0.00, 0.00, 0.00
19, -5006.30, 22005.31, 9472.11, 4581.53, 3669.06, 6954.88, -8916.20, -25439.93, 0.00, 0.00, 0.00
20, -4880.95, 24396.91, 10570.16, 4086.21, 2982.10, 7428.85, -9373.58, -25903.59, 0.00, 0.00, 0.00
21, -5291.60, 23081.24, 9476.92, 5138.91, 3160.96, 6625.17, -8252.82, -24829.70, 0.00, 0.00, 0.00
22, -5552.37, 20119.43, 7983.64, 5944.07, 3946.04, 5888.23, -7481.75, -24032.46, 0.00, 0.00, 0.00
23, -5100.27, 21517.15, 9084.53, 4752.56, 3749.13, 6710.31, -8718.39, -25224.46, 0.00, 0.00, 0.00
24, -4850.80, 24284.05, 10477.74, 4021.35, 3011.47, 7397.89, -9424.12, -25933.88, 0.00, 0.00, 0.00
25, -5209.65, 23720.74, 9771.15, 4825.21, 3007.56, 6793.48, -8573.84, -25101.46, 0.00, 0.00, 0.00
26, -5610.71, 20540.09, 8051.46, 5886.58, 3760.93, 5871.20, -7513.90, -24040.02, 0.00, 0.00, 0.00
27, -5256.06, 21086.05, 8715.59, 4963.85, 3812.27, 6465.49, -8492.48, -24973.85, -0.06, 0.92, 0.33
28, -4938.91, 24062.86, 10323.00, 3946.60, 3012.48, 7323.17, -9493.34, -25961.42, 0.00, 0.00, 0.00
29, -5182.83, 24250.95, 10035.20, 4522.96, 2863.62, 6939.28, -8859.09, -25351.30, 0.00, 0.00, 0.00
30, -5648.89, 21112.63, 8232.19, 5758.95, 3546.33, 5904.35, -7607.51, -24114.04, 0.00, 0.00, 0.00
31, -5393.39, 20712.33, 8386.02, 5199.31, 3859.83, 6214.97, -8232.06, -24686.58, 0.00, 0.00, 0.00
32, -4984.37, 23718.75, 10114.03, 3976.51, 3090.55, 7202.80, -9454.30, -25887.59, 0.00, 0.00, 0.00
33, -5126.91, 24581.49, 10224.56, 4287.31, 2786.46, 7044.46, -9085.38, -25545.41, 0.00, 0.00, 0.00
34, -5613.15, 21740.47, 8483.13, 5564.38, 3356.49, 5994.72, -7775.21, -24261.32, 0.00, 0.00, 0.00
35, -5503.78, 20422.05, 8095.11, 5392.87, 3852.52, 5987.67, -8003.98, -24450.24, 0.00, 0.00, 0.00
36, -5034.93, 23242.77, 9814.18, 4041.04, 3174.48, 7029.44, -9374.37, -25789.06, 0.00, 0.00, 0.00
37, -5081.67, 24762.49, 10328.38, 4056.66, 2697.05, 7115.50, -9308.54, -25743.38, -0.06, 0.92, 0.33
38, -5553.49, 22392.83, 8759.11, 5316.23, 3154.88, 6115.44, -8014.80, -24471.22, 0.00, 0.00, 0.00
39, -5600.16, 20332.22, 7897.23, 5521.06, 3777.76, 5812.53, -7853.80, -24278.84, 0.00, 0.00, 0.00
40, -5106.75, 22753.05, 9476.02, 4169.47, 3262.86, 6832.01, -9227.45, -25621.33, 0.00, 0.00, 0.00
41, -5052.25, 24888.71, 10390.30, 3831.54, 2623.96, 7171.80, -9521.60, -25926.64, 0.00, 0.00, 0.00
42, -5480.00, 23173.48, 9106.03, 4995.73, 2927.27, 6276.01, -8316.28, -24741.23, 0.00, 0.00, 0.00
43, -5663.17, 20477.51, 7810.21, 5613.04, 3683.37, 5685.03, -7737.77, -24140.60, 0.00, 0.00, 0.00
44, -5180.93, 22306.91, 9129.03, 4356.85, 3366.31, 6607.35, -9022.75, -25399.25, 0.00, 0.00, 0.00
45, -5023.67, 24851.85, 10360.55, 3748.30, 2634.85, 7170.08, -9597.19, -25983.37, 0.00, 0.00, 0.00
46, -5404.85, 23858.27, 9436.48, 4695.74, 2750.74, 6449.53, -8597.91, -25010.17, 0.00, 0.00, 0.00
47, -5745.00, 20790.61, 7840.79, 5584.99, 3495.30, 5632.15, -7716.47, -24123.77, -0.05, 0.93, 0.33
48, -5323.85, 21823.64, 8768.43, 4520.37, 3414.09, 6366.29, -8834.28, -25190.57, 0.00, 0.00, 0.00
49, -5033.99, 24678.09, 10262.45, 3670.27, 2667.37, 7131.61, -9654.97, -26006.48, 0.00, 0.00, 0.00
50, -5330.27, 24403.72, 9718.72, 4395.60, 2627.60, 6614.84, -8868.23, -25252.87, 0.00, 0.00, 0.00
51, -5747.57, 21235.68, 7957.96, 5516.72, 3349.61, 5650.01, -7751.90, -24142.54, 0.00, 0.00, 0.00
52, -5432.26, 21376.11, 8403.79, 4740.20, 3491.39, 6128.47, -8592.55, -24932.50, 0.00, 0.00, 0.00
53, -5061.60, 24380.41, 10074.87, 3637.39, 2709.55, 7048.69, -9687.47, -26013.25, 0.00, 0.00, 0.00
54, -5270.23, 24855.88, 9947.69, 4079.51, 2475.68, 6753.62, -9195.17, -25536.49, 0.00, 0.00, 0.00
55, -5735.75, 21848.07, 8164.82, 5327.05, 3120.48, 5713.24, -7929.84, -24285.08, 0.00, 0.00, 0.00
56, -5532.55, 21075.30, 8094.71, 4946.08, 3502.70, 5896.12, -8362.21, -24692.89, 0.00, 0.00, 0.00
57, -5078.61, 24016.19, 9829.22, 3699.12, 2788.40, 6906.80, -9620.17, -25929.90, -0.06, 0.93, 0.33
58, -5169.22, 25169.25, 10115.13, 3885.43, 2422.88, 6849.87, -9379.04, -25709.36, 0.00, 0.00, 0.00
59, -5648.08, 22526.85, 8439.46, 5159.52, 2954.48, 5818.27, -8058.72, -24422.65, 0.00, 0.00, 0.00
60, -5624.21, 20890.10, 7846.02, 5121.86, 3487.94, 5695.13, -8160.38, -24475.32, 0.00, 0.00, 0.00
61, -5130.60, 23562.22, 9517.04, 3794.92, 2884.11, 6736.23, -9514.49, -25791.23, 0.00, 0.00, 0.00
62, -5111.22, 25322.71, 10193.94, 3688.31, 2378.87, 6926.78, -9581.57, -25867.03, 0.00, 0.00, 0.00
63, -5566.01, 23233.47, 8743.24, 4891.86, 2760.91, 5974.24, -8319.54, -24638.75, 0.00, 0.00, 0.00
64, -5681.72, 20877.29, 7688.87, 5264.39, 3433.99, 5549.92, -7983.51, -24282.38, 0.00, 0.00, 0.00
65, -5199.75, 23064.52, 9168.33, 3930.40, 2979.06, 6537.64, -9353.91, -25616.55, 0.00, 0.00, 0.00
66, -5097.56, 25357.09, 10202.70, 3507.79, 2313.87, 6963.37, -9746.08, -26021.70, 0.00, 0.00, 0.00
67, -5494.82, 23930.07, 9058.69, 4596.93, 2548.41, 6135.20, -8611.68, -24908.49, -0.06, 0.92, 0.33
68, -5740.78, 21060.21, 7631.80, 5328.01, 3301.02, 5447.08, -7906.35, -24184.54, 0.00, 0.00, 0.00
69, -5288.62, 22557.92, 8793.38, 4123.85, 3051.33, 6292.53, -9142.74, -25384.41, 0.00, 0.00, 0.00
70, -5069.51, 25245.27, 10141.63, 3411.64, 2310.03, 6935.37, -9830.34, -26068.59, 0.00, 0.00, 0.00
71, -5403.58, 24553.57, 9373.00, 4274.50, 2374.83, 6291.66, -8925.70, -25178.77, 0.00, 0.00, 0.00
72, -5746.19, 21419.10, 7696.73, 5312.56, 3158.15, 5412.34, -7889.11, -24146.63, 0.00, 0.00, 0.00
73, -5353.85, 22088.39, 8439.55, 4372.63, 3176.50, 6057.37, -8876.17, -25096.18, 0.00, 0.00, 0.00
74, -5058.85, 25027.40, 10022.43, 3358.15, 2350.80, 6889.77, -9875.87, -26082.05, 0.00, 0.00, 0.00
75, -5310.82, 25078.77, 9655.95, 3978.59, 2242.17, 6455.25, -9208.49, -25435.61, 0.00, 0.00, 0.00
76, -5745.87, 21949.28, 7867.95, 5171.43, 2949.11, 5446.43, -8011.98, -24252.49, 0.00, 0.00, 0.00
77, -5499.89, 21709.87, 8101.95, 4512.93, 3151.75, 5807.39, -8725.83, -24927.16, -0.05, 0.92, 0.33
78, -5092.17, 24702.83, 9807.59, 3362.55, 2396.78, 6763.64, -9867.87, -26049.82, 0.00, 0.00, 0.00
79, -5241.53, 25463.40, 9855.84, 3709.79, 2130.01, 6565.96, -9468.94, -25674.20, 0.00, 0.00, 0.00
80, -5706.67, 22589.21, 8106.49, 4983.46, 2743.45, 5523.07, -8176.74, -24395.86, 0.00, 0.00, 0.00
81, -5591.91, 21440.55, 7810.37, 4715.26, 3162.17, 5581.95, -8506.87, -24684.97, 0.00, 0.00, 0.00
82, -5128.70, 24295.67, 9530.83, 3407.48, 2460.79, 6614.28, -9812.68, -25963.12, 0.00, 0.00, 0.00
83, -5170.81, 25711.30, 9980.46, 3478.62, 2046.55, 6657.40, -9692.23, -25861.97, 0.00, 0.00, 0.00
84, -5638.38, 23285.89, 8385.64, 4746.48, 2540.68, 5651.66, -8382.35, -24584.04, 0.00, 0.00, 0.00
85, -5677.88, 21324.99, 7585.11, 4884.75, 3134.56, 5403.27, -8298.00, -24468.54, 0.00, 0.00, 0.00
86, -5190.88, 23810.71, 9187.64, 3548.00, 2572.66, 6428.79, -9666.66, -25795.37, 0.00, 0.00, 0.00
87, -5127.11, 25792.88, 10017.11, 3329.65, 2024.60, 6714.08, -9841.07, -25983.21, -0.05, 0.92, 0.33
88, -5559.86, 23984.92, 8695.90, 4468.94, 2343.69, 5815.83, -8656.70, -24820.31, 0.00, 0.00, 0.00
89, -5719.65, 21374.71, 7466.69, 5019.82, 3073.97, 5279.24, -8136.84, -24288.95, 0.00, 0.00, 0.00
90, -5240.75, 23279.99, 8831.20, 3743.45, 2712.43, 6220.47, -9453.22, -25558.82, 0.00, 0.00, 0.00
91, -5092.82, 25729.52, 10004.39, 3200.39, 2020.49, 6737.46, -9964.12, -26072.53, 0.00, 0.00, 0.00
92, -5482.26, 24607.21, 9014.53, 4166.39, 2167.63, 5988.68, -8938.51, -25084.69, 0.00, 0.00, 0.00
93, -5780.54, 21610.74, 7471.20, 5014.46, 2913.17, 5219.83, -8112.34, -24250.81, 0.00, 0.00, 0.00
94, -5343.70, 22749.13, 8453.63, 3948.75, 2788.00, 5982.40, -9223.13, -25313.97, 0.00, 0.00, 0.00
95, -5073.42, 25547.69, 9909.94, 3132.22, 2036.49, 6713.73, -10018.30, -26101.61, 0.00, 0.00, 0.00
96, -5389.59, 25164.13, 9310.73, 3862.36, 2002.00, 6158.04, -9237.06, -25348.38, 0.00, 0.00, 0.00
97, -5797.93, 22025.05, 7585.31, 4924.04, 2716.99, 5219.31, -8169.81, -24294.96, -0.05, 0.92, 0.33
98, -5460.67, 22309.59, 8115.78, 4124.12, 2818.20, 5743.82, -9027.02, -25105.54, 0.00, 0.00, 0.00
99, -5102.39, 25275.11, 9752.31, 3077.19, 2048.65, 6627.49, -10052.14, -26121.54, 0.00, 0.00, 0.00
100, -5318.53, 25622.72, 9557.92, 3587.19, 1873.88, 6290.29, -9498.53, -25594.13, 0.00, 0.00, 0.00
101, -5760.92, 22584.40, 7780.73, 4846.04, 2563.88, 5268.69, -8236.26, -24349.52, 0.00, 0.00, 0.00
102, -5562.39, 21953.99, 7795.26, 4364.20, 2867.93, 5510.46, -8781.04, -24847.12, 0.00, 0.00, 0.00
103, -5143.49, 24893.34, 9516.21, 3122.52, 2109.18, 6503.20, -10028.13, -26051.63, 0.00, 0.00, 0.00
104, -5260.42, 25932.45, 9737.20, 3330.83, 1770.95, 6403.31, -9776.29, -25800.82, 0.00, 0.00, 0.00
105, -5730.70, 23232.87, 8044.42, 4615.64, 2341.43, 5364.19, -8452.85, -24499.10, 0.00, 0.00, 0.00
106, -5660.27, 21726.59, 7538.01, 4562.26, 2869.87, 5296.98, -8531.01, -24573.06, 0.00, 0.00, 0.00
107, -5187.24, 24457.90, 9232.57, 3220.57, 2209.63, 6339.98, -9889.82, -25896.51, -0.04, 0.93, 0.33
108, -5217.61, 26127.42, 9848.54, 3113.93, 1694.11, 6479.48, -9960.07, -25968.26, 0.00, 0.00, 0.00
109, -5679.04, 23954.01, 8363.62, 4332.21, 2115.93, 5504.94, -8701.13, -24729.30, 0.00, 0.00, 0.00
110, -5772.70, 21705.71, 7380.28, 4635.89, 2767.88, 5132.41, -8445.03, -24434.59, 0.00, 0.00, 0.00
111, -5288.36, 23967.26, 8890.81, 3312.10, 2275.72, 6121.49, -9799.21, -25751.78, 0.00, 0.00, 0.00
112, -5178.74, 26163.48, 9872.14, 2971.87, 1680.00, 6498.64, -10091.57, -26062.96, 0.00, 0.00, 0.00
113, -5585.39, 24628.43, 8683.79, 4064.26, 1956.11, 5657.58, -8963.54, -24950.34, 0.00, 0.00, 0.00
114, -5813.44, 21843.29, 7317.36, 4730.37, 2680.67, 5026.48, -8317.58, -24302.60, 0.00, 0.00, 0.00
115, -5335.07, 23447.87, 8529.78, 3557.55, 2416.07, 5900.84, -9537.20, -25478.02, 0.00, 0.00, 0.00
116, -5132.00, 26056.08, 9820.82, 2900.00, 1696.56, 6506.28, -10170.29, -26109.94, 0.00, 0.00, 0.00
117, -5472.62, 25253.02, 8995.71, 3791.82, 1797.30, 5838.70, -9225.93, -25195.53, -0.05, 0.92, 0.33
118, -5819.50, 22171.03, 7359.76, 4736.49, 2547.85, 5003.50, -8288.50, -24252.18, 0.00, 0.00, 0.00
119, -5436.97, 22976.43, 8165.09, 3738.69, 2482.79, 5681.50, -9336.01, -25248.55, 0.00, 0.00, 0.00
120, -5137.79, 25857.79, 9703.25, 2818.35, 1710.80, 6471.88, -10245.41, -26144.48, 0.00, 0.00, 0.00
121, -5408.32, 25784.14, 9274.16, 3463.51, 1631.65, 6004.01, -9545.94, -25470.59, 0.00, 0.00, 0.00
122, -5843.84, 22661.34, 7509.92, 4606.27, 2334.55, 5028.32, -8387.96, -24330.59, 0.00, 0.00, 0.00
123, -5561.02, 22563.77, 7822.08, 3945.08, 2522.15, 5438.60, -9103.44, -25004.65, 0.00, 0.00, 0.00
124, -5174.45, 25537.89, 9504.99, 2814.71, 1754.97, 6371.90, -10229.75, -26111.02, 0.00, 0.00, 0.00
125, -5355.12, 26191.24, 9493.86, 3174.62, 1503.40, 6132.00, -9819.77, -25719.28, 0.00, 0.00, 0.00
126, -5805.04, 23279.59, 7742.55, 4450.23, 2158.31, 5101.65, -8516.26, -24434.35, 0.00, 0.00, 0.00
127, -5680.79, 22282.86, 7538.30, 4105.17, 2523.65, 5224.74, -8905.40, -24790.23, -0.05, 0.93, 0.33
128, -5225.21, 25155.12, 9254.90, 2846.76, 1819.88, 6239.71, -10163.81, -26023.40, 0.00, 0.00, 0.00
129, -5288.98, 26464.91, 9643.37, 2942.58, 1430.62, 6237.70, -10022.12, -25896.89, 0.00, 0.00, 0.00
130, -5754.39, 23983.22, 8035.50, 4191.35, 1933.69, 5228.43, -8740.38, -24632.49, 0.00, 0.00, 0.00
131, -5748.27, 22141.99, 7316.62, 4292.54, 2517.72, 5035.13, -8680.50, -24546.35, 0.00, 0.00, 0.00
132, -5278.23, 24677.44, 8934.80, 2932.79, 1896.41, 6055.33, -10061.73, -25900.53, 0.00, 0.00, 0.00
133, -5240.95, 26574.53, 9710.02, 2745.93, 1355.21, 6286.83, -10207.93, -26059.29, 0.00, 0.00, 0.00
134, -5677.21, 24666.40, 8349.09, 3931.65, 1736.57, 5364.19, -8982.85, -24861.69, 0.00, 0.00, 0.00
135, -5833.65, 22179.14, 7199.34, 4391.27, 2428.70, 4887.86, -8548.76, -24409.47, 0.00, 0.00, 0.00
136, -5360.28, 24186.87, 8600.35, 3102.94, 2006.23, 5842.48, -9865.75, -25687.21, 0.00, 0.00, 0.00
137, -5225.57, 26566.03, 9716.55, 2621.28, 1345.37, 6310.43, -10308.31, -26142.29, -0.05, 0.92, 0.33
138, -5602.15, 25337.65, 8677.82, 3631.47, 1565.99, 5532.24, -9264.93, -25110.80, 0.00, 0.00, 0.00
139, -5882.71, 22402.55, 7184.25, 4422.07, 2316.13, 4809.45, -8489.66, -24335.80, 0.00, 0.00, 0.00
140, -5472.89, 23689.67, 8236.71, 3270.04, 2086.11, 5607.99, -9676.18, -25488.83, 0.00, 0.00, 0.00
141, -5235.38, 26429.69, 9639.12, 2497.67, 1331.23, 6281.18, -10437.53, -26231.74, 0.00, 0.00, 0.00
142, -5551.03, 25948.79, 8983.01, 3283.38, 1357.22, 5684.12, -9607.32, -25431.43, 0.00, 0.00, 0.00
143, -5917.65, 22823.83, 7280.41, 4364.80, 2126.12, 4775.32, -8514.07, -24352.07, 0.00, 0.00, 0.00
144, -5564.58, 23252.43, 7888.42, 3502.41, 2161.68, 5346.40, -9420.41, -25215.27, 0.00, 0.00, 0.00
145, -5217.55, 26182.45, 9498.17, 2496.35, 1376.33, 6196.51, -10415.67, -26195.39, 0.00, 0.00, 0.00
146, -5439.23, 26420.32, 9239.52, 3021.13, 1233.88, 5822.83, -9852.07, -25648.49, 0.00, 0.00, 0.00
147, -5880.05, 23371.83, 7467.07, 4226.09, 1921.98, 4820.40, -8634.23, -24444.72, -0.04, 0.93, 0.32
148, -5640.04, 22879.02, 7561.10, 3735.04, 2216.15, 5112.76, -9171.88, -24944.99, 0.00, 0.00, 0.00
149, -5230.26, 25826.19, 9271.44, 2517.05, 1453.22, 6091.74, -10392.76, -26137.26, 0.00, 0.00, 0.00
150, -5362.79, 26766.15, 9429.42, 2766.01, 1149.24, 5951.15, -10095.57, -25854.84, 0.00, 0.00, 0.00
151, -5812.12, 24026.63, 7731.56, 4046.00, 1767.55, 4929.92, -8792.37, -24568.50, 0.00, 0.00, 0.00
152, -5720.50, 22666.70, 7312.55, 3915.29, 2251.51, 4927.33, -8967.30, -24710.88, 0.00, 0.00, 0.00
153, -5249.73, 25405.35, 9001.52, 2623.78, 1584.72, 5951.64, -10268.37, -25981.09, 0.00, 0.00, 0.00
154, -5287.19, 26959.64, 9552.53, 2582.45, 1112.87, 6048.76, -10269.93, -26004.44, 0.00, 0.00, 0.00
155, -5759.80, 24716.92, 8041.67, 3777.62, 1537.04, 5071.54, -9039.40, -24799.73, 0.00, 0.00, 0.00
156, -5820.60, 22581.88, 7128.73, 4052.62, 2170.09, 4752.05, -8804.37, -24544.07, 0.00, 0.00, 0.00
157, -5337.19, 24904.27, 8664.83, 2735.27, 1628.91, 5749.29, -10149.86, -25853.10, -0.04, 0.93, 0.33
158, -5261.20, 27004.95, 9582.17, 2408.60, 1030.55, 6080.86, -10440.41, -26151.07, 0.00, 0.00, 0.00
159, -5693.48, 25389.41, 8353.76, 3487.50, 1314.80, 5220.38, -9318.91, -25056.69, 0.00, 0.00, 0.00
160, -5909.60, 22687.96, 7044.96, 4098.73, 2028.82, 4634.01, -8741.50, -24455.65, 0.00, 0.00, 0.00
161, -5439.39, 24392.30, 8305.48, 2899.94, 1708.19, 5524.66, -9983.47, -25648.89, 0.00, 0.00, 0.00
162, -5262.14, 26918.45, 9541.92, 2287.86, 1000.98, 6078.29, -10555.61, -26237.86, 0.00, 0.00, 0.00
163, -5619.07, 25997.60, 8653.95, 3204.10, 1135.83, 5373.56, -9578.62, -25303.25, 0.00, 0.00, 0.00
164, -5950.39, 22964.07, 7062.26, 4105.17, 1889.84, 4573.57, -8688.15, -24410.23, 0.00, 0.00, 0.00
165, -5562.16, 23892.85, 7928.92, 3075.62, 1765.68, 5279.17, -9765.83, -25434.92, 0.00, 0.00, 0.00
166, -5270.30, 26721.42, 9422.58, 2216.94, 1010.81, 6028.00, -10601.48, -26266.36, 0.00, 0.00, 0.00
167, -5529.31, 26534.74, 8932.16, 2918.22, 1002.41, 5526.49, -9853.39, -25540.98, -0.04, 0.92, 0.33
168, -5925.00, 23414.44, 7188.52, 4057.53, 1756.85, 4581.91, -8722.63, -24406.96, 0.00, 0.00, 0.00
169, -5627.10, 23457.22, 7584.93, 3333.25, 1876.38, 5048.12, -9494.19, -25147.61, 0.00, 0.00, 0.00
170, -5259.99, 26407.04, 9243.18, 2231.29, 1079.84, 5947.62, -10585.81, -26229.88, 0.00, 0.00, 0.00
171, -5443.59, 26941.88, 9159.72, 2635.49, 868.54, 5662.99, -10133.03, -25797.51, 0.00, 0.00, 0.00
172, -5895.38, 23998.69, 7403.37, 3868.17, 1522.91, 4643.15, -8874.89, -24558.89, 0.00, 0.00, 0.00
173, -5735.39, 23129.92, 7278.73, 3517.96, 1877.43, 4809.89, -9271.93, -24928.70, 0.00, 0.00, 0.00
174, -5303.73, 26000.80, 8988.89, 2289.44, 1152.88, 5805.33, -10525.64, -26154.02, 0.00, 0.00, 0.00
175, -5393.25, 27193.42, 9311.58, 2432.12, 792.26, 5758.95, -10351.43, -25991.86, 0.00, 0.00, 0.00
176, -5854.41, 24635.96, 7678.67, 3687.41, 1343.97, 4752.52, -9066.05, -24723.98, 0.00, 0.00, 0.00
177, -5831.93, 22933.54, 7046.52, 3713.25, 1878.80, 4620.53, -9079.52, -24712.60, -0.04, 0.93, 0.33
178, -5344.21, 25510.98, 8684.79, 2416.63, 1262.52, 5638.09, -10392.60, -26002.57, 0.00, 0.00, 0.00
179, -5329.57, 27307.15, 9395.89, 2253.61, 739.04, 5830.79, -10519.63, -26140.01, 0.00, 0.00, 0.00
180, -5771.80, 25320.03, 7996.29, 3425.05, 1135.78, 4903.73, -9313.44, -24952.97, 0.00, 0.00, 0.00
181, -5897.06, 22928.46, 6912.63, 3838.49, 1810.67, 4479.31, -8930.68, -24550.62, 0.00, 0.00, 0.00
182, -5432.73, 25014.46, 8348.40, 2530.17, 1334.78, 5441.04, -10268.06, -25844.52, 0.00, 0.00, 0.00
183, -5306.62, 27298.72, 9405.57, 2101.91, 713.33, 5863.40, -10668.84, -26238.04, 0.00, 0.00, 0.00
184, -5706.27, 25972.86, 8320.55, 3113.46, 940.74, 5069.51, -9618.20, -25218.91, 0.00, 0.00, 0.00
185, -5970.17, 23102.52, 6879.38, 3862.60, 1678.44, 4389.17, -8882.23, -24485.98, 0.00, 0.00, 0.00
186, -5527.79, 24488.03, 7987.55, 2730.44, 1432.64, 5207.60, -10053.64, -25621.02, 0.00, 0.00, 0.00
187, -5300.98, 27149.23, 9342.78, 2006.96, 699.34, 5841.81, -10762.36, -26317.77, -0.04, 0.93, 0.33
188, -5615.03, 26539.88, 8627.33, 2828.99, 775.34, 5223.04, -9890.22, -25467.38, 0.00, 0.00, 0.00
189, -5955.76, 23435.09, 6962.01, 3864.19, 1559.06, 4359.24, -8852.88, -24440.16, 0.00, 0.00, 0.00
190, -5584.05, 23985.12, 7642.71, 2983.94, 1558.12, 4972.93, -9772.96, -25334.34, 0.00, 0.00, 0.00
191, -5267.59, 26872.12, 9221.23, 2002.65, 761.59, 5790.35, -10742.49, -26300.56, 0.00, 0.00, 0.00
192, -5511.40, 26982.40, 8904.73, 2563.68, 646.26, 5374.05, -10146.84, -25720.08, 0.00, 0.00, 0.00
193, -5935.39, 23911.07, 7138.10, 3752.30, 1370.65, 4392.03, -8953.24, -24531.02, 0.00, 0.00, 0.00
194, -5682.42, 23561.20, 7309.76, 3186.49, 1599.98, 4739.20, -9569.72, -25107.29, 0.00, 0.00, 0.00
195, -5282.90, 26496.79, 8996.78, 2011.90, 821.72, 5692.85, -10736.97, -26251.90, 0.00, 0.00, 0.00
196, -5422.02, 27304.13, 9076.17, 2325.03, 568.58, 5511.14, -10356.12, -25905.47, 0.00, 0.00, 0.00
197, -5873.28, 24510.16, 7357.72, 3579.03, 1192.64, 4505.58, -9082.83, -24648.99, -0.04, 0.93, 0.33
198, -5774.48, 23293.13, 7015.30, 3359.60, 1590.84, 4558.95, -9364.44, -24889.36, 0.00, 0.00, 0.00
199, -5320.43, 26060.97, 8705.11, 2100.64, 888.41, 5567.15, -10639.00, -26139.16, 0.00, 0.00, 0.00
200, -5364.04, 27505.09, 9185.87, 2127.57, 470.53, 5615.47, -10577.43, -26084.19, 0.00, 0.00, 0.00
201, -5825.07, 25179.73, 7639.56, 3336.98, 953.39, 4639.08, -9333.95, -24860.91, 0.00, 0.00, 0.00
202, -5871.07, 23173.17, 6807.58, 3517.25, 1543.79, 4386.40, -9192.11, -24692.06, 0.00, 0.00, 0.00
203, -5382.52, 25568.96, 8375.89, 2211.77, 978.63, 5391.69, -10516.65, -25981.20, 0.00, 0.00, 0.00
204, -5312.50, 27568.71, 9233.42, 1946.10, 422.02, 5680.32, -10746.76, -26218.53, 0.00, 0.00, 0.00
205, -5734.25, 25845.28, 7959.52, 3053.87, 762.17, 4811.19, -9601.88, -25090.90, 0.00, 0.00, 0.00
206, -5927.32, 23235.71, 6717.77, 3599.32, 1458.94, 4286.73, -9079.97, -24553.17, 0.00, 0.00, 0.00
207, -5463.66, 25039.23, 8030.11, 2387.32, 1088.93, 5198.70, -10317.90, -25768.99, -0.05, 0.93, 0.32
208, -5296.80, 27500.60, 9223.60, 1833.25, 419.12, 5709.98, -10854.70, -26287.82, 0.00, 0.00, 0.00
209, -5673.32, 26471.42, 8286.60, 2755.84, 590.82, 4988.08, -9873.97, -25331.86, 0.00, 0.00, 0.00
210, -5977.62, 23489.13, 6739.41, 3624.31, 1343.65, 4230.02, -9000.51, -24476.84, 0.00, 0.00, 0.00
211, -5554.79, 24534.57, 7673.13, 2601.81, 1205.12, 4967.34, -10080.32, -25512.01, 0.00, 0.00, 0.00
212, -5314.91, 27309.12, 9125.32, 1734.90, 412.55, 5672.22, -10934.74, -26353.62, 0.00, 0.00, 0.00
213, -5612.05, 27011.99, 8574.22, 2437.46, 406.87, 5124.45, -10182.34, -25630.50, 0.00, 0.00, 0.00
214, -5988.12, 23905.59, 6852.33, 3559.36, 1174.94, 4200.65, -9060.77, -24518.66, 0.00, 0.00, 0.00
215, -5666.73, 24084.09, 7323.91, 2804.99, 1271.12, 4707.70, -9862.04, -25284.43, 0.00, 0.00, 0.00
216, -5318.69, 27005.73, 8954.38, 1738.97, 475.80, 5576.22, -10920.37, -26324.47, 0.00, 0.00, 0.00
217, -5500.56, 27419.69, 8805.65, 2210.30, 326.18, 5251.39, -10402.50, -25829.03, -0.05, 0.93, 0.32
218, -5949.61, 24453.34, 7051.89, 3401.91, 989.82, 4251.88, -9193.74, -24631.76, 0.00, 0.00, 0.00
219, -5766.95, 23731.27, 7007.25, 2991.47, 1293.74, 4470.53, -9655.86, -25061.94, 0.00, 0.00, 0.00
220, -5327.11, 26603.20, 8702.23, 1805.62, 574.35, 5441.80, -10842.23, -26234.29, 0.00, 0.00, 0.00
221, -5429.06, 27683.42, 8948.70, 1988.30, 243.77, 5351.10, -10613.88, -26026.21, 0.00, 0.00, 0.00
222, -5875.27, 25071.71, 7296.30, 3239.84, 828.67, 4354.30, -9348.73, -24771.77, 0.00, 0.00, 0.00
223, -5829.18, 23514.93, 6750.92, 3208.26, 1327.76, 4286.91, -9427.83, -24819.62, 0.00, 0.00, 0.00
224, -5373.27, 26144.12, 8400.97, 1889.24, 658.88, 5306.97, -10755.28, -26119.38, 0.00, 0.00, 0.00
225, -5383.80, 27856.84, 9047.02, 1760.83, 157.02, 5457.80, -10843.64, -26217.75, 0.00, 0.00, 0.00
226, -5831.12, 25784.86, 7601.63, 2935.10, 582.51, 4515.70, -9638.94, -25031.81, 0.00, 0.00, 0.00
227, -5916.35, 23505.72, 6582.21, 3305.13, 1245.19, 4141.51, -9307.24, -24674.92, 0.00, 0.00, 0.00
228, -5435.79, 25681.73, 8051.17, 2023.35, 745.48, 5116.78, -10626.00, -25945.64, -0.04, 0.93, 0.33
229, -5344.26, 27877.81, 9039.13, 1617.89, 114.24, 5491.22, -10999.99, -26323.94, 0.00, 0.00, 0.00
230, -5741.27, 26468.96, 7906.73, 2647.41, 377.05, 4678.06, -9917.51, -25275.40, 0.00, 0.00, 0.00
231, -5978.20, 23668.24, 6517.10, 3352.29, 1119.42, 4046.47, -9233.04, -24580.57, 0.00, 0.00, 0.00
232, -5527.23, 25167.64, 7683.37, 2212.96, 841.48, 4897.80, -10415.40, -25721.25, 0.00, 0.00, 0.00
233, -5322.58, 27755.32, 8986.25, 1547.28, 129.39, 5492.16, -11059.55, -26361.27, 0.00, 0.00, 0.00
234, -5664.47, 27035.24, 8211.05, 2376.08, 227.18, 4846.37, -10180.88, -25509.38, 0.00, 0.00, 0.00
235, -5997.91, 23974.90, 6579.24, 3370.17, 1002.19, 4019.65, -9187.80, -24528.22, 0.00, 0.00, 0.00
236, -5635.08, 24655.96, 7327.86, 2433.26, 934.53, 4673.95, -10166.15, -25468.45, 0.00, 0.00, 0.00
237, -5355.17, 27510.28, 8867.29, 1486.03, 132.68, 5454.97, -11102.69, -26391.55, 0.00, 0.00, 0.00
238, -5596.14, 27501.32, 8479.20, 2126.12, 85.32, 4996.64, -10432.79, -25744.16, -0.04, 0.93, 0.33
239, -6019.48, 24445.90, 6741.15, 3257.07, 793.80, 4043.65, -9307.06, -24623.69, 0.00, 0.00, 0.00
240, -5756.18, 24254.95, 7006.24, 2656.01, 972.55, 4437.85, -9951.13, -25237.44, 0.00, 0.00, 0.00
241, -5391.35, 27179.72, 8679.76, 1506.93, 178.64, 5357.91, -11097.42, -26369.96, 0.00, 0.00, 0.00
242, -5548.06, 27888.43, 8699.16, 1841.87, -57.51, 5125.68, -10725.08, -26010.37, 0.00, 0.00, 0.00
243, -5987.27, 25059.72, 6972.07, 3090.26, 604.79, 4118.02, -9457.80, -24752.57, 0.00, 0.00, 0.00
244, -5855.08, 23975.46, 6710.84, 2846.18, 1004.15, 4219.94, -9742.16, -25006.86, 0.00, 0.00, 0.00
245, -5418.89, 26764.04, 8394.96, 1583.33, 278.93, 5217.72, -11005.35, -26247.90, 0.00, 0.00, 0.00
246, -5470.70, 28101.77, 8802.07, 1662.93, -98.73, 5222.17, -10888.63, -26142.15, 0.00, 0.00, 0.00
247, -5923.35, 25720.84, 7233.67, 2858.10, 407.65, 4252.71, -9673.66, -24936.48, 0.00, 0.00, 0.00
248, -5939.24, 23848.89, 6486.12, 2978.01, 951.63, 4052.44, -9599.16, -24832.56, -0.05, 0.93, 0.33
249, -5462.63, 26294.39, 8072.96, 1678.24, 342.63, 5044.16, -10909.98, -26118.28, 0.00, 0.00, 0.00
250, -5396.00, 28198.20, 8869.80, 1494.42, -156.69, 5277.13, -11053.83, -26277.20, 0.00, 0.00, 0.00
251, -5822.45, 26382.41, 7553.64, 2613.12, 221.15, 4392.45, -9898.38, -25144.39, 0.00, 0.00, 0.00
252, -5990.63, 23876.20, 6386.45, 3099.47, 898.05, 3922.37, -9448.24, -24670.38, 0.00, 0.00, 0.00
253, -5538.67, 25774.94, 7742.33, 1846.08, 464.20, 4852.52, -10738.87, -25911.62, 0.00, 0.00, 0.00
254, -5385.29, 28141.81, 8874.33, 1359.86, -171.24, 5315.13, -11196.97, -26371.64, 0.00, 0.00, 0.00
255, -5746.66, 27007.79, 7891.46, 2333.52, 48.95, 4568.05, -10168.01, -25389.90, 0.00, 0.00, 0.00
0, -6034.46, 24095.69, 6403.53, 3138.54, 787.85, 3859.32, -9375.15, -24601.42, 0.00, 0.00, 0.00
1, -5635.90, 25264.49, 7407.14, 2057.79, 574.91, 4627.41, -10501.47, -25681.57, 0.00, 0.00, 0.00
2, -5387.64, 27963.60, 8814.59, 1302.88, -142.47, 5296.20, -11239.13, -26411.02, -0.05, 0.92, 0.33
3, -5679.78, 27545.13, 8196.21, 2045.72, -97.59, 4730.50, -10459.14, -25647.15, 0.00, 0.00, 0.00
4, -6051.78, 24469.75, 6497.85, 3093.06, 653.41, 3845.30, -9409.91, -24597.98, 0.00, 0.00, 0.00
5, -5729.44, 24794.12, 7045.36, 2304.58, 688.10, 4397.01, -10242.13, -25403.76, 0.00, 0.00, 0.00
6, -5428.50, 27680.76, 8641.05, 1267.95, -123.76, 5235.29, -11273.53, -26426.78, 0.00, 0.00, 0.00
7, -5658.66, 27985.25, 8420.50, 1754.19, -265.65, 4868.97, -10738.47, -25914.14, 0.00, 0.00, 0.00
8, -6074.96, 25001.74, 6666.25, 2985.28, 462.10, 3888.11, -9489.68, -24680.37, 0.00, 0.00, 0.00
9, -5868.47, 24429.99, 6710.64, 2521.34, 724.84, 4175.82, -10005.00, -25158.41, 0.00, 0.00, 0.00
10, -5473.36, 27312.15, 8398.73, 1331.27, -49.69, 5137.01, -11204.30, -26338.56, 0.00, 0.00, 0.00
11, -5601.73, 28290.45, 8584.32, 1544.62, -352.58, 5003.37, -10948.55, -26097.07, 0.00, 0.00, 0.00
12, -6058.71, 25639.89, 6919.03, 2764.33, 231.77, 4003.98, -9711.34, -24869.42, -0.05, 0.93, 0.33
13, -5994.09, 24215.90, 6456.28, 2668.22, 685.26, 3981.29, -9852.29, -24979.77, 0.00, 0.00, 0.00
14, -5549.71, 26878.11, 8120.01, 1381.81, -6.64, 4978.36, -11143.75, -26248.35, 0.00, 0.00, 0.00
15, -5563.95, 28461.53, 8698.70, 1338.02, -444.55, 5071.45, -11147.44, -26260.19, 0.00, 0.00, 0.00
16, -5991.81, 26308.72, 7229.81, 2531.74, 33.44, 4125.75, -9930.01, -25057.89, 0.00, 0.00, 0.00
17, -6078.22, 24154.41, 6296.96, 2807.16, 638.37, 3812.49, -9692.92, -24799.13, 0.00, 0.00, 0.00
18, -5625.75, 26395.35, 7805.70, 1510.80, 86.90, 4787.50, -11000.63, -26085.74, 0.00, 0.00, 0.00
19, -5548.31, 28505.58, 8744.02, 1155.83, -501.75, 5112.72, -11333.63, -26414.11, 0.00, 0.00, 0.00
20, -5950.97, 26982.82, 7552.14, 2202.63, -196.27, 4269.50, -10248.27, -25352.96, 0.00, 0.00, 0.00
21, -6145.52, 24279.20, 6228.63, 2882.35, 554.01, 3689.22, -9573.30, -24688.46, 0.00, 0.00, 0.00
22, -5696.79, 25887.95, 7448.94, 1718.56, 226.38, 4566.55, -10781.10, -25854.17, -0.05, 0.93, 0.33
23, -5517.77, 28408.08, 8696.79, 1082.67, -477.90, 5121.21, -11394.14, -26467.39, 0.00, 0.00, 0.00
24, -5855.24, 27590.84, 7864.66, 1952.11, -331.86, 4447.80, -10483.86, -25579.71, 0.00, 0.00, 0.00
25, -6163.96, 24580.88, 6269.91, 2896.09, 444.35, 3659.94, -9547.46, -24643.63, 0.00, 0.00, 0.00
26, -5778.28, 25409.95, 7094.06, 1933.67, 334.20, 4353.43, -10551.54, -25610.76, 0.00, 0.00, 0.00
27, -5499.20, 28204.50, 8591.97, 1046.51, -432.82, 5100.09, -11428.87, -26467.84, 0.00, 0.00, 0.00
28, -5754.61, 28095.98, 8146.50, 1680.27, -457.16, 4617.74, -10748.91, -25806.94, 0.00, 0.00, 0.00
29, -6138.39, 25037.93, 6418.64, 2806.84, 289.32, 3692.87, -9605.19, -24682.85, 0.00, 0.00, 0.00
30, -5857.36, 24990.28, 6768.13, 2132.40, 404.59, 4140.46, -10322.95, -25368.42, 0.00, 0.00, 0.00
31, -5485.34, 27878.23, 8414.74, 1073.87, -361.74, 5030.91, -11391.81, -26414.93, 0.00, 0.00, 0.00
32, -5670.46, 28467.81, 8372.38, 1419.29, -587.92, 4762.17, -11019.32, -26056.86, -0.04, 0.93, 0.33
33, -6116.53, 25609.31, 6648.88, 2628.86, 63.39, 3765.02, -9792.83, -24842.11, 0.00, 0.00, 0.00
34, -5962.04, 24659.56, 6477.40, 2331.76, 416.79, 3920.18, -10127.15, -25152.35, 0.00, 0.00, 0.00
35, -5540.75, 27462.43, 8168.65, 1083.97, -332.24, 4896.84, -11378.24, -26384.29, 0.00, 0.00, 0.00
36, -5615.32, 28695.35, 8519.99, 1184.55, -691.09, 4850.84, -11241.74, -26257.35, 0.00, 0.00, 0.00
37, -6057.75, 26236.72, 6921.17, 2402.03, -139.88, 3872.95, -9997.31, -25028.05, 0.00, 0.00, 0.00
38, -6052.09, 24491.05, 6251.43, 2480.91, 385.63, 3736.12, -9950.71, -24968.64, 0.00, 0.00, 0.00
39, -5577.83, 26977.33, 7856.62, 1230.87, -208.63, 4735.89, -11218.50, -26206.57, 0.00, 0.00, 0.00
40, -5550.81, 28794.70, 8595.32, 1046.31, -715.86, 4937.54, -11378.94, -26368.93, 0.00, 0.00, 0.00
41, -5991.16, 26906.87, 7238.48, 2143.85, -344.13, 4038.04, -10241.90, -25260.64, 0.00, 0.00, 0.00
42, -6110.74, 24502.74, 6130.39, 2610.44, 343.52, 3612.13, -9806.47, -24808.24, -0.04, 0.93, 0.33
43, -5650.83, 26482.08, 7521.92, 1361.60, -115.31, 4554.77, -11082.96, -26048.52, 0.00, 0.00, 0.00
44, -5540.53, 28780.87, 8598.29, 885.40, -769.24, 4980.17, -11523.46, -26503.60, 0.00, 0.00, 0.00
45, -5895.47, 27541.08, 7557.75, 1905.58, -489.93, 4219.03, -10462.99, -25475.31, 0.00, 0.00, 0.00
46, -6172.43, 24697.89, 6114.16, 2627.72, 216.95, 3564.16, -9758.19, -24760.59, 0.00, 0.00, 0.00
47, -5771.47, 25989.36, 7170.64, 1524.59, -54.67, 4363.26, -10896.74, -25862.89, 0.00, 0.00, 0.00
48, -5545.83, 28631.89, 8529.83, 814.34, -765.48, 4995.12, -11577.67, -26549.45, 0.00, 0.00, 0.00
49, -5841.67, 28112.26, 7859.32, 1584.40, -686.67, 4401.57, -10763.10, -25759.76, 0.00, 0.00, 0.00
50, -6194.83, 25060.28, 6191.50, 2588.44, 67.10, 3552.76, -9762.91, -24759.50, 0.00, 0.00, 0.00
51, -5854.53, 25513.93, 6810.75, 1756.85, 56.95, 4146.07, -10640.64, -25604.48, 0.00, 0.00, 0.00
52, -5535.21, 28363.54, 8379.09, 799.54, -712.06, 4956.19, -11580.71, -26541.27, -0.04, 0.92, 0.33
53, -5746.63, 28544.27, 8100.05, 1347.43, -783.97, 4566.66, -10988.94, -25966.49, 0.00, 0.00, 0.00
54, -6183.56, 25559.73, 6365.08, 2465.49, -109.05, 3614.01, -9860.00, -24842.58, 0.00, 0.00, 0.00
55, -5967.63, 25130.83, 6491.57, 1938.21, 81.49, 3931.60, -10434.98, -25388.16, 0.00, 0.00, 0.00
56, -5548.53, 27997.97, 8170.59, 832.49, -650.44, 4859.25, -11544.16, -26481.09, 0.00, 0.00, 0.00
57, -5683.65, 28871.10, 8300.86, 1077.38, -926.30, 4690.31, -11265.99, -26215.11, 0.00, 0.00, 0.00
58, -6119.77, 26167.97, 6622.37, 2322.32, -289.84, 3697.49, -9997.51, -24965.31, 0.00, 0.00, 0.00
59, -6041.50, 24874.38, 6241.10, 2160.77, 127.70, 3733.84, -10192.10, -25137.29, 0.00, 0.00, 0.00
60, -5615.12, 27571.66, 7912.65, 883.18, -586.53, 4728.15, -11478.22, -26401.01, 0.00, 0.00, 0.00
61, -5637.62, 29053.56, 8427.01, 892.15, -981.53, 4783.56, -11438.33, -26371.68, 0.00, 0.00, 0.00
62, -6059.76, 26821.09, 6927.54, 2092.01, -467.91, 3833.97, -10207.91, -25161.96, -0.04, 0.93, 0.33
63, -6106.00, 24779.63, 6068.23, 2325.99, 127.76, 3576.70, -10006.07, -24934.87, 0.00, 0.00, 0.00
64, -5650.95, 27079.34, 7596.31, 1037.05, -447.53, 4563.73, -11310.14, -26214.55, 0.00, 0.00, 0.00
65, -5588.74, 29101.84, 8478.71, 733.83, -1014.97, 4851.11, -11580.64, -26494.66, 0.00, 0.00, 0.00
66, -5982.80, 27477.91, 7246.97, 1809.24, -658.39, 3995.69, -10477.47, -25403.90, 0.00, 0.00, 0.00
67, -6164.83, 24867.88, 5987.16, 2394.52, 51.36, 3465.48, -9922.05, -24827.36, 0.00, 0.00, 0.00
68, -5738.83, 26591.18, 7256.27, 1160.95, -361.61, 4357.00, -11184.37, -26046.38, 0.00, 0.00, 0.00
69, -5579.53, 29039.23, 8451.33, 595.54, -1035.94, 4860.07, -11696.29, -26589.68, 0.00, 0.00, 0.00
70, -5918.00, 28118.25, 7567.92, 1498.10, -849.99, 4159.95, -10748.95, -25680.41, 0.00, 0.00, 0.00
71, -6221.21, 25157.31, 6010.85, 2376.30, -98.03, 3406.52, -9898.00, -24812.89, 0.00, 0.00, 0.00
72, -5822.14, 26113.70, 6900.85, 1399.71, -246.00, 4125.80, -10916.84, -25792.28, -0.04, 0.93, 0.33
73, -5547.75, 28847.09, 8351.37, 588.41, -975.12, 4830.01, -11718.91, -26583.09, 0.00, 0.00, 0.00
74, -5815.14, 28630.55, 7844.12, 1250.54, -970.13, 4318.33, -11023.57, -25904.42, 0.00, 0.00, 0.00
75, -6186.16, 25577.66, 6132.27, 2350.33, -210.04, 3420.13, -9913.47, -24800.58, 0.00, 0.00, 0.00
76, -5913.04, 25666.80, 6549.98, 1608.45, -165.16, 3906.64, -10694.93, -25550.93, 0.00, 0.00, 0.00
77, -5585.54, 28544.25, 8174.35, 547.75, -970.54, 4765.41, -11744.17, -26594.35, 0.00, 0.00, 0.00
78, -5767.06, 29015.65, 8064.42, 986.47, -1120.94, 4452.83, -11266.37, -26139.63, 0.00, 0.00, 0.00
79, -6190.38, 26125.59, 6339.49, 2194.56, -429.76, 3475.32, -10044.74, -24927.63, 0.00, 0.00, 0.00
80, -6013.27, 25320.99, 6249.64, 1846.79, -117.17, 3684.15, -10435.58, -25292.76, 0.00, 0.00, 0.00
81, -5600.56, 28138.03, 7936.30, 626.92, -875.94, 4649.72, -11662.67, -26498.04, 0.00, 0.00, 0.00
82, -5693.15, 29264.60, 8224.48, 770.64, -1205.81, 4566.93, -11486.76, -26333.48, -0.04, 0.93, 0.34
83, -6150.13, 26745.45, 6607.49, 1961.90, -652.49, 3584.08, -10277.69, -25136.37, 0.00, 0.00, 0.00
84, -6126.99, 25139.19, 6023.15, 1967.51, -170.52, 3491.66, -10319.40, -25148.19, 0.00, 0.00, 0.00
85, -5684.14, 27682.99, 7645.77, 690.18, -828.49, 4479.02, -11605.18, -26412.99, 0.00, 0.00, 0.00
86, -5676.07, 29409.96, 8320.64, 546.61, -1309.45, 4624.64, -11700.02, -26525.24, 0.00, 0.00, 0.00
87, -6086.42, 27436.99, 6927.16, 1705.21, -860.81, 3708.67, -10514.35, -25355.88, 0.00, 0.00, 0.00
88, -6185.00, 25126.91, 5886.49, 2116.44, -190.86, 3336.29, -10135.89, -24959.28, 0.00, 0.00, 0.00
89, -5736.93, 27205.67, 7326.10, 861.35, -698.65, 4291.94, -11415.75, -26208.98, 0.00, 0.00, 0.00
90, -5616.64, 29402.38, 8336.06, 466.66, -1287.55, 4669.55, -11778.32, -26572.22, 0.00, 0.00, 0.00
91, -5976.68, 28055.30, 7238.75, 1480.22, -989.00, 3881.69, -10717.44, -25542.32, 0.00, 0.00, 0.00
92, -6212.38, 25270.72, 5843.62, 2190.56, -266.01, 3260.99, -10031.78, -24854.27, -0.04, 0.93, 0.34
93, -5793.73, 26663.80, 6958.79, 1075.74, -564.76, 4084.24, -11188.14, -25970.92, 0.00, 0.00, 0.00
94, -5605.35, 29262.81, 8276.76, 361.85, -1300.13, 4678.24, -11881.81, -26656.71, 0.00, 0.00, 0.00
95, -5908.55, 28618.48, 7536.74, 1193.43, -1164.88, 4045.20, -11008.59, -25813.11, 0.00, 0.00, 0.00
96, -6242.42, 25603.65, 5911.43, 2165.19, -404.50, 3238.28, -10043.38, -24849.91, 0.00, 0.00, 0.00
97, -5909.78, 26202.81, 6609.48, 1266.58, -496.25, 3868.68, -10984.36, -25752.79, 0.00, 0.00, 0.00
98, -5607.65, 29030.36, 8147.43, 338.36, -1266.49, 4641.59, -11898.37, -26652.46, 0.00, 0.00, 0.00
99, -5854.64, 29102.33, 7803.02, 880.52, -1338.94, 4206.64, -11313.40, -26083.95, 0.00, 0.00, 0.00
100, -6251.92, 26097.14, 6073.51, 2026.59, -602.54, 3263.56, -10162.53, -24935.45, 0.00, 0.00, 0.00
101, -6000.21, 25813.22, 6278.85, 1460.89, -425.49, 3636.79, -10774.97, -25507.12, 0.00, 0.00, 0.00
102, -5614.67, 28701.45, 7943.94, 344.24, -1194.16, 4549.79, -11895.75, -26608.16, -0.04, 0.92, 0.33
103, -5736.78, 29473.61, 8008.83, 677.39, -1395.15, 4343.59, -11522.53, -26261.67, 0.00, 0.00, 0.00
104, -6188.33, 26715.88, 6314.97, 1876.72, -767.80, 3359.89, -10307.06, -25067.01, 0.00, 0.00, 0.00
105, -6091.10, 25559.91, 6013.47, 1659.84, -397.12, 3442.30, -10570.41, -25301.41, 0.00, 0.00, 0.00
106, -5658.10, 28295.09, 7688.58, 425.89, -1113.47, 4422.45, -11816.32, -26522.38, 0.00, 0.00, 0.00
107, -5694.35, 29667.58, 8133.80, 485.39, -1472.80, 4431.68, -11714.42, -26437.80, 0.00, 0.00, 0.00
108, -6142.50, 27345.26, 6595.91, 1663.13, -962.00, 3471.38, -10509.01, -25255.15, 0.00, 0.00, 0.00
109, -6174.69, 25410.98, 5810.34, 1839.39, -397.95, 3262.93, -10364.88, -25092.96, 0.00, 0.00, 0.00
110, -5737.96, 27794.48, 7372.81, 534.61, -1028.54, 4250.25, -11682.63, -26388.27, 0.00, 0.00, 0.00
111, -5683.40, 29741.61, 8197.08, 289.86, -1554.34, 4493.35, -11897.70, -26602.96, 0.00, 0.00, 0.00
112, -6076.12, 28003.18, 6915.99, 1393.36, -1156.01, 3622.90, -10761.94, -25479.74, -0.04, 0.92, 0.34
113, -6238.89, 25460.78, 5714.07, 1928.49, -463.78, 3143.62, -10262.89, -24967.57, 0.00, 0.00, 0.00
114, -5794.38, 27283.43, 7031.99, 720.53, -900.73, 4053.35, -11502.77, -26177.96, 0.00, 0.00, 0.00
115, -5643.35, 29679.40, 8185.97, 183.24, -1557.85, 4518.49, -12009.23, -26680.88, 0.00, 0.00, 0.00
116, -5996.03, 28619.11, 7232.76, 1101.92, -1342.49, 3779.99, -11052.20, -25745.68, 0.00, 0.00, 0.00
117, -6286.63, 25684.25, 5714.76, 1927.46, -603.03, 3062.17, -10227.60, -24933.37, 0.00, 0.00, 0.00
118, -5888.19, 26774.93, 6672.46, 896.22, -816.24, 3817.81, -11298.23, -25973.20, 0.00, 0.00, 0.00
119, -5631.16, 29491.81, 8092.02, 124.25, -1544.62, 4483.40, -12054.05, -26721.29, 0.00, 0.00, 0.00
120, -5908.55, 29143.10, 7517.43, 836.89, -1487.31, 3932.41, -11285.75, -25981.58, 0.00, 0.00, 0.00
121, -6293.11, 26081.09, 5823.59, 1868.61, -754.75, 3053.94, -10254.73, -24957.98, 0.00, 0.00, 0.00
122, -5963.60, 26323.58, 6325.28, 1139.34, -704.46, 3589.31, -11029.67, -25703.52, -0.04, 0.92, 0.33
123, -5606.89, 29201.97, 7927.36, 153.36, -1457.65, 4430.34, -12006.75, -26663.60, 0.00, 0.00, 0.00
124, -5787.89, 29555.22, 7748.88, 627.97, -1554.32, 4093.57, -11499.26, -26160.62, 0.00, 0.00, 0.00
125, -6239.02, 26604.97, 6014.81, 1763.62, -900.44, 3131.88, -10359.30, -25024.70, 0.00, 0.00, 0.00
126, -6055.24, 25951.43, 6013.96, 1330.80, -655.33, 3387.38, -10841.07, -25472.38, 0.00, 0.00, 0.00
127, -5633.87, 28810.03, 7701.05, 167.19, -1399.26, 4330.85, -12010.91, -26612.37, 0.00, 0.00, 0.00
128, -5724.24, 29836.18, 7925.15, 377.39, -1672.51, 4206.06, -11754.67, -26373.40, 0.00, 0.00, 0.00
129, -6180.61, 27221.65, 6279.66, 1564.44, -1087.73, 3221.53, -10540.84, -25174.88, 0.00, 0.00, 0.00
130, -6138.84, 25736.15, 5778.77, 1492.16, -644.60, 3189.01, -10654.32, -25261.29, 0.00, 0.00, 0.00
131, -5672.02, 28375.85, 7431.69, 239.14, -1311.94, 4183.08, -11917.10, -26496.07, 0.00, 0.00, 0.00
132, -5666.86, 30001.85, 8040.26, 173.99, -1741.40, 4288.25, -11954.52, -26542.74, -0.04, 0.92, 0.34
133, -6104.06, 27898.84, 6596.33, 1320.70, -1282.52, 3358.77, -10778.23, -25377.66, 0.00, 0.00, 0.00
134, -6198.47, 25678.96, 5624.50, 1631.59, -667.80, 3037.78, -10502.88, -25076.62, 0.00, 0.00, 0.00
135, -5725.53, 27875.60, 7108.99, 391.00, -1202.30, 4010.24, -11762.18, -26318.04, 0.00, 0.00, 0.00
136, -5632.01, 30018.15, 8070.72, 21.21, -1794.09, 4346.61, -12110.55, -26664.67, 0.00, 0.00, 0.00
137, -6026.79, 28543.54, 6917.02, 1043.22, -1489.27, 3520.35, -11065.70, -25633.94, 0.00, 0.00, 0.00
138, -6256.59, 25814.05, 5573.03, 1686.68, -790.18, 2933.85, -10449.66, -25002.82, 0.00, 0.00, 0.00
139, -5805.24, 27355.90, 6757.02, 573.46, -1107.33, 3790.39, -11604.53, -26117.39, 0.00, 0.00, 0.00
140, -5610.98, 29905.40, 8033.98, -75.97, -1808.12, 4345.31, -12227.97, -26737.94, 0.00, 0.00, 0.00
141, -5940.74, 29130.78, 7234.88, 755.73, -1659.48, 3677.29, -11339.80, -25886.09, 0.00, 0.00, 0.00
142, -6259.32, 26095.44, 5629.64, 1704.34, -886.09, 2887.20, -10410.30, -24948.03, -0.04, 0.92, 0.33
143, -5890.51, 26855.20, 6422.30, 777.26, -1004.04, 3570.42, -11383.45, -25882.56, 0.00, 0.00, 0.00
144, -5601.46, 29662.51, 7934.65, -93.45, -1764.45, 4317.13, -12232.95, -26732.33, 0.00, 0.00, 0.00
145, -5851.33, 29596.68, 7517.11, 514.83, -1778.86, 3842.15, -11593.83, -26110.23, 0.00, 0.00, 0.00
146, -6253.79, 26549.18, 5790.26, 1630.20, -1044.97, 2922.80, -10491.73, -25004.83, 0.00, 0.00, 0.00
147, -5994.76, 26423.11, 6088.41, 995.79, -930.88, 3357.63, -11165.12, -25646.23, 0.00, 0.00, 0.00
148, -5618.00, 29324.77, 7740.61, -83.55, -1700.39, 4250.36, -12232.46, -26703.38, 0.00, 0.00, 0.00
149, -5788.81, 29967.94, 7722.59, 252.26, -1908.10, 3991.10, -11862.88, -26345.22, 0.00, 0.00, 0.00
150, -6237.84, 27135.20, 6004.97, 1458.76, -1247.29, 3009.89, -10652.42, -25141.22, 0.00, 0.00, 0.00
151, -6097.82, 26139.49, 5796.34, 1201.43, -895.01, 3166.33, -10947.53, -25412.17, 0.00, 0.00, 0.00
152, -5657.76, 28929.57, 7478.87, 1.21, -1615.85, 4150.92, -12154.41, -26594.62, -0.04, 0.92, 0.34
153, -5709.46, 30206.59, 7859.41, 92.65, -1951.40, 4124.95, -12034.09, -26476.22, 0.00, 0.00, 0.00
154, -6157.64, 27796.85, 6286.00, 1278.72, -1415.89, 3160.60, -10832.19, -25285.68, 0.00, 0.00, 0.00
155, -6174.65, 25984.55, 5575.49, 1372.67, -900.80, 3010.62, -10770.21, -25208.43, 0.00, 0.00, 0.00
156, -5710.07, 28456.05, 7166.66, 114.84, -1529.42, 4003.13, -12051.77, -26459.35, 0.00, 0.00, 0.00
157, -5663.08, 30290.50, 7920.41, -61.62, -2007.79, 4204.16, -12201.26, -26608.12, 0.00, 0.00, 0.00
158, -6073.35, 28431.60, 6591.40, 1053.01, -1591.49, 3320.82, -11056.56, -25479.67, 0.00, 0.00, 0.00
159, -6200.60, 25964.66, 5457.33, 1539.32, -907.08, 2899.60, -10598.03, -25011.40, 0.00, 0.00, 0.00
160, -5751.80, 27895.58, 6828.03, 298.78, -1392.85, 3834.80, -11865.58, -26250.71, 0.00, 0.00, 0.00
161, -5613.95, 30216.99, 7926.96, -179.53, -2025.38, 4253.22, -12319.19, -26704.10, 0.00, 0.00, 0.00
162, -5974.82, 29003.27, 6902.96, 787.00, -1752.82, 3482.58, -11327.89, -25720.49, -0.03, 0.92, 0.34
163, -6238.91, 26137.03, 5451.81, 1560.24, -1012.62, 2821.06, -10562.61, -24961.78, 0.00, 0.00, 0.00
164, -5841.11, 27352.63, 6475.61, 496.41, -1282.16, 3604.78, -11664.57, -26037.66, 0.00, 0.00, 0.00
165, -5606.31, 30034.02, 7862.74, -262.10, -2024.40, 4232.73, -12411.25, -26772.09, 0.00, 0.00, 0.00
166, -5892.37, 29559.96, 7220.78, 496.10, -1930.90, 3638.26, -11627.22, -25997.74, 0.00, 0.00, 0.00
167, -6255.31, 26500.65, 5550.61, 1513.88, -1171.59, 2790.46, -10622.64, -24989.72, 0.00, 0.00, 0.00
168, -5924.51, 26911.19, 6146.66, 710.18, -1186.32, 3374.47, -11468.12, -25801.45, 0.00, 0.00, 0.00
169, -5594.19, 29769.42, 7726.04, -238.69, -1947.13, 4176.51, -12397.93, -26729.06, 0.00, 0.00, 0.00
170, -5815.50, 30017.74, 7482.38, 232.21, -2053.61, 3789.22, -11895.96, -26235.07, 0.00, 0.00, 0.00
171, -6234.91, 27033.56, 5738.30, 1408.29, -1330.82, 2830.20, -10719.27, -25060.51, 0.00, 0.00, 0.00
172, -6031.75, 26546.58, 5831.61, 909.92, -1131.36, 3151.26, -11256.32, -25575.96, -0.04, 0.92, 0.34
173, -5649.34, 29433.74, 7516.56, -257.13, -1924.53, 4078.86, -12423.84, -26724.59, 0.00, 0.00, 0.00
174, -5759.98, 30343.70, 7668.06, -2.55, -2165.28, 3902.39, -12143.50, -26448.57, 0.00, 0.00, 0.00
175, -6187.10, 27654.85, 5996.57, 1239.87, -1510.11, 2921.17, -10886.84, -25201.35, 0.00, 0.00, 0.00
176, -6117.20, 26309.30, 5580.29, 1105.29, -1099.53, 2959.95, -11063.98, -25349.98, 0.00, 0.00, 0.00
177, -5686.89, 29010.04, 7245.79, -166.10, -1828.84, 3951.54, -12351.57, -26605.06, 0.00, 0.00, 0.00
178, -5696.54, 30534.02, 7781.89, -182.97, -2218.54, 4008.29, -12344.35, -26597.68, 0.00, 0.00, 0.00
179, -6116.93, 28341.52, 6291.99, 1002.88, -1704.25, 3066.44, -11125.71, -25409.19, 0.00, 0.00, 0.00
180, -6183.68, 26250.27, 5396.38, 1268.82, -1118.44, 2806.10, -10905.10, -25172.89, 0.00, 0.00, 0.00
181, -5724.19, 28539.00, 6918.74, 2.55, -1705.01, 3787.44, -12196.65, -26433.84, 0.00, 0.00, 0.00
182, -5640.44, 30602.35, 7822.64, -296.56, -2251.58, 4073.81, -12473.95, -26713.96, -0.04, 0.92, 0.34
183, -6034.77, 29017.32, 6609.61, 754.53, -1893.13, 3229.74, -11389.02, -25644.98, 0.00, 0.00, 0.00
184, -6258.09, 26384.40, 5329.35, 1312.29, -1227.29, 2703.96, -10853.18, -25098.28, 0.00, 0.00, 0.00
185, -5813.85, 28059.04, 6572.11, 173.27, -1600.81, 3582.07, -12035.72, -26239.43, 0.00, 0.00, 0.00
186, -5618.13, 30545.38, 7797.20, -388.09, -2242.48, 4092.13, -12572.03, -26776.25, 0.00, 0.00, 0.00
187, -5950.19, 29656.65, 6932.68, 482.48, -2047.64, 3396.84, -11659.83, -25889.06, 0.00, 0.00, 0.00
188, -6257.04, 26681.81, 5367.64, 1367.61, -1291.44, 2649.71, -10790.13, -25007.85, 0.00, 0.00, 0.00
189, -5876.79, 27593.14, 6230.37, 410.62, -1454.43, 3371.09, -11794.21, -25972.10, 0.00, 0.00, 0.00
190, -5627.63, 30381.65, 7707.42, -461.99, -2248.61, 4073.74, -12647.94, -26826.43, 0.00, 0.00, 0.00
191, -5872.14, 30197.96, 7221.63, 222.71, -2198.20, 3550.55, -11937.13, -26126.62, 0.00, 0.00, 0.00
192, -6258.09, 27145.59, 5511.36, 1310.28, -1439.43, 2657.98, -10854.54, -25038.85, -0.03, 0.92, 0.33
193, -5990.18, 27191.03, 5900.97, 605.04, -1394.59, 3140.78, -11600.47, -25756.07, 0.00, 0.00, 0.00
194, -5627.97, 30091.39, 7533.86, -428.93, -2157.81, 4000.31, -12626.72, -26773.92, 0.00, 0.00, 0.00
195, -5811.54, 30623.30, 7446.71, -47.65, -2322.73, 3695.15, -12207.34, -26373.58, 0.00, 0.00, 0.00
196, -6236.61, 27740.46, 5712.28, 1165.17, -1622.56, 2717.01, -10992.07, -25164.35, 0.00, 0.00, 0.00
197, -6086.33, 26906.45, 5592.47, 814.97, -1336.01, 2922.42, -11387.01, -25530.14, 0.00, 0.00, 0.00
198, -5678.19, 29740.13, 7276.32, -393.64, -2097.91, 3883.88, -12599.25, -26717.46, 0.00, 0.00, 0.00
199, -5761.85, 30905.24, 7582.45, -257.13, -2414.01, 3798.37, -12435.75, -26563.44, 0.00, 0.00, 0.00
200, -6187.79, 28394.34, 5978.33, 976.30, -1799.76, 2825.75, -11190.67, -25323.43, 0.00, 0.00, 0.00
201, -6171.96, 26721.38, 5364.13, 1001.69, -1317.77, 2742.31, -11186.76, -25306.49, 0.00, 0.00, 0.00
202, -5723.28, 29269.16, 6984.41, -272.29, -1995.21, 3733.66, -12473.90, -26571.75, -0.04, 0.92, 0.34
203, -5691.38, 31023.10, 7679.08, -398.26, -2449.51, 3881.07, -12574.55, -26675.82, 0.00, 0.00, 0.00
204, -6112.24, 29063.82, 6300.55, 722.34, -2004.19, 2971.64, -11433.74, -25542.03, 0.00, 0.00, 0.00
205, -6256.83, 26732.13, 5243.14, 1084.13, -1392.83, 2596.85, -11115.52, -25194.26, 0.00, 0.00, 0.00
206, -5795.29, 28791.53, 6669.74, -122.55, -1883.72, 3538.91, -12348.24, -26396.94, 0.00, 0.00, 0.00
207, -5663.82, 31033.41, 7714.30, -524.93, -2463.77, 3912.18, -12705.09, -26774.82, 0.00, 0.00, 0.00
208, -6042.48, 29726.10, 6642.56, 444.31, -2185.11, 3121.96, -11696.60, -25795.86, 0.00, 0.00, 0.00
209, -6295.23, 26913.09, 5227.56, 1164.10, -1465.25, 2500.62, -10999.85, -25089.34, 0.00, 0.00, 0.00
210, -5876.70, 28284.92, 6320.76, 79.77, -1766.46, 3326.10, -12117.71, -26180.02, 0.00, 0.00, 0.00
211, -5632.04, 30899.59, 7648.90, -571.62, -2436.92, 3917.39, -12757.46, -26810.67, 0.00, 0.00, 0.00
212, -5942.12, 30303.15, 6935.17, 179.55, -2335.82, 3299.14, -11981.88, -26041.88, -0.04, 0.92, 0.34
213, -6307.77, 27280.97, 5292.09, 1126.82, -1603.78, 2485.56, -11040.24, -25098.75, 0.00, 0.00, 0.00
214, -5981.57, 27844.48, 5958.17, 265.43, -1689.70, 3106.94, -11939.34, -25973.29, 0.00, 0.00, 0.00
215, -5671.22, 30694.55, 7505.27, -659.18, -2459.25, 3873.29, -12856.81, -26871.13, 0.00, 0.00, 0.00
216, -5890.78, 30805.20, 7180.86, -109.41, -2503.31, 3440.38, -12273.23, -26294.32, 0.00, 0.00, 0.00
217, -6290.72, 27808.59, 5447.41, 1040.88, -1763.28, 2510.68, -11115.50, -25144.84, 0.00, 0.00, 0.00
218, -6061.12, 27478.00, 5625.46, 514.96, -1589.14, 2889.25, -11687.97, -25690.58, 0.00, 0.00, 0.00
219, -5700.72, 30370.16, 7293.80, -633.36, -2397.02, 3796.51, -12842.95, -26828.66, 0.00, 0.00, 0.00
220, -5835.77, 31174.56, 7376.19, -340.69, -2619.38, 3571.65, -12522.36, -26521.53, 0.00, 0.00, 0.00
221, -6270.16, 28438.77, 5691.40, 859.83, -1968.05, 2595.17, -11307.86, -25314.54, 0.00, 0.00, 0.00
222, -6179.32, 27252.72, 5367.28, 671.65, -1598.46, 2683.15, -11530.39, -25516.62, -0.04, 0.93, 0.33
223, -5729.00, 29984.55, 7041.63, -527.48, -2291.84, 3664.70, -12736.05, -26699.36, 0.00, 0.00, 0.00
224, -5754.48, 31399.84, 7512.89, -495.45, -2652.21, 3680.17, -12677.73, -26643.66, 0.00, 0.00, 0.00
225, -6175.25, 29122.22, 5994.76, 686.33, -2116.58, 2738.65, -11475.00, -25453.74, 0.00, 0.00, 0.00
226, -6232.09, 27150.08, 5178.99, 856.99, -1582.24, 2536.57, -11341.21, -25303.43, 0.00, 0.00, 0.00
227, -5780.14, 29505.67, 6724.59, -402.13, -2185.71, 3516.02, -12619.26, -26554.36, 0.00, 0.00, 0.00
228, -5715.36, 31471.39, 7563.99, -660.58, -2706.71, 3749.28, -12845.68, -26792.39, 0.00, 0.00, 0.00
229, -6120.87, 29790.29, 6307.39, 392.72, -2331.67, 2882.66, -11775.55, -25727.68, 0.00, 0.00, 0.00
230, -6294.92, 27232.89, 5083.08, 940.16, -1647.46, 2403.39, -11266.35, -25193.03, 0.00, 0.00, 0.00
231, -5848.87, 29028.92, 6385.02, -227.23, -2072.10, 3312.89, -12440.33, -26363.44, 0.00, 0.00, 0.00
232, -5690.24, 31440.16, 7551.02, -764.03, -2726.18, 3773.02, -12941.24, -26879.94, -0.05, 0.93, 0.34
233, -6027.17, 30441.35, 6626.49, 133.46, -2502.41, 3046.27, -12021.91, -25968.46, 0.00, 0.00, 0.00
234, -6315.62, 27504.96, 5097.00, 993.62, -1742.52, 2340.59, -11182.55, -25119.36, 0.00, 0.00, 0.00
235, -5942.41, 28537.07, 6021.58, -16.63, -1967.40, 3092.56, -12234.99, -26133.53, 0.00, 0.00, 0.00
236, -5695.27, 31254.80, 7450.28, -819.46, -2704.56, 3752.28, -13026.62, -26905.29, 0.00, 0.00, 0.00
237, -5964.81, 30943.46, 6899.29, -118.75, -2641.51, 3205.28, -12284.97, -26196.62, 0.00, 0.00, 0.00
238, -6345.77, 27916.34, 5216.23, 920.42, -1908.32, 2345.17, -11251.78, -25174.77, 0.00, 0.00, 0.00
239, -6059.11, 28097.30, 5681.48, 191.24, -1888.39, 2867.26, -12024.54, -25915.53, 0.00, 0.00, 0.00
240, -5713.98, 30979.25, 7298.83, -814.41, -2658.49, 3696.15, -13020.63, -26900.90, 0.00, 0.00, 0.00
241, -5895.09, 31390.70, 7151.55, -369.97, -2773.52, 3352.18, -12550.66, -26436.99, 0.00, 0.00, 0.00
242, -6315.49, 28490.27, 5427.23, 802.96, -2071.38, 2401.20, -11367.58, -25262.37, -0.04, 0.92, 0.34
243, -6145.61, 27794.93, 5393.25, 398.98, -1828.69, 2661.04, -11798.97, -25678.02, 0.00, 0.00, 0.00
244, -5737.89, 30628.57, 7069.77, -767.11, -2587.46, 3596.44, -12971.88, -26828.62, 0.00, 0.00, 0.00
245, -5833.69, 31696.34, 7316.28, -608.24, -2884.98, 3469.37, -12795.84, -26642.27, 0.00, 0.00, 0.00
246, -6247.07, 29143.57, 5692.30, 622.76, -2251.22, 2499.62, -11550.98, -25395.96, 0.00, 0.00, 0.00
247, -6204.98, 27608.85, 5152.57, 608.21, -1788.41, 2470.74, -11588.87, -25414.29, 0.00, 0.00, 0.00
248, -5763.40, 30201.23, 6788.38, -643.22, -2472.48, 3458.80, -12847.94, -26645.27, 0.00, 0.00, 0.00
249, -5763.89, 31859.79, 7420.69, -749.50, -2922.71, 3559.90, -12940.97, -26730.21, 0.00, 0.00, 0.00
250, -6174.38, 29820.27, 6004.37, 396.99, -2437.66, 2644.41, -11771.68, -25569.79, 0.00, 0.00, 0.00
251, -6290.70, 27594.43, 5014.39, 710.00, -1849.76, 2329.92, -11476.79, -25269.34, 0.00, 0.00, 0.00
252, -5830.03, 29715.41, 6465.00, -498.98, -2366.09, 3282.76, -12703.39, -26466.72, -0.04, 0.92, 0.34
253, -5714.87, 31869.81, 7447.35, -859.34, -2923.18, 3618.01, -13029.75, -26801.08, 0.00, 0.00, 0.00
254, -6100.69, 30469.76, 6326.57, 115.51, -2617.93, 2816.50, -12030.36, -25806.00, 0.00, 0.00, 0.00
255, -6331.49, 27750.27, 4973.51, 776.25, -1914.96, 2247.13, -11394.67, -25151.25, 0.00, 0.00, 0.00
0, -5908.17, 29226.27, 6124.24, -320.99, -2251.04, 3090.58, -12521.42, -26250.67, 0.00, 0.00, 0.00
1, -5708.05, 31777.45, 7408.87, -973.57, -2946.27, 3633.23, -13140.21, -26878.35, 0.00, 0.00, 0.00
2, -6017.58, 31079.85, 6641.42, -167.10, -2795.06, 2980.74, -12298.00, -26061.31, 0.00, 0.00, 0.00
3, -6337.39, 28089.55, 5034.86, 778.00, -2025.87, 2212.22, -11372.83, -25127.56, 0.00, 0.00, 0.00
4, -6004.93, 28788.29, 5780.59, -141.51, -2170.38, 2877.47, -12330.29, -26053.68, 0.00, 0.00, 0.00
5, -5716.95, 31577.78, 7285.39, -1022.50, -2929.13, 3598.14, -13201.90, -26913.36, 0.00, 0.00, 0.00
6, -5955.78, 31579.26, 6897.59, -456.04, -2945.96, 3131.59, -12603.34, -26325.91, -0.04, 0.92, 0.33
7, -6352.97, 28583.92, 5178.77, 656.05, -2204.60, 2225.70, -11487.10, -25204.61, 0.00, 0.00, 0.00
8, -6108.15, 28397.02, 5437.44, 67.70, -2083.12, 2646.54, -12108.12, -25801.91, 0.00, 0.00, 0.00
9, -5736.89, 31268.17, 7084.54, -1003.37, -2854.70, 3517.36, -13180.69, -26861.92, 0.00, 0.00, 0.00
10, -5881.32, 31957.38, 7101.64, -681.59, -3040.64, 3259.98, -12838.44, -26519.07, 0.00, 0.00, 0.00
11, -6304.67, 29193.57, 5408.65, 507.76, -2371.16, 2303.62, -11630.33, -25321.69, 0.00, 0.00, 0.00
12, -6182.69, 28144.15, 5163.32, 276.22, -2026.10, 2447.69, -11886.52, -25565.21, 0.00, 0.00, 0.00
13, -5761.39, 30886.36, 6836.91, -935.96, -2761.16, 3408.22, -13108.76, -26762.23, 0.00, 0.00, 0.00
14, -5828.78, 32207.19, 7246.44, -901.87, -3134.16, 3371.63, -13039.27, -26709.66, 0.00, 0.00, 0.00
15, -6248.63, 29869.57, 5700.66, 295.42, -2568.33, 2421.70, -11816.38, -25506.67, 0.00, 0.00, 0.00
16, -6277.29, 28038.27, 4966.58, 416.01, -2053.63, 2270.27, -11733.86, -25401.08, -0.04, 0.92, 0.34
17, -5822.27, 30460.33, 6535.47, -823.33, -2671.53, 3247.10, -12986.85, -26628.95, 0.00, 0.00, 0.00
18, -5776.25, 32330.66, 7309.56, -1040.97, -3163.58, 3440.45, -13177.45, -26822.85, 0.00, 0.00, 0.00
19, -6177.89, 30579.09, 6016.87, 23.49, -2762.39, 2571.68, -12094.68, -25745.16, 0.00, 0.00, 0.00
20, -6330.91, 28115.99, 4856.99, 531.48, -2089.37, 2146.62, -11613.85, -25251.97, 0.00, 0.00, 0.00
21, -5877.06, 29992.60, 6197.16, -638.68, -2542.69, 3066.28, -12802.65, -26425.71, 0.00, 0.00, 0.00
22, -5742.72, 32306.16, 7301.04, -1140.50, -3181.99, 3479.21, -13281.03, -26906.07, 0.00, 0.00, 0.00
23, -6080.48, 31199.66, 6323.96, -201.99, -2913.93, 2736.03, -12318.18, -25949.68, 0.00, 0.00, 0.00
24, -6347.65, 28336.49, 4851.67, 595.38, -2168.05, 2084.50, -11537.10, -25162.23, 0.00, 0.00, 0.00
25, -5967.31, 29489.93, 5840.04, -443.75, -2427.82, 2860.20, -12609.16, -26204.25, 0.00, 0.00, 0.00
26, -5732.78, 32154.26, 7227.86, -1195.08, -3149.38, 3480.32, -13340.91, -26930.59, 0.00, 0.00, 0.00
27, -5997.96, 31725.26, 6606.71, -454.52, -3030.09, 2902.35, -12559.24, -26158.36, -0.03, 0.92, 0.35
28, -6359.61, 28733.46, 4951.56, 524.75, -2296.80, 2084.55, -11582.29, -25180.00, 0.00, 0.00, 0.00
29, -6057.64, 29053.22, 5493.83, -245.53, -2324.22, 2647.18, -12399.67, -25962.02, 0.00, 0.00, 0.00
30, -5736.22, 31912.90, 7082.06, -1235.54, -3112.08, 3436.36, -13383.26, -26934.10, 0.00, 0.00, 0.00
31, -5924.69, 32219.05, 6870.61, -738.77, -3183.92, 3051.10, -12843.80, -26418.46, 0.00, 0.00, 0.00
32, -6335.24, 29304.95, 5151.72, 409.33, -2468.71, 2130.86, -11685.85, -25265.90, 0.00, 0.00, 0.00
33, -6151.51, 28769.96, 5207.49, -55.86, -2278.04, 2441.03, -12187.20, -25740.42, 0.00, 0.00, 0.00
34, -5739.03, 31604.87, 6880.47, -1159.09, -3012.43, 3350.91, -13301.61, -26825.00, 0.00, 0.00, 0.00
35, -5833.00, 32563.12, 7062.26, -940.02, -3250.68, 3189.37, -13045.53, -26577.99, 0.00, 0.00, 0.00
36, -6284.95, 29968.23, 5416.36, 216.79, -2663.84, 2231.46, -11869.51, -25422.90, 0.00, 0.00, 0.00
37, -6223.15, 28579.52, 4957.77, 141.78, -2240.32, 2251.02, -11972.73, -25514.00, -0.04, 0.92, 0.34
38, -5778.31, 31201.69, 6597.32, -1084.33, -2938.05, 3217.87, -13204.40, -26729.91, 0.00, 0.00, 0.00
39, -5791.27, 32757.53, 7158.46, -1152.28, -3349.25, 3273.10, -13250.47, -26770.71, 0.00, 0.00, 0.00
40, -6193.94, 30642.90, 5703.85, 8.87, -2823.72, 2353.15, -12065.20, -25597.04, 0.00, 0.00, 0.00
41, -6292.60, 28539.06, 4788.86, 264.13, -2263.74, 2093.98, -11831.76, -25356.11, 0.00, 0.00, 0.00
42, -5836.08, 30737.78, 6272.15, -939.35, -2806.28, 3051.71, -13060.82, -26554.56, 0.00, 0.00, 0.00
43, -5771.58, 32819.11, 7197.95, -1316.23, -3393.80, 3339.08, -13418.69, -26909.64, 0.00, 0.00, 0.00
44, -6149.39, 31326.57, 6025.61, -300.90, -3039.99, 2509.56, -12376.32, -25873.91, 0.00, 0.00, 0.00
45, -6346.80, 28686.94, 4726.37, 326.47, -2331.87, 1985.97, -11766.49, -25257.85, 0.00, 0.00, 0.00
46, -5910.58, 30276.49, 5932.51, -774.96, -2698.17, 2847.10, -12892.91, -26360.95, 0.00, 0.00, 0.00
47, -5723.54, 32754.94, 7165.99, -1377.96, -3369.28, 3348.92, -13481.70, -26938.08, -0.04, 0.92, 0.35
48, -6042.66, 31952.00, 6344.41, -543.91, -3189.15, 2678.95, -12611.39, -26081.82, 0.00, 0.00, 0.00
49, -6354.91, 29013.17, 4775.76, 357.20, -2434.89, 1951.26, -11712.51, -25187.53, 0.00, 0.00, 0.00
50, -5985.04, 29836.74, 5582.21, -571.40, -2586.12, 2645.84, -12671.85, -26114.57, 0.00, 0.00, 0.00
51, -5711.25, 32574.87, 7044.11, -1387.33, -3321.51, 3337.74, -13471.89, -26909.42, 0.00, 0.00, 0.00
52, -5960.56, 32461.33, 6597.32, -783.03, -3298.51, 2849.53, -12843.51, -26285.34, 0.00, 0.00, 0.00
53, -6349.79, 29473.75, 4890.07, 282.48, -2568.84, 1979.83, -11767.66, -25214.09, 0.00, 0.00, 0.00
54, -6083.61, 29435.93, 5225.64, -351.30, -2489.67, 2449.37, -12434.19, -25850.75, 0.00, 0.00, 0.00
55, -5716.48, 32283.58, 6846.52, -1399.13, -3256.56, 3294.83, -13494.40, -26878.44, 0.00, 0.00, 0.00
56, -5864.83, 32857.11, 6797.97, -1034.98, -3402.47, 3004.86, -13110.15, -26496.81, 0.00, 0.00, 0.00
57, -6295.30, 30057.57, 5099.35, 137.87, -2735.23, 2061.43, -11896.47, -25330.47, -0.03, 0.92, 0.34
58, -6195.59, 29158.68, 4939.36, -196.07, -2491.10, 2246.93, -12274.39, -25693.24, 0.00, 0.00, 0.00
59, -5764.47, 31911.25, 6603.20, -1325.41, -3192.34, 3175.51, -13417.57, -26805.69, 0.00, 0.00, 0.00
60, -5831.79, 33113.50, 6940.69, -1235.81, -3509.04, 3102.67, -13291.55, -26686.71, 0.00, 0.00, 0.00
61, -6256.32, 30705.51, 5370.88, -62.12, -2937.13, 2157.14, -12093.50, -25504.08, 0.00, 0.00, 0.00
62, -6254.64, 29007.00, 4723.73, 2.79, -2446.47, 2068.94, -12060.53, -25451.42, 0.00, 0.00, 0.00
63, -5828.95, 31474.38, 6312.58, -1250.33, -3119.77, 3037.49, -13333.53, -26694.84, 0.00, 0.00, 0.00
64, -5795.05, 33244.40, 7029.96, -1405.48, -3574.85, 3183.02, -13453.38, -26827.23, 0.00, 0.00, 0.00
65, -6190.52, 31389.96, 5696.50, -311.16, -3130.54, 2303.28, -12323.21, -25715.95, 0.00, 0.00, 0.00
66, -6312.24, 29035.61, 4616.15, 131.63, -2477.71, 1935.82, -11909.93, -25291.29, 0.00, 0.00, 0.00
67, -5868.79, 31002.43, 6002.76, -1065.13, -2977.88, 2865.14, -13133.77, -26489.14, -0.03, 0.92, 0.34
68, -5756.42, 33246.95, 7058.81, -1523.07, -3600.89, 3233.81, -13559.64, -26927.95, 0.00, 0.00, 0.00
69, -6109.96, 32048.89, 6038.66, -586.31, -3319.86, 2467.27, -12595.23, -25978.67, 0.00, 0.00, 0.00
70, -6354.42, 29251.75, 4612.73, 171.88, -2574.94, 1851.93, -11859.39, -25234.20, 0.00, 0.00, 0.00
71, -5951.26, 30534.43, 5672.45, -864.90, -2869.76, 2651.48, -12922.91, -26276.84, 0.00, 0.00, 0.00
72, -5739.93, 33123.47, 7001.62, -1570.08, -3573.40, 3228.87, -13604.10, -26956.02, 0.00, 0.00, 0.00
73, -6018.94, 32603.71, 6326.84, -820.49, -3434.99, 2629.12, -12823.62, -26183.19, 0.00, 0.00, 0.00
74, -6376.33, 29623.95, 4687.52, 131.79, -2708.72, 1839.41, -11873.63, -25240.75, 0.00, 0.00, 0.00
75, -6068.90, 30107.62, 5314.10, -704.55, -2809.48, 2445.66, -12732.54, -26089.49, 0.00, 0.00, 0.00
76, -5764.56, 32909.61, 6856.87, -1629.15, -3576.64, 3188.88, -13651.35, -26994.85, 0.00, 0.00, 0.00
77, -5949.16, 33088.63, 6576.73, -1092.08, -3594.43, 2769.22, -13093.63, -26436.73, -0.04, 0.92, 0.34
78, -6351.54, 30156.53, 4864.14, 28.79, -2873.18, 1864.63, -11965.78, -25315.72, 0.00, 0.00, 0.00
79, -6150.26, 29754.73, 5003.50, -469.99, -2713.57, 2225.03, -12483.67, -25826.46, 0.00, 0.00, 0.00
80, -5767.13, 32572.35, 6660.44, -1559.97, -3464.77, 3109.95, -13571.53, -26902.80, 0.00, 0.00, 0.00
81, -5893.40, 33397.33, 6771.08, -1315.51, -3681.38, 2899.94, -13304.43, -26637.91, 0.00, 0.00, 0.00
82, -6318.08, 30749.72, 5119.53, -139.45, -3028.55, 1953.07, -12129.84, -25453.03, 0.00, 0.00, 0.00
83, -6239.80, 29502.83, 4754.17, -271.57, -2645.91, 2034.84, -12286.57, -25595.23, 0.00, 0.00, 0.00
84, -5819.32, 32154.08, 6400.82, -1486.06, -3367.31, 2995.09, -13477.36, -26807.38, 0.00, 0.00, 0.00
85, -5840.47, 33614.99, 6902.75, -1495.89, -3747.09, 3009.28, -13465.05, -26794.44, 0.00, 0.00, 0.00
86, -6242.15, 31425.77, 5417.93, -338.43, -3199.25, 2088.35, -12285.84, -25620.28, 0.00, 0.00, 0.00
87, -6310.05, 29453.32, 4587.38, -142.09, -2668.24, 1885.50, -12112.19, -25434.47, -0.04, 0.92, 0.34
88, -5865.68, 31727.34, 6103.66, -1361.13, -3252.27, 2839.05, -13341.69, -26640.95, 0.00, 0.00, 0.00
89, -5800.93, 33700.95, 6963.22, -1655.35, -3770.34, 3077.43, -13608.19, -26907.01, 0.00, 0.00, 0.00
90, -6186.83, 32116.57, 5752.36, -632.08, -3392.82, 2243.33, -12564.61, -25868.92, 0.00, 0.00, 0.00
91, -6359.97, 29569.17, 4526.92, -45.42, -2695.31, 1777.01, -11998.57, -25295.38, 0.00, 0.00, 0.00
92, -5941.43, 31267.65, 5790.76, -1193.14, -3124.64, 2657.64, -13167.08, -26447.12, 0.00, 0.00, 0.00
93, -5768.69, 33665.70, 6971.87, -1732.60, -3758.42, 3106.69, -13687.54, -26960.74, 0.00, 0.00, 0.00
94, -6082.71, 32751.72, 6100.89, -866.98, -3527.93, 2413.83, -12793.29, -26079.59, 0.00, 0.00, 0.00
95, -6379.41, 29864.72, 4587.58, -32.16, -2794.24, 1730.20, -11967.28, -25251.99, 0.00, 0.00, 0.00
96, -6013.18, 30823.72, 5481.45, -996.31, -3009.46, 2458.78, -12958.49, -26226.06, 0.00, 0.00, 0.00
97, -5745.40, 33506.29, 6917.22, -1771.69, -3723.42, 3101.42, -13713.40, -26982.58, -0.03, 0.91, 0.33
98, -6003.01, 33280.36, 6411.02, -1152.61, -3681.02, 2574.43, -13062.67, -26342.67, 0.00, 0.00, 0.00
99, -6368.84, 30309.14, 4739.20, -100.94, -2935.05, 1735.59, -12005.93, -25298.46, 0.00, 0.00, 0.00
100, -6115.46, 30423.00, 5164.28, -806.16, -2940.55, 2243.09, -12749.30, -26018.32, 0.00, 0.00, 0.00
101, -5785.73, 33254.93, 6762.43, -1817.33, -3713.16, 3048.84, -13758.28, -27004.37, 0.00, 0.00, 0.00
102, -5946.95, 33715.57, 6639.88, -1397.23, -3813.19, 2712.65, -13300.76, -26561.96, 0.00, 0.00, 0.00
103, -6362.65, 30890.38, 4938.30, -249.29, -3124.95, 1788.27, -12139.14, -25414.92, 0.00, 0.00, 0.00
104, -6208.44, 30140.95, 4864.81, -603.59, -2874.32, 2035.01, -12534.54, -25780.48, 0.00, 0.00, 0.00
105, -5811.21, 32909.52, 6520.32, -1751.17, -3617.32, 2949.96, -13689.79, -26917.11, 0.00, 0.00, 0.00
106, -5891.36, 34001.29, 6788.07, -1595.85, -3895.55, 2829.86, -13492.72, -26734.34, 0.00, 0.00, 0.00
107, -6310.37, 31535.61, 5198.19, -428.95, -3288.32, 1900.86, -12291.96, -25555.82, -0.02, 0.92, 0.34
108, -6310.72, 29983.54, 4635.39, -450.97, -2873.63, 1864.52, -12347.46, -25599.52, 0.00, 0.00, 0.00
109, -5859.93, 32492.86, 6240.41, -1639.97, -3518.03, 2822.98, -13548.15, -26779.94, 0.00, 0.00, 0.00
110, -5843.62, 34167.79, 6892.65, -1769.54, -3956.64, 2929.58, -13646.86, -26885.24, 0.00, 0.00, 0.00
111, -6242.04, 32230.52, 5518.51, -677.50, -3487.56, 2044.63, -12526.86, -25774.18, 0.00, 0.00, 0.00
112, -6350.67, 30001.11, 4510.22, -307.27, -2876.76, 1734.63, -12175.26, -25418.56, 0.00, 0.00, 0.00
113, -5927.91, 32055.31, 5929.16, -1511.83, -3424.82, 2660.64, -13407.29, -26627.95, 0.00, 0.00, 0.00
114, -5824.33, 34191.42, 6912.57, -1896.39, -3991.98, 2970.30, -13770.40, -26989.60, 0.00, 0.00, 0.00
115, -6176.84, 32870.90, 5832.42, -927.35, -3660.41, 2188.68, -12768.86, -26004.44, 0.00, 0.00, 0.00
116, -6412.98, 30161.89, 4467.02, -250.94, -2957.00, 1629.87, -12104.03, -25337.36, 0.00, 0.00, 0.00
117, -6012.48, 31563.08, 5576.04, -1325.06, -3298.09, 2448.79, -13201.03, -26411.85, -0.03, 0.92, 0.35
118, -5793.55, 34079.12, 6856.49, -1944.09, -3956.19, 2970.64, -13799.18, -27006.14, 0.00, 0.00, 0.00
119, -6056.03, 33432.00, 6125.38, -1132.38, -3756.28, 2341.75, -12965.73, -26176.46, 0.00, 0.00, 0.00
120, -6391.75, 30489.77, 4535.53, -220.08, -3025.02, 1598.10, -12062.28, -25279.78, 0.00, 0.00, 0.00
121, -6083.30, 31108.69, 5241.75, -1092.49, -3168.18, 2240.67, -12966.85, -26169.80, 0.00, 0.00, 0.00
122, -5800.01, 33846.71, 6740.46, -1966.44, -3912.47, 2941.38, -13823.68, -27017.60, 0.00, 0.00, 0.00
123, -6004.51, 33890.81, 6388.15, -1403.53, -3898.97, 2490.32, -13225.21, -26432.93, 0.00, 0.00, 0.00
124, -6402.14, 30959.82, 4692.57, -319.97, -3175.65, 1618.69, -12140.48, -25352.80, 0.00, 0.00, 0.00
125, -6191.19, 30712.17, 4916.40, -882.65, -3072.96, 2027.17, -12733.43, -25933.61, 0.00, 0.00, 0.00
126, -5845.72, 33521.83, 6545.28, -1967.13, -3859.39, 2867.86, -13808.97, -27001.53, 0.00, 0.00, 0.00
127, -5968.61, 34224.30, 6580.29, -1648.31, -4022.29, 2606.84, -13461.49, -26663.84, -0.03, 0.92, 0.34
128, -6368.44, 31531.89, 4922.39, -465.30, -3340.40, 1679.04, -12271.64, -25476.09, 0.00, 0.00, 0.00
129, -6283.83, 30448.01, 4651.35, -693.17, -3048.42, 1819.61, -12524.93, -25719.32, 0.00, 0.00, 0.00
130, -5879.74, 33116.07, 6293.36, -1883.85, -3783.86, 2746.45, -13725.67, -26905.06, 0.00, 0.00, 0.00
131, -5923.75, 34455.04, 6718.80, -1860.40, -4132.03, 2705.01, -13669.95, -26855.04, 0.00, 0.00, 0.00
132, -6333.86, 32200.91, 5207.31, -714.59, -3571.74, 1787.09, -12505.38, -25699.05, 0.00, 0.00, 0.00
133, -6373.00, 30363.59, 4456.31, -569.54, -3068.31, 1641.89, -12381.93, -25563.78, 0.00, 0.00, 0.00
134, -5922.45, 32702.28, 5993.40, -1763.35, -3674.85, 2589.96, -13575.49, -26745.18, 0.00, 0.00, 0.00
135, -5861.36, 34564.54, 6782.82, -1987.49, -4154.56, 2779.73, -13775.33, -26945.38, 0.00, 0.00, 0.00
136, -6230.73, 32884.87, 5532.41, -940.25, -3735.85, 1940.69, -12710.95, -25882.56, 0.00, 0.00, 0.00
137, -6411.71, 30453.42, 4374.64, -474.66, -3114.63, 1528.17, -12261.18, -25424.95, -0.03, 0.92, 0.34
138, -5990.16, 32239.51, 5670.48, -1613.01, -3569.84, 2405.90, -13414.20, -26559.71, 0.00, 0.00, 0.00
139, -5834.21, 34534.88, 6784.40, -2094.18, -4170.59, 2804.29, -13882.42, -27019.93, 0.00, 0.00, 0.00
140, -6156.54, 33495.88, 5848.09, -1206.66, -3903.13, 2087.85, -12968.93, -26111.17, 0.00, 0.00, 0.00
141, -6434.58, 30683.24, 4384.50, -429.87, -3184.52, 1455.79, -12194.84, -25340.42, 0.00, 0.00, 0.00
142, -6082.33, 31771.42, 5334.15, -1436.26, -3468.03, 2207.50, -13214.40, -26357.11, 0.00, 0.00, 0.00
143, -5846.25, 34390.55, 6709.30, -2173.93, -4179.82, 2799.96, -13935.02, -27076.90, 0.00, 0.00, 0.00
144, -6086.33, 34033.28, 6132.07, -1470.57, -4062.03, 2240.52, -13209.23, -26350.72, 0.00, 0.00, 0.00
145, -6436.10, 31090.67, 4489.26, -470.75, -3327.19, 1444.15, -12205.13, -25360.18, 0.00, 0.00, 0.00
146, -6150.48, 31354.82, 4996.15, -1196.35, -3354.75, 1992.39, -12963.43, -26103.17, 0.00, 0.00, 0.00
147, -5829.13, 34135.92, 6556.50, -2157.03, -4116.90, 2753.49, -13913.25, -27041.30, -0.03, 0.92, 0.34
148, -6003.32, 34470.17, 6372.88, -1710.00, -4188.07, 2383.66, -13444.35, -26576.22, 0.00, 0.00, 0.00
149, -6414.70, 31630.98, 4683.79, -590.71, -3496.59, 1480.09, -12322.20, -25457.41, 0.00, 0.00, 0.00
150, -6235.56, 31041.30, 4705.20, -993.56, -3288.84, 1779.27, -12749.01, -25870.29, 0.00, 0.00, 0.00
151, -5856.25, 33803.68, 6348.61, -2107.41, -4040.46, 2663.64, -13858.64, -26972.72, 0.00, 0.00, 0.00
152, -5943.71, 34771.96, 6546.78, -1903.07, -4266.41, 2499.01, -13622.52, -26748.15, 0.00, 0.00, 0.00
153, -6355.38, 32251.17, 4936.74, -739.44, -3639.02, 1575.75, -12441.23, -25575.56, 0.00, 0.00, 0.00
154, -6324.25, 30838.16, 4453.76, -814.65, -3254.08, 1599.80, -12535.77, -25657.92, 0.00, 0.00, 0.00
155, -5895.23, 33384.14, 6061.90, -2005.58, -3938.40, 2539.23, -13733.11, -26840.11, 0.00, 0.00, 0.00
156, -5900.28, 34935.62, 6638.76, -2088.52, -4343.15, 2588.64, -13798.49, -26897.11, 0.00, 0.00, 0.00
157, -6307.57, 32903.53, 5226.15, -996.37, -3843.63, 1700.48, -12686.85, -25786.96, -0.03, 0.92, 0.34
158, -6402.25, 30807.99, 4303.58, -705.00, -3286.87, 1445.84, -12415.86, -25517.29, 0.00, 0.00, 0.00
159, -5951.29, 32930.78, 5753.27, -1874.69, -3819.47, 2370.07, -13602.58, -26682.60, 0.00, 0.00, 0.00
160, -5873.99, 34987.39, 6680.89, -2252.52, -4387.92, 2643.99, -13962.37, -27040.63, 0.00, 0.00, 0.00
161, -6245.73, 33573.41, 5552.49, -1251.30, -4052.91, 1840.58, -12938.06, -26050.00, 0.00, 0.00, 0.00
162, -6446.40, 30959.60, 4258.74, -600.30, -3350.21, 1333.06, -12318.36, -25421.35, 0.00, 0.00, 0.00
163, -6040.54, 32476.64, 5428.86, -1685.10, -3735.96, 2167.18, -13429.96, -26508.21, 0.00, 0.00, 0.00
164, -5862.33, 34909.16, 6655.75, -2289.35, -4392.07, 2641.60, -14011.62, -27088.21, 0.00, 0.00, 0.00
165, -6166.24, 34156.66, 5866.46, -1495.38, -4199.42, 1982.89, -13191.82, -26276.46, 0.00, 0.00, 0.00
166, -6467.16, 31270.54, 4315.79, -605.60, -3449.25, 1282.83, -12308.99, -25391.33, 0.00, 0.00, 0.00
167, -6138.06, 32034.09, 5093.74, -1511.31, -3630.79, 1961.05, -13240.48, -26304.25, -0.03, 0.92, 0.34
168, -5851.35, 34721.20, 6550.29, -2305.69, -4337.94, 2619.76, -14020.06, -27079.56, 0.00, 0.00, 0.00
169, -6054.95, 34655.06, 6133.01, -1707.72, -4280.25, 2143.96, -13394.37, -26455.08, 0.00, 0.00, 0.00
170, -6436.21, 31734.78, 4454.17, -654.91, -3559.40, 1307.49, -12339.10, -25409.33, 0.00, 0.00, 0.00
171, -6202.45, 31653.71, 4767.00, -1263.48, -3513.05, 1763.28, -12979.68, -26034.46, 0.00, 0.00, 0.00
172, -5845.50, 34441.78, 6371.01, -2279.21, -4270.46, 2576.24, -13997.51, -27035.13, 0.00, 0.00, 0.00
173, -6006.34, 35044.36, 6338.78, -1975.87, -4442.99, 2282.74, -13660.56, -26700.86, 0.00, 0.00, 0.00
174, -6424.74, 32332.31, 4675.74, -844.05, -3784.35, 1369.96, -12506.38, -25563.00, 0.00, 0.00, 0.00
175, -6299.41, 31404.51, 4495.00, -1087.59, -3492.48, 1557.22, -12776.06, -25819.30, 0.00, 0.00, 0.00
176, -5874.95, 34092.29, 6135.87, -2209.36, -4195.65, 2471.07, -13897.67, -26922.56, 0.00, 0.00, 0.00
177, -5932.29, 35310.95, 6492.40, -2148.07, -4508.79, 2401.23, -13812.01, -26834.47, -0.03, 0.92, 0.34
178, -6349.71, 32996.43, 4962.78, -1019.28, -3948.46, 1489.45, -12666.93, -25699.59, 0.00, 0.00, 0.00
179, -6352.72, 31275.21, 4293.05, -900.80, -3444.87, 1397.52, -12572.48, -25603.34, 0.00, 0.00, 0.00
180, -5927.50, 33667.89, 5851.37, -2117.40, -4089.77, 2336.61, -13796.99, -26810.96, 0.00, 0.00, 0.00
181, -5900.88, 35419.11, 6568.71, -2307.57, -4551.96, 2466.54, -13961.66, -26977.79, 0.00, 0.00, 0.00
182, -6287.90, 33621.47, 5263.19, -1251.94, -4110.42, 1612.16, -12885.60, -25907.75, 0.00, 0.00, 0.00
183, -6425.70, 31290.50, 4174.55, -813.74, -3495.72, 1255.01, -12478.35, -25484.99, 0.00, 0.00, 0.00
184, -6003.23, 33166.25, 5514.69, -1966.51, -3988.18, 2148.18, -13650.59, -26644.04, 0.00, 0.00, 0.00
185, -5883.78, 35413.32, 6581.11, -2446.22, -4605.53, 2500.89, -14088.88, -27098.43, 0.00, 0.00, 0.00
186, -6218.50, 34262.14, 5582.59, -1530.07, -4306.15, 1750.10, -13135.76, -26162.13, 0.00, 0.00, 0.00
187, -6452.97, 31520.00, 4171.98, -758.24, -3562.67, 1166.96, -12372.96, -25406.78, -0.03, 0.92, 0.34
188, -6074.82, 32743.81, 5188.26, -1777.86, -3866.45, 1953.97, -13423.81, -26435.23, 0.00, 0.00, 0.00
189, -5851.84, 35304.49, 6521.59, -2482.38, -4560.85, 2505.83, -14117.79, -27121.16, 0.00, 0.00, 0.00
190, -6125.20, 34838.63, 5884.99, -1782.40, -4438.97, 1912.84, -13390.30, -26400.58, 0.00, 0.00, 0.00
191, -6459.70, 31911.58, 4265.18, -809.65, -3682.79, 1150.89, -12411.05, -25426.83, 0.00, 0.00, 0.00
192, -6176.55, 32338.68, 4858.62, -1601.97, -3785.16, 1744.22, -13235.29, -26235.11, 0.00, 0.00, 0.00
193, -5881.28, 35093.54, 6386.85, -2515.38, -4534.92, 2471.79, -14144.65, -27129.25, 0.00, 0.00, 0.00
194, -6070.06, 35303.28, 6129.14, -2003.32, -4552.25, 2068.27, -13610.29, -26607.09, 0.00, 0.00, 0.00
195, -6468.35, 32440.29, 4442.03, -890.99, -3838.71, 1191.04, -12485.55, -25503.83, 0.00, 0.00, 0.00
196, -6282.18, 31996.86, 4548.20, -1360.68, -3685.15, 1539.05, -12973.76, -25983.50, 0.00, 0.00, 0.00
197, -5918.16, 34768.83, 6184.46, -2451.92, -4446.01, 2396.93, -14056.03, -27049.57, -0.03, 0.92, 0.34
198, -6022.99, 35619.27, 6311.37, -2215.24, -4641.83, 2188.41, -13793.53, -26782.02, 0.00, 0.00, 0.00
199, -6439.67, 33045.45, 4691.32, -1078.78, -4014.19, 1276.13, -12642.53, -25643.20, 0.00, 0.00, 0.00
200, -6390.90, 31786.68, 4305.97, -1221.88, -3673.62, 1354.90, -12808.64, -25798.14, 0.00, 0.00, 0.00
201, -5965.17, 34373.81, 5925.63, -2387.37, -4355.66, 2280.93, -13976.92, -26947.29, 0.00, 0.00, 0.00
202, -5979.40, 35825.73, 6440.07, -2406.66, -4719.06, 2289.49, -13971.00, -26952.38, 0.00, 0.00, 0.00
203, -6374.61, 33713.58, 4995.68, -1285.02, -4190.77, 1396.72, -12837.03, -25837.59, 0.00, 0.00, 0.00
204, -6453.46, 31734.83, 4147.34, -1076.37, -3677.49, 1197.96, -12649.66, -25635.93, 0.00, 0.00, 0.00
205, -6023.55, 33947.07, 5637.02, -2260.83, -4269.34, 2122.45, -13837.16, -26810.00, 0.00, 0.00, 0.00
206, -5941.56, 35899.00, 6496.18, -2533.39, -4760.83, 2339.87, -14089.22, -27059.63, 0.00, 0.00, 0.00
207, -6313.45, 34373.14, 5313.55, -1549.49, -4377.07, 1530.02, -13078.14, -26049.15, -0.03, 0.92, 0.34
208, -6512.49, 31851.17, 4079.26, -992.60, -3718.84, 1082.34, -12527.62, -25502.60, 0.00, 0.00, 0.00
209, -6105.54, 33479.29, 5297.27, -2098.74, -4141.49, 1933.54, -13650.19, -26607.34, 0.00, 0.00, 0.00
210, -5916.24, 35841.73, 6465.55, -2621.10, -4747.80, 2365.51, -14151.09, -27109.56, 0.00, 0.00, 0.00
211, -6225.56, 34972.16, 5611.36, -1797.88, -4526.21, 1690.64, -13299.02, -26264.91, 0.00, 0.00, 0.00
212, -6529.44, 32126.61, 4098.26, -975.79, -3817.36, 1028.65, -12481.79, -25444.78, 0.00, 0.00, 0.00
213, -6188.06, 33024.48, 4952.34, -1907.43, -4043.07, 1735.59, -13438.76, -26385.52, 0.00, 0.00, 0.00
214, -5942.08, 35674.23, 6370.98, -2704.38, -4778.13, 2349.97, -14225.66, -27167.03, 0.00, 0.00, 0.00
215, -6169.01, 35483.26, 5886.29, -2082.15, -4701.20, 1828.02, -13581.46, -26520.05, 0.00, 0.00, 0.00
216, -6527.54, 32550.31, 4223.00, -1040.29, -3956.44, 1012.49, -12537.74, -25482.75, 0.00, 0.00, 0.00
217, -6263.94, 32615.15, 4621.63, -1684.67, -3926.91, 1514.13, -13199.24, -26138.26, -0.03, 0.93, 0.34
218, -5936.29, 35385.02, 6202.27, -2680.33, -4695.19, 2293.91, -14185.51, -27118.97, 0.00, 0.00, 0.00
219, -6092.46, 35869.21, 6108.49, -2296.64, -4801.18, 1966.17, -13763.58, -26721.20, 0.00, 0.00, 0.00
220, -6486.90, 33102.55, 4434.50, -1156.32, -4101.48, 1069.35, -12620.49, -25575.51, 0.00, 0.00, 0.00
221, -6353.75, 32311.44, 4335.48, -1496.16, -3871.03, 1315.38, -12989.47, -25931.31, 0.00, 0.00, 0.00
222, -5972.10, 35024.71, 5975.94, -2636.16, -4629.56, 2198.43, -14135.02, -27065.59, 0.00, 0.00, 0.00
223, -6040.11, 36117.67, 6261.01, -2511.87, -4900.87, 2068.72, -13984.99, -26915.10, 0.00, 0.00, 0.00
224, -6448.01, 33715.68, 4700.37, -1382.97, -4310.22, 1156.23, -12847.74, -25771.81, 0.00, 0.00, 0.00
225, -6434.08, 32130.70, 4110.93, -1339.83, -3863.54, 1124.29, -12830.82, -25742.71, 0.00, 0.00, 0.00
226, -6018.68, 34572.31, 5685.86, -2546.91, -4542.28, 2061.05, -14027.91, -26943.17, 0.00, 0.00, 0.00
227, -5990.96, 36237.07, 6345.28, -2669.36, -4959.65, 2147.71, -14117.00, -27040.71, -0.03, 0.93, 0.34
228, -6366.45, 34345.24, 4998.19, -1586.01, -4466.26, 1289.72, -13013.43, -25945.75, 0.00, 0.00, 0.00
229, -6490.05, 32134.70, 3990.70, -1227.27, -3886.43, 1000.40, -12677.84, -25602.16, 0.00, 0.00, 0.00
230, -6082.29, 34115.13, 5377.81, -2413.27, -4438.41, 1902.60, -13881.91, -26786.26, 0.00, 0.00, 0.00
231, -5964.92, 36255.36, 6377.35, -2810.66, -4995.59, 2204.40, -14252.21, -27150.60, 0.00, 0.00, 0.00
232, -6305.76, 34998.98, 5330.02, -1886.51, -4670.71, 1449.71, -13299.87, -26198.52, 0.00, 0.00, 0.00
233, -6550.16, 32316.26, 3964.66, -1210.53, -3982.45, 908.89, -12632.58, -25534.23, 0.00, 0.00, 0.00
234, -6154.84, 33658.24, 5045.26, -2226.10, -4307.38, 1711.54, -13678.17, -26563.13, 0.00, 0.00, 0.00
235, -5943.37, 36140.91, 6323.22, -2859.77, -4966.98, 2217.65, -14297.99, -27176.68, 0.00, 0.00, 0.00
236, -6214.14, 35550.89, 5622.29, -2114.90, -4794.09, 1608.23, -13510.15, -26404.88, 0.00, 0.00, 0.00
237, -6546.27, 32659.23, 4039.61, -1211.33, -4071.37, 890.40, -12603.41, -25500.57, -0.03, 0.93, 0.34
238, -6249.97, 33215.81, 4704.57, -2041.56, -4218.69, 1514.64, -13447.55, -26336.66, 0.00, 0.00, 0.00
239, -5954.30, 35929.18, 6201.89, -2900.34, -4957.53, 2200.26, -14309.32, -27186.13, 0.00, 0.00, 0.00
240, -6148.38, 36007.83, 5872.45, -2366.65, -4954.42, 1751.13, -13770.62, -26637.00, 0.00, 0.00, 0.00
241, -6532.57, 33135.21, 4195.96, -1309.54, -4244.35, 901.56, -12712.02, -25576.99, 0.00, 0.00, 0.00
242, -6322.32, 32850.34, 4391.36, -1824.39, -4146.11, 1296.83, -13231.18, -26109.09, 0.00, 0.00, 0.00
243, -5947.53, 35612.92, 6008.06, -2858.36, -4889.31, 2122.61, -14255.16, -27124.45, 0.00, 0.00, 0.00
244, -6049.81, 36349.61, 6075.05, -2567.63, -5039.78, 1879.92, -13940.27, -26814.13, 0.00, 0.00, 0.00
245, -6452.14, 33728.18, 4449.00, -1434.18, -4386.55, 982.40, -12796.08, -25678.73, 0.00, 0.00, 0.00
246, -6383.77, 32612.56, 4151.57, -1648.75, -4105.17, 1112.47, -13034.80, -25902.16, 0.00, 0.00, 0.00
247, -5974.96, 35233.70, 5779.80, -2806.86, -4821.11, 2014.27, -14191.84, -27045.41, -0.04, 0.92, 0.34
248, -5994.22, 36569.98, 6222.46, -2772.04, -5130.55, 1973.12, -14130.57, -26980.83, 0.00, 0.00, 0.00
249, -6398.92, 34378.14, 4742.46, -1670.21, -4583.27, 1086.36, -13004.87, -25865.39, 0.00, 0.00, 0.00
250, -6461.80, 32519.96, 3971.26, -1518.94, -4096.05, 944.61, -12870.94, -25726.28, 0.00, 0.00, 0.00
251, -6042.70, 34790.69, 5482.97, -2702.24, -4708.53, 1867.13, -14064.41, -26903.99, 0.00, 0.00, 0.00
252, -5990.80, 36645.46, 6282.31, -2946.00, -5190.77, 2038.46, -14279.66, -27121.74, 0.00, 0.00, 0.00
253, -6344.52, 35005.42, 5051.40, -1895.72, -4744.02, 1218.68, -13204.49, -26053.44, 0.00, 0.00, 0.00
254, -6495.46, 32567.47, 3882.16, -1369.74, -4080.51, 834.75, -12691.86, -25535.50, 0.00, 0.00, 0.00
255, -6094.07, 34290.75, 5151.88, -2512.76, -4559.20, 1706.76, -13848.45, -26677.57, 0.00, 0.00, 0.00
0, -5936.56, 36589.85, 6279.90, -3023.48, -5169.11, 2097.69, -14337.50, -27158.87, 0.00, 0.00, 0.00
1, -6252.48, 35596.67, 5365.45, -2179.43, -4915.37, 1390.46, -13474.73, -26293.52, -0.03, 0.92, 0.34
2, -6528.90, 32808.36, 3897.09, -1398.19, -4203.09, 771.47, -12700.42, -25516.06, 0.00, 0.00, 0.00
3, -6170.38, 33839.71, 4818.19, -2331.69, -4444.91, 1515.47, -13648.47, -26455.23, 0.00, 0.00, 0.00
4, -5946.39, 36443.80, 6198.76, -3094.22, -5171.21, 2097.55, -14395.77, -27209.83, 0.00, 0.00, 0.00
5, -6183.03, 36137.56, 5646.63, -2429.41, -5056.88, 1546.32, -13703.52, -26521.55, 0.00, 0.00, 0.00
6, -6548.79, 33238.18, 4011.31, -1474.97, -4341.76, 767.58, -12748.12, -25560.87, 0.00, 0.00, 0.00
7, -6275.01, 33458.44, 4489.95, -2166.40, -4367.73, 1298.68, -13469.56, -26262.67, 0.00, 0.00, 0.00
8, -5935.93, 36202.05, 6045.03, -3083.00, -5091.48, 2043.87, -14383.50, -27168.14, 0.00, 0.00, 0.00
9, -6107.95, 36559.61, 5880.43, -2682.97, -5172.42, 1684.67, -13950.24, -26742.54, 0.00, 0.00, 0.00
10, -6518.91, 33768.37, 4203.16, -1589.90, -4491.49, 809.33, -12845.32, -25642.81, 0.00, 0.00, 0.00
11, -6360.35, 33138.29, 4196.96, -1967.74, -4301.08, 1104.29, -13234.87, -26040.50, -0.03, 0.92, 0.35
12, -5972.81, 35858.19, 5832.37, -3040.37, -5045.06, 1966.48, -14308.96, -27108.78, 0.00, 0.00, 0.00
13, -6048.29, 36846.02, 6053.28, -2877.03, -5273.09, 1803.20, -14131.00, -26915.05, 0.00, 0.00, 0.00
14, -6458.89, 34392.61, 4473.43, -1754.39, -4660.76, 901.51, -12988.71, -25782.29, 0.00, 0.00, 0.00
15, -6436.90, 32959.93, 3975.17, -1789.50, -4272.11, 926.57, -13034.44, -25829.99, 0.00, 0.00, 0.00
16, -6016.69, 35455.12, 5566.37, -2962.75, -4953.28, 1850.05, -14210.48, -26992.77, 0.00, 0.00, 0.00
17, -6016.84, 37017.93, 6158.80, -3069.14, -5361.33, 1891.43, -14295.97, -27076.54, 0.00, 0.00, 0.00
18, -6401.14, 35044.63, 4771.67, -1987.03, -4855.49, 1022.46, -13197.34, -25979.57, 0.00, 0.00, 0.00
19, -6497.85, 32932.97, 3827.27, -1665.90, -4293.39, 779.11, -12897.65, -25674.53, 0.00, 0.00, 0.00
20, -6061.44, 35000.62, 5253.20, -2810.89, -4837.61, 1688.58, -14058.35, -26820.71, 0.00, 0.00, 0.00
21, -5954.44, 37040.86, 6190.34, -3162.91, -5360.60, 1951.49, -14378.63, -27145.75, -0.03, 0.92, 0.35
22, -6312.15, 35694.64, 5095.88, -2248.07, -5028.92, 1185.45, -13442.94, -26208.02, 0.00, 0.00, 0.00
23, -6515.85, 33091.42, 3788.91, -1588.09, -4322.09, 698.34, -12790.50, -25552.98, 0.00, 0.00, 0.00
24, -6121.96, 34552.44, 4931.44, -2654.76, -4703.43, 1529.60, -13874.62, -26622.96, 0.00, 0.00, 0.00
25, -5935.53, 36978.77, 6165.50, -3268.70, -5360.64, 1994.13, -14477.54, -27217.54, 0.00, 0.00, 0.00
26, -6223.60, 36256.92, 5395.24, -2491.91, -5162.90, 1349.31, -13678.80, -26432.88, 0.00, 0.00, 0.00
27, -6558.72, 33409.66, 3849.73, -1654.74, -4478.60, 657.12, -12855.85, -25612.51, 0.00, 0.00, 0.00
28, -6232.56, 34092.71, 4585.13, -2471.37, -4633.05, 1302.77, -13688.79, -26442.58, 0.00, 0.00, 0.00
29, -5939.37, 36771.23, 6051.13, -3289.66, -5343.50, 1961.10, -14495.58, -27230.57, 0.00, 0.00, 0.00
30, -6159.78, 36742.82, 5658.99, -2748.33, -5327.49, 1489.88, -13920.53, -26662.30, 0.00, 0.00, 0.00
31, -6528.52, 33864.93, 3994.12, -1687.76, -4594.49, 669.75, -12853.28, -25604.17, -0.03, 0.92, 0.35
32, -6298.97, 33732.49, 4274.88, -2255.87, -4537.05, 1118.88, -13449.87, -26185.13, 0.00, 0.00, 0.00
33, -5952.65, 36491.75, 5873.97, -3277.08, -5301.45, 1914.40, -14474.41, -27186.65, 0.00, 0.00, 0.00
34, -6068.23, 37109.32, 5866.77, -2938.38, -5417.15, 1630.31, -14103.19, -26827.93, 0.00, 0.00, 0.00
35, -6475.01, 34438.72, 4220.90, -1815.14, -4753.10, 748.58, -12965.55, -25703.10, 0.00, 0.00, 0.00
36, -6377.38, 33463.55, 4004.63, -2053.07, -4486.62, 936.07, -13233.80, -25961.15, 0.00, 0.00, 0.00
37, -5994.07, 36111.16, 5631.39, -3215.75, -5246.11, 1822.92, -14395.01, -27109.54, 0.00, 0.00, 0.00
38, -6045.32, 37346.28, 6007.55, -3159.78, -5546.88, 1736.86, -14321.66, -27022.95, 0.00, 0.00, 0.00
39, -6444.39, 35080.79, 4498.04, -2042.08, -4970.69, 845.41, -13185.14, -25897.40, 0.00, 0.00, 0.00
40, -6468.57, 33348.29, 3805.09, -1931.12, -4502.00, 758.19, -13075.57, -25798.23, 0.00, 0.00, 0.00
41, -6039.31, 35684.25, 5338.74, -3099.67, -5136.54, 1678.03, -14262.80, -26964.23, -0.04, 0.92, 0.35
42, -5991.88, 37452.89, 6079.58, -3298.67, -5589.77, 1812.59, -14437.86, -27143.71, 0.00, 0.00, 0.00
43, -6365.37, 35729.75, 4806.03, -2273.69, -5145.51, 982.94, -13387.20, -26103.75, 0.00, 0.00, 0.00
44, -6520.61, 33402.33, 3703.66, -1837.45, -4544.27, 637.65, -12966.02, -25681.10, 0.00, 0.00, 0.00
45, -6111.84, 35233.25, 5022.91, -2973.41, -5052.12, 1510.49, -14109.81, -26803.52, 0.00, 0.00, 0.00
46, -5948.87, 37440.15, 6089.46, -3401.44, -5604.01, 1857.30, -14518.66, -27203.50, 0.00, 0.00, 0.00
47, -6281.00, 36354.82, 5128.07, -2550.45, -5329.39, 1142.15, -13648.67, -26340.68, 0.00, 0.00, 0.00
48, -6545.78, 33631.42, 3712.31, -1801.95, -4633.38, 567.78, -12920.20, -25614.85, 0.00, 0.00, 0.00
49, -6158.93, 34781.46, 4698.76, -2742.58, -4914.17, 1326.67, -13895.14, -26570.34, 0.00, 0.00, 0.00
50, -5932.73, 37314.02, 6028.94, -3446.84, -5605.53, 1868.45, -14584.69, -27255.98, 0.00, 0.00, 0.00
51, -6186.83, 36890.79, 5413.32, -2769.18, -5472.69, 1293.52, -13869.35, -26552.62, -0.03, 0.92, 0.35
52, -6525.37, 34001.54, 3799.84, -1807.12, -4734.41, 552.51, -12904.98, -25596.77, 0.00, 0.00, 0.00
53, -6247.56, 34362.95, 4357.72, -2561.13, -4831.11, 1136.59, -13680.76, -26358.76, 0.00, 0.00, 0.00
54, -5945.61, 37087.78, 5886.62, -3477.98, -5585.23, 1843.73, -14598.37, -27258.78, 0.00, 0.00, 0.00
55, -6112.64, 37328.62, 5653.61, -2998.02, -5592.79, 1442.56, -14103.93, -26755.53, 0.00, 0.00, 0.00
56, -6498.01, 34524.23, 3990.21, -1912.97, -4880.30, 595.18, -13018.26, -25666.04, 0.00, 0.00, 0.00
57, -6345.97, 34044.79, 4069.56, -2383.75, -4772.25, 935.71, -13503.18, -26153.19, 0.00, 0.00, 0.00
58, -5974.38, 36771.99, 5696.10, -3441.59, -5511.25, 1766.28, -14555.99, -27200.71, 0.00, 0.00, 0.00
59, -6078.87, 37655.34, 5856.36, -3251.51, -5719.43, 1557.67, -14343.27, -26985.51, 0.00, 0.00, 0.00
60, -6490.63, 35139.54, 4259.50, -2136.13, -5097.58, 656.85, -13215.11, -25859.18, 0.00, 0.00, 0.00
61, -6439.56, 33843.78, 3849.82, -2222.21, -4739.15, 734.68, -13329.84, -25963.70, -0.03, 0.91, 0.34
62, -6029.07, 36383.21, 5459.66, -3376.12, -5439.74, 1639.12, -14478.70, -27108.44, 0.00, 0.00, 0.00
63, -6043.58, 37841.12, 5995.56, -3430.30, -5805.40, 1639.70, -14509.25, -27143.15, 0.00, 0.00, 0.00
64, -6416.25, 35792.07, 4585.44, -2334.28, -5254.09, 774.11, -13391.31, -26034.64, 0.00, 0.00, 0.00
65, -6481.29, 33781.11, 3712.49, -2068.39, -4708.64, 582.82, -13153.04, -25789.11, 0.00, 0.00, 0.00
66, -6057.14, 35926.70, 5173.94, -3223.05, -5293.70, 1498.59, -14325.93, -26948.27, 0.00, 0.00, 0.00
67, -5989.62, 37871.48, 6045.27, -3528.65, -5802.33, 1714.69, -14617.44, -27233.65, 0.00, 0.00, 0.00
68, -6347.76, 36398.61, 4890.34, -2564.64, -5423.14, 923.26, -13628.86, -26254.65, 0.00, 0.00, 0.00
69, -6555.59, 33868.32, 3635.58, -1999.45, -4781.42, 481.43, -13066.58, -25697.62, 0.00, 0.00, 0.00
70, -6155.89, 35432.83, 4819.30, -3062.95, -5197.61, 1319.76, -14149.86, -26759.84, 0.00, 0.00, 0.00
71, -5992.37, 37789.67, 5993.93, -3638.26, -5845.74, 1743.95, -14707.76, -27309.94, 0.00, 0.00, 0.00
72, -6286.50, 36967.19, 5166.74, -2830.42, -5615.23, 1079.05, -13862.91, -26485.07, -0.03, 0.92, 0.34
73, -6577.25, 34146.96, 3652.63, -1987.32, -4890.83, 434.32, -13029.88, -25649.23, 0.00, 0.00, 0.00
74, -6228.00, 34971.49, 4460.20, -2854.03, -5090.63, 1127.76, -13920.04, -26524.05, 0.00, 0.00, 0.00
75, -5960.72, 37603.50, 5881.84, -3642.60, -5800.86, 1746.77, -14694.62, -27285.78, 0.00, 0.00, 0.00
76, -6189.51, 37457.34, 5420.48, -3067.60, -5742.79, 1244.32, -14098.03, -26685.72, 0.00, 0.00, 0.00
77, -6556.12, 34582.77, 3774.29, -2057.57, -5025.43, 450.03, -13081.78, -25677.33, 0.00, 0.00, 0.00
78, -6303.64, 34599.52, 4140.77, -2662.14, -5006.37, 937.19, -13699.81, -26294.39, 0.00, 0.00, 0.00
79, -5950.77, 37334.36, 5718.67, -3621.85, -5737.89, 1705.28, -14656.62, -27239.56, 0.00, 0.00, 0.00
80, -6087.18, 37840.65, 5651.46, -3260.54, -5836.00, 1388.20, -14272.01, -26856.31, 0.00, 0.00, 0.00
81, -6503.31, 35133.16, 3998.64, -2176.30, -5174.70, 517.20, -13180.98, -25767.74, 0.00, 0.00, 0.00
82, -6406.05, 34305.81, 3865.78, -2502.68, -4971.34, 747.51, -13526.07, -26103.26, -0.03, 0.92, 0.35
83, -6003.92, 36967.68, 5490.10, -3586.92, -5682.37, 1610.62, -14605.72, -27173.89, 0.00, 0.00, 0.00
84, -6070.96, 38086.79, 5801.89, -3498.99, -5951.42, 1487.42, -14498.46, -27059.24, 0.00, 0.00, 0.00
85, -6487.75, 35749.89, 4264.62, -2416.89, -5377.70, 595.76, -13402.17, -25958.58, 0.00, 0.00, 0.00
86, -6492.56, 34142.96, 3650.58, -2355.58, -4941.61, 555.87, -13350.34, -25918.05, 0.00, 0.00, 0.00
87, -6070.11, 36536.00, 5207.13, -3509.09, -5598.44, 1461.04, -14515.71, -27085.33, 0.00, 0.00, 0.00
88, -6022.77, 38204.70, 5885.37, -3631.98, -5998.54, 1546.67, -14624.92, -27198.76, 0.00, 0.00, 0.00
89, -6398.05, 36386.18, 4572.14, -2591.01, -5534.38, 707.84, -13565.85, -26146.04, 0.00, 0.00, 0.00
90, -6529.32, 34144.81, 3537.12, -2202.52, -4945.52, 412.86, -13198.17, -25759.02, 0.00, 0.00, 0.00
91, -6125.43, 36070.48, 4900.78, -3362.28, -5492.83, 1295.86, -14376.33, -26917.91, 0.00, 0.00, 0.00
92, -5991.70, 38195.64, 5906.60, -3752.97, -6031.82, 1585.83, -14755.30, -27289.67, -0.03, 0.92, 0.35
93, -6318.39, 36987.02, 4884.06, -2851.55, -5700.97, 844.69, -13834.90, -26373.47, 0.00, 0.00, 0.00
94, -6562.49, 34322.91, 3514.70, -2165.39, -5020.02, 317.46, -13140.43, -25695.10, 0.00, 0.00, 0.00
95, -6192.55, 35597.57, 4554.68, -3166.77, -5370.65, 1100.62, -14145.21, -26708.84, 0.00, 0.00, 0.00
96, -5971.09, 38075.61, 5840.53, -3803.64, -6027.28, 1596.09, -14783.40, -27337.43, 0.00, 0.00, 0.00
97, -6229.68, 37534.68, 5166.56, -3089.99, -5855.22, 995.68, -14052.52, -26594.71, 0.00, 0.00, 0.00
98, -6554.29, 34668.54, 3583.50, -2169.82, -5124.07, 290.62, -13136.32, -25674.87, 0.00, 0.00, 0.00
99, -6251.25, 35165.33, 4216.25, -2940.86, -5241.08, 909.27, -13929.96, -26458.29, 0.00, 0.00, 0.00
100, -5964.67, 37850.53, 5706.38, -3822.80, -5990.36, 1583.98, -14811.11, -27326.68, 0.00, 0.00, 0.00
101, -6160.30, 37981.54, 5405.05, -3351.78, -6007.84, 1143.27, -14320.38, -26832.33, 0.00, 0.00, 0.00
102, -6532.99, 35143.73, 3735.04, -2268.17, -5276.67, 306.98, -13217.12, -25741.54, -0.03, 0.92, 0.35
103, -6346.26, 34802.74, 3895.77, -2758.00, -5189.65, 700.32, -13720.98, -26244.93, 0.00, 0.00, 0.00
104, -5981.13, 37526.54, 5505.30, -3785.33, -5940.33, 1511.60, -14744.77, -27260.34, 0.00, 0.00, 0.00
105, -6084.48, 38283.48, 5590.42, -3529.50, -6101.49, 1269.24, -14471.19, -26982.06, 0.00, 0.00, 0.00
106, -6482.90, 35715.70, 3982.10, -2408.80, -5445.58, 394.08, -13342.96, -25851.11, 0.00, 0.00, 0.00
107, -6430.13, 34561.63, 3655.14, -2582.88, -5154.38, 523.97, -13543.95, -26040.47, 0.00, 0.00, 0.00
108, -6028.51, 37131.92, 5265.74, -3717.59, -5860.69, 1409.01, -14680.20, -27166.69, 0.00, 0.00, 0.00
109, -6027.30, 38488.25, 5730.25, -3681.71, -6150.31, 1374.19, -14621.33, -27109.96, 0.00, 0.00, 0.00
110, -6419.78, 36353.79, 4274.97, -2608.60, -5602.13, 513.58, -13521.89, -26019.78, 0.00, 0.00, 0.00
111, -6495.84, 34486.37, 3489.69, -2426.55, -5133.21, 379.40, -13356.93, -25862.24, 0.00, 0.00, 0.00
112, -6078.04, 36710.04, 4986.50, -3577.46, -5751.08, 1291.39, -14529.66, -27008.04, -0.03, 0.92, 0.35
113, -5998.85, 38575.06, 5807.18, -3826.08, -6216.71, 1468.62, -14762.92, -27234.46, 0.00, 0.00, 0.00
114, -6354.22, 37025.77, 4622.25, -2852.08, -5812.26, 674.11, -13750.61, -26243.90, 0.00, 0.00, 0.00
115, -6549.31, 34601.30, 3443.00, -2349.79, -5196.15, 282.37, -13259.97, -25751.35, 0.00, 0.00, 0.00
116, -6157.32, 36291.21, 4692.59, -3451.56, -5661.70, 1133.73, -14376.53, -26852.76, 0.00, 0.00, 0.00
117, -5986.96, 38573.81, 5822.18, -3941.06, -6246.28, 1506.33, -14860.31, -27328.52, 0.00, 0.00, 0.00
118, -6285.40, 37647.11, 4944.16, -3117.40, -5974.38, 817.60, -14018.92, -26488.63, 0.00, 0.00, 0.00
119, -6564.19, 34872.50, 3466.71, -2317.90, -5258.83, 210.04, -13233.73, -25699.05, 0.00, 0.00, 0.00
120, -6234.57, 35838.36, 4342.81, -3261.30, -5542.32, 927.13, -14198.88, -26641.98, 0.00, 0.00, 0.00
121, -5988.39, 38414.24, 5715.14, -4002.66, -6252.05, 1488.40, -14913.02, -27363.25, 0.00, 0.00, 0.00
122, -6189.47, 38147.30, 5190.83, -3338.12, -6115.84, 956.27, -14228.20, -26678.59, -0.03, 0.92, 0.36
123, -6533.37, 35284.98, 3558.82, -2352.63, -5386.64, 203.67, -13257.87, -25699.77, 0.00, 0.00, 0.00
124, -6287.90, 35448.10, 3994.95, -3031.32, -5447.88, 728.53, -13962.93, -26395.60, 0.00, 0.00, 0.00
125, -5970.37, 38174.83, 5551.57, -3989.09, -6207.73, 1459.86, -14899.20, -27333.12, 0.00, 0.00, 0.00
126, -6121.49, 38572.45, 5419.16, -3591.79, -6263.54, 1102.37, -14466.52, -26912.82, 0.00, 0.00, 0.00
127, -6526.33, 35844.11, 3764.55, -2527.85, -5587.04, 245.49, -13398.15, -25841.43, 0.00, 0.00, 0.00
128, -6375.25, 35169.60, 3721.25, -2846.34, -5382.10, 528.24, -13750.84, -26178.23, 0.00, 0.00, 0.00
129, -5996.88, 37851.65, 5344.91, -3927.34, -6120.11, 1379.97, -14840.71, -27253.17, 0.00, 0.00, 0.00
130, -6066.06, 38870.38, 5593.55, -3780.06, -6343.67, 1222.33, -14667.01, -27082.42, 0.00, 0.00, 0.00
131, -6472.08, 36479.34, 4041.37, -2680.29, -5736.71, 343.84, -13554.92, -25973.15, 0.00, 0.00, 0.00
132, -6453.78, 35016.89, 3516.18, -2675.77, -5335.43, 362.52, -13573.77, -25986.34, -0.02, 0.92, 0.36
133, -6045.70, 37468.88, 5095.46, -3852.35, -6022.70, 1268.33, -14755.82, -27154.87, 0.00, 0.00, 0.00
134, -6024.78, 39036.89, 5707.81, -3951.65, -6399.75, 1306.15, -14827.03, -27231.55, 0.00, 0.00, 0.00
135, -6409.36, 37131.95, 4354.52, -2918.11, -5909.53, 463.02, -13769.55, -26181.20, 0.00, 0.00, 0.00
136, -6531.98, 35022.21, 3390.71, -2606.48, -5376.35, 213.59, -13465.61, -25878.49, 0.00, 0.00, 0.00
137, -6107.08, 37028.93, 4781.75, -3720.00, -5913.35, 1093.40, -14585.45, -26994.29, 0.00, 0.00, 0.00
138, -5989.84, 39075.30, 5727.68, -4080.91, -6432.14, 1346.25, -14940.98, -27335.22, 0.00, 0.00, 0.00
139, -6312.67, 37771.45, 4653.72, -3136.26, -6070.04, 590.18, -13989.78, -26386.17, 0.00, 0.00, 0.00
140, -6554.96, 35190.61, 3336.49, -2525.14, -5428.72, 114.46, -13391.73, -25788.79, 0.00, 0.00, 0.00
141, -6177.75, 36596.80, 4437.87, -3551.27, -5809.08, 914.03, -14442.13, -26815.54, 0.00, 0.00, 0.00
142, -5972.01, 38999.95, 5670.23, -4146.78, -6431.71, 1368.64, -15026.00, -27380.01, -0.02, 0.92, 0.36
143, -6250.98, 38350.90, 4938.62, -3423.42, -6251.27, 749.36, -14256.01, -26634.47, 0.00, 0.00, 0.00
144, -6566.50, 35527.71, 3389.75, -2544.75, -5533.98, 79.21, -13376.67, -25760.50, 0.00, 0.00, 0.00
145, -6249.79, 36163.47, 4095.20, -3345.32, -5691.40, 725.65, -14204.89, -26565.85, 0.00, 0.00, 0.00
146, -5958.28, 38807.07, 5556.58, -4166.72, -6397.43, 1369.07, -15015.48, -27372.28, 0.00, 0.00, 0.00
147, -6159.11, 38818.56, 5193.67, -3652.27, -6375.32, 903.97, -14463.50, -26839.91, 0.00, 0.00, 0.00
148, -6536.14, 35986.78, 3541.32, -2629.75, -5664.74, 97.88, -13444.89, -25812.06, 0.00, 0.00, 0.00
149, -6323.02, 35790.98, 3786.56, -3151.17, -5598.93, 523.86, -13990.20, -26346.87, 0.00, 0.00, 0.00
150, -5960.92, 38505.50, 5381.70, -4136.84, -6336.27, 1306.68, -14977.48, -27330.13, 0.00, 0.00, 0.00
151, -6080.93, 39164.77, 5405.25, -3855.77, -6478.54, 1028.45, -14681.92, -27032.24, 0.00, 0.00, 0.00
152, -6477.62, 36550.04, 3778.92, -2754.61, -5816.24, 156.28, -13573.34, -25926.90, -0.02, 0.92, 0.35
153, -6401.49, 35534.33, 3531.75, -2980.38, -5561.99, 328.08, -13821.58, -26175.54, 0.00, 0.00, 0.00
154, -5996.12, 38132.50, 5146.91, -4091.91, -6268.30, 1196.67, -14931.39, -27266.71, 0.00, 0.00, 0.00
155, -6008.91, 39376.48, 5548.10, -4029.17, -6531.34, 1123.71, -14857.56, -27181.33, 0.00, 0.00, 0.00
156, -6416.40, 37177.75, 4070.72, -2968.18, -5989.13, 259.95, -13777.15, -26107.37, 0.00, 0.00, 0.00
157, -6462.94, 35428.14, 3352.83, -2834.87, -5531.50, 170.34, -13648.85, -25986.12, 0.00, 0.00, 0.00
158, -6031.98, 37707.23, 4863.90, -3960.89, -6141.12, 1070.89, -14791.53, -27118.10, 0.00, 0.00, 0.00
159, -5975.45, 39476.98, 5620.59, -4177.32, -6587.77, 1203.66, -14979.67, -27317.56, 0.00, 0.00, 0.00
160, -6356.39, 37817.99, 4379.94, -3214.43, -6180.68, 391.47, -13989.78, -26333.15, 0.00, 0.00, 0.00
161, -6521.75, 35479.35, 3256.20, -2745.24, -5573.32, 43.18, -13546.81, -25876.99, 0.00, 0.00, 0.00
162, -6112.55, 37247.41, 4541.72, -3832.52, -6054.89, 898.88, -14647.88, -26970.08, -0.03, 0.92, 0.35
163, -5951.40, 39450.70, 5617.28, -4288.45, -6623.31, 1234.73, -15091.81, -27407.93, 0.00, 0.00, 0.00
164, -6252.36, 38415.00, 4684.28, -3443.46, -6332.34, 528.86, -14237.77, -26551.99, 0.00, 0.00, 0.00
165, -6528.03, 35709.77, 3262.28, -2708.32, -5641.58, -32.03, -13506.35, -25819.42, 0.00, 0.00, 0.00
166, -6166.71, 36806.15, 4214.09, -3626.37, -5915.59, 719.73, -14445.75, -26746.92, 0.00, 0.00, 0.00
167, -5932.94, 39328.09, 5556.38, -4333.18, -6600.85, 1251.68, -15140.13, -27439.00, 0.00, 0.00, 0.00
168, -6169.37, 38961.46, 4982.52, -3680.51, -6466.56, 691.94, -14452.70, -26763.46, 0.00, 0.00, 0.00
169, -6525.32, 36106.02, 3371.31, -2744.46, -5748.18, -36.97, -13515.45, -25821.92, 0.00, 0.00, 0.00
170, -6265.77, 36408.89, 3888.29, -3458.89, -5833.16, 522.23, -14243.09, -26546.72, 0.00, 0.00, 0.00
171, -5933.36, 39093.45, 5417.08, -4334.45, -6542.82, 1219.49, -15109.53, -27404.42, 0.00, 0.00, 0.00
172, -6089.11, 39368.02, 5218.19, -3909.99, -6583.33, 836.76, -14672.49, -26967.74, -0.03, 0.93, 0.35
173, -6493.54, 36619.84, 3570.94, -2875.35, -5918.21, 5.81, -13633.07, -25921.85, 0.00, 0.00, 0.00
174, -6341.08, 36086.09, 3608.22, -3265.68, -5772.05, 327.72, -14041.86, -26322.58, 0.00, 0.00, 0.00
175, -5958.68, 38771.98, 5224.07, -4314.94, -6502.59, 1155.90, -15083.45, -27356.25, 0.00, 0.00, 0.00
176, -6024.69, 39679.11, 5411.54, -4119.83, -6685.00, 963.90, -14871.62, -27135.15, 0.00, 0.00, 0.00
177, -6424.09, 37224.01, 3836.05, -3032.35, -6062.91, 96.25, -13776.85, -26036.09, 0.00, 0.00, 0.00
178, -6385.49, 35899.38, 3386.71, -3090.15, -5707.50, 167.82, -13849.34, -26111.24, 0.00, 0.00, 0.00
179, -5987.05, 38394.82, 4974.36, -4254.90, -6419.29, 1055.63, -15012.55, -27270.83, 0.00, 0.00, 0.00
180, -5984.21, 39867.87, 5524.52, -4323.97, -6781.27, 1051.29, -15061.37, -27319.91, 0.00, 0.00, 0.00
181, -6354.58, 37877.51, 4130.89, -3252.00, -6244.92, 200.56, -13982.67, -26237.33, 0.00, 0.00, 0.00
182, -6452.19, 35870.28, 3231.59, -2980.38, -5729.65, 8.25, -13723.52, -25979.45, -0.03, 0.92, 0.35
183, -6039.31, 37957.80, 4664.12, -4115.00, -6310.08, 899.48, -14869.03, -27111.77, 0.00, 0.00, 0.00
184, -5936.33, 39917.11, 5561.05, -4426.74, -6803.18, 1112.85, -15169.66, -27397.47, 0.00, 0.00, 0.00
185, -6254.82, 38497.93, 4436.17, -3454.22, -6395.71, 345.47, -14169.82, -26415.18, 0.00, 0.00, 0.00
186, -6473.24, 35985.84, 3172.94, -2885.07, -5770.28, -82.08, -13614.47, -25867.96, 0.00, 0.00, 0.00
187, -6110.34, 37498.43, 4327.88, -3959.88, -6217.34, 733.43, -14711.60, -26951.29, 0.00, 0.00, 0.00
188, -5922.23, 39837.85, 5515.14, -4513.17, -6826.54, 1135.89, -15253.12, -27478.07, 0.00, 0.00, 0.00
189, -6185.64, 39068.64, 4729.03, -3727.80, -6573.00, 490.11, -14448.26, -26669.74, 0.00, 0.00, 0.00
190, -6496.56, 36276.79, 3218.70, -2900.23, -5877.55, -145.00, -13624.39, -25852.68, 0.00, 0.00, 0.00
191, -6173.57, 37043.41, 3993.59, -3732.90, -6075.41, 529.40, -14476.49, -26695.22, 0.00, 0.00, 0.00
192, -5891.52, 39649.80, 5424.34, -4501.53, -6765.40, 1132.63, -15245.05, -27452.39, -0.03, 0.92, 0.34
193, -6103.01, 39537.02, 5001.20, -3948.86, -6708.72, 639.17, -14682.70, -26880.14, 0.00, 0.00, 0.00
194, -6456.68, 36694.05, 3362.46, -2933.69, -5981.48, -136.08, -13668.18, -25865.28, 0.00, 0.00, 0.00
195, -6244.76, 36656.77, 3692.93, -3544.54, -5996.21, 337.78, -14296.69, -26491.33, 0.00, 0.00, 0.00
196, -5902.00, 39364.44, 5270.16, -4518.11, -6740.59, 1084.95, -15265.84, -27447.88, 0.00, 0.00, 0.00
197, -6043.04, 39899.41, 5225.93, -4211.36, -6863.95, 765.01, -14920.88, -27114.14, 0.00, 0.00, 0.00
198, -6439.11, 37231.52, 3584.62, -3113.69, -6181.20, -92.83, -13814.88, -26008.24, 0.00, 0.00, 0.00
199, -6329.30, 36351.40, 3414.05, -3375.54, -5943.37, 134.16, -14094.47, -26282.52, 0.00, 0.00, 0.00
200, -5921.33, 38977.02, 5035.49, -4450.39, -6656.71, 991.99, -15164.72, -27336.88, 0.00, 0.00, 0.00
201, -5955.33, 40109.46, 5374.01, -4351.46, -6905.55, 878.27, -15051.33, -27216.11, 0.00, 0.00, 0.00
202, -6371.05, 37809.63, 3857.31, -3287.16, -6345.06, 8.34, -13979.18, -26143.40, -0.03, 0.92, 0.35
203, -6386.00, 36170.62, 3214.09, -3186.17, -5909.02, -28.32, -13898.90, -26059.92, 0.00, 0.00, 0.00
204, -5967.04, 38517.73, 4756.70, -4344.82, -6566.07, 878.33, -15065.19, -27205.74, 0.00, 0.00, 0.00
205, -5926.59, 40201.29, 5464.69, -4524.35, -7001.04, 964.77, -15219.48, -27366.25, 0.00, 0.00, 0.00
206, -6297.63, 38419.56, 4179.57, -3509.31, -6538.94, 138.22, -14187.05, -26340.48, 0.00, 0.00, 0.00
207, -6446.38, 36167.67, 3120.97, -3112.41, -5965.21, -154.43, -13806.38, -25955.92, 0.00, 0.00, 0.00
208, -6027.84, 38051.74, 4463.11, -4210.64, -6472.57, 716.87, -14920.59, -27053.84, 0.00, 0.00, 0.00
209, -5876.97, 40186.71, 5493.86, -4614.92, -7003.45, 1014.64, -15304.95, -27435.58, 0.00, 0.00, 0.00
210, -6200.96, 39015.59, 4497.01, -3753.66, -6694.75, 289.01, -14420.88, -26558.50, 0.00, 0.00, 0.00
211, -6450.11, 36339.31, 3106.02, -3049.27, -6007.77, -230.38, -13724.53, -25849.32, 0.00, 0.00, 0.00
212, -6096.01, 37580.90, 4125.42, -4045.78, -6365.22, 546.57, -14742.52, -26853.63, -0.03, 0.92, 0.35
213, -5886.76, 40068.79, 5430.15, -4727.77, -7052.18, 1031.49, -15414.41, -27520.43, 0.00, 0.00, 0.00
214, -6129.45, 39563.50, 4784.17, -4023.29, -6876.94, 433.94, -14681.54, -26799.47, 0.00, 0.00, 0.00
215, -6450.02, 36700.58, 3191.27, -3073.95, -6130.57, -262.23, -13735.06, -25854.75, 0.00, 0.00, 0.00
216, -6167.07, 37162.72, 3793.34, -3839.27, -6267.74, 351.95, -14521.86, -26633.11, 0.00, 0.00, 0.00
217, -5873.05, 39863.06, 5304.31, -4740.22, -7020.17, 1020.54, -15404.06, -27506.21, 0.00, 0.00, 0.00
218, -6038.93, 40013.42, 5032.18, -4241.51, -6995.89, 588.05, -14885.17, -26987.16, 0.00, 0.00, 0.00
219, -6433.19, 37207.96, 3369.15, -3200.03, -6297.42, -224.77, -13845.81, -25945.08, 0.00, 0.00, 0.00
220, -6268.75, 36840.05, 3495.32, -3672.70, -6217.47, 158.34, -14327.56, -26431.56, 0.00, 0.00, 0.00
221, -5902.18, 39571.10, 5116.96, -4697.24, -6969.99, 959.18, -15352.43, -27446.35, 0.00, 0.00, 0.00
222, -6004.24, 40375.77, 5237.89, -4473.28, -7141.99, 722.05, -15115.37, -27202.92, -0.03, 0.92, 0.35
223, -6423.02, 37841.82, 3629.54, -3383.47, -6509.81, -143.10, -14016.91, -26100.02, 0.00, 0.00, 0.00
224, -6380.01, 36660.01, 3262.39, -3522.19, -6205.74, -16.70, -14186.07, -26242.33, 0.00, 0.00, 0.00
225, -5964.65, 39237.14, 4875.14, -4651.38, -6908.50, 868.61, -15312.02, -27361.26, 0.00, 0.00, 0.00
226, -5970.71, 40609.81, 5362.61, -4658.15, -7234.05, 830.34, -15277.24, -27349.13, 0.00, 0.00, 0.00
227, -6357.35, 38501.30, 3919.58, -3575.52, -6680.94, -26.40, -14189.31, -26260.88, 0.00, 0.00, 0.00
228, -6423.27, 36588.08, 3088.05, -3337.65, -6164.92, -164.22, -13977.86, -26041.05, 0.00, 0.00, 0.00
229, -6009.83, 38793.75, 4568.36, -4509.15, -6791.04, 737.74, -15163.58, -27210.72, 0.00, 0.00, 0.00
230, -5917.58, 40684.67, 5414.55, -4766.67, -7262.62, 900.10, -15402.16, -27449.77, 0.00, 0.00, 0.00
231, -6263.83, 39141.46, 4233.06, -3795.64, -6845.36, 111.29, -14406.01, -26459.97, 0.00, 0.00, 0.00
232, -6464.66, 36702.57, 3022.98, -3269.68, -6230.91, -272.29, -13887.29, -25948.25, -0.03, 0.92, 0.35
233, -6059.54, 38363.04, 4250.59, -4316.61, -6676.29, 572.79, -14958.84, -27012.31, 0.00, 0.00, 0.00
234, -5890.47, 40677.09, 5408.74, -4844.20, -7283.38, 948.09, -15477.00, -27526.60, 0.00, 0.00, 0.00
235, -6185.71, 39776.78, 4551.24, -4028.81, -7002.71, 270.77, -14647.54, -26681.79, 0.00, 0.00, 0.00
236, -6494.92, 36995.58, 3058.25, -3245.18, -6303.21, -327.14, -13869.12, -25898.47, 0.00, 0.00, 0.00
237, -6158.04, 37940.63, 3918.80, -4138.54, -6557.62, 385.08, -14777.50, -26809.58, 0.00, 0.00, 0.00
238, -5888.70, 40537.05, 5325.73, -4879.54, -7237.81, 951.42, -15517.61, -27531.56, 0.00, 0.00, 0.00
239, -6124.15, 40306.83, 4834.44, -4301.50, -7159.35, 424.33, -14915.86, -26930.92, 0.00, 0.00, 0.00
240, -6476.89, 37438.25, 3195.70, -3298.00, -6422.73, -327.56, -13900.01, -25927.96, 0.00, 0.00, 0.00
241, -6221.03, 37557.25, 3603.48, -3913.37, -6434.37, 199.29, -14536.59, -26559.15, 0.00, 0.00, 0.00
242, -5915.50, 40302.29, 5176.28, -4910.66, -7223.12, 926.21, -15540.47, -27546.02, -0.02, 0.92, 0.35
243, -6066.51, 40724.45, 5061.06, -4531.17, -7293.42, 557.72, -15143.06, -27150.80, 0.00, 0.00, 0.00
244, -6454.87, 37988.29, 3395.77, -3422.68, -6581.20, -285.48, -14043.09, -26039.76, 0.00, 0.00, 0.00
245, -6326.21, 37270.32, 3312.39, -3747.16, -6391.70, 4.18, -14380.35, -26383.24, 0.00, 0.00, 0.00
246, -5923.95, 39963.98, 4945.64, -4807.82, -7116.95, 852.72, -15430.55, -27434.55, 0.00, 0.00, 0.00
247, -5989.89, 41006.84, 5222.89, -4689.62, -7361.86, 699.23, -15297.22, -27286.14, 0.00, 0.00, 0.00
248, -6399.95, 38623.79, 3669.78, -3597.00, -6762.54, -168.15, -14199.21, -26190.48, 0.00, 0.00, 0.00
249, -6403.86, 37126.45, 3105.62, -3578.87, -6375.92, -149.89, -14199.41, -26188.29, 0.00, 0.00, 0.00
250, -5982.91, 39576.20, 4680.59, -4722.21, -7047.59, 746.28, -15348.29, -27323.58, 0.00, 0.00, 0.00
251, -5948.72, 41168.52, 5321.73, -4840.58, -7423.15, 789.64, -15446.04, -27413.34, 0.00, 0.00, 0.00
252, -6320.42, 39281.34, 3976.93, -3795.19, -6918.94, -39.79, -14381.29, -26349.24, -0.02, 0.93, 0.35
253, -6454.24, 37125.33, 2975.53, -3453.88, -6377.15, -272.36, -14061.35, -26023.17, 0.00, 0.00, 0.00
254, -6057.48, 39148.39, 4376.61, -4618.94, -6968.65, 610.52, -15242.35, -27190.61, 0.00, 0.00, 0.00
255, -5926.94, 41220.95, 5361.07, -4978.11, -7477.33, 850.91, -15596.31, -27532.03, 0.00, 0.00, 0.00
0, -6245.75, 39931.30, 4307.87, -4050.36, -7100.95, 100.83, -14655.35, -26596.14, 0.00, 0.00, 0.00
1, -6493.83, 37316.66, 2964.15, -3410.14, -6441.57, -374.32, -14018.21, -25964.57, 0.00, 0.00, 0.00
2, -6142.35, 38687.80, 4046.54, -4443.77, -6846.12, 414.04, -15062.08, -27004.17, 0.00, 0.00, 0.00
3, -5926.03, 41123.99, 5313.90, -5046.55, -7477.26, 851.51, -15657.31, -27587.04, 0.00, 0.00, 0.00
4, -6193.27, 40479.99, 4593.35, -4314.45, -7271.94, 228.14, -14914.18, -26831.12, 0.00, 0.00, 0.00
5, -6528.23, 37617.63, 3009.30, -3430.01, -6550.18, -437.33, -14025.29, -25945.14, 0.00, 0.00, 0.00
6, -6220.47, 38235.00, 3693.76, -4223.81, -6717.30, 207.56, -14843.88, -26755.60, -0.02, 0.93, 0.35
7, -5935.93, 40901.66, 5177.07, -5065.87, -7458.55, 833.38, -15677.76, -27585.49, 0.00, 0.00, 0.00
8, -6120.29, 40927.38, 4837.30, -4540.44, -7412.69, 370.10, -15127.57, -27040.74, 0.00, 0.00, 0.00
9, -6506.46, 38072.17, 3163.69, -3502.34, -6699.47, -425.76, -14077.04, -26000.80, 0.00, 0.00, 0.00
10, -6304.44, 37837.90, 3375.00, -4001.54, -6633.37, 3.00, -14593.77, -26527.65, 0.00, 0.00, 0.00
11, -5948.49, 40571.52, 4990.36, -5023.87, -7393.33, 775.85, -15618.48, -27547.63, 0.00, 0.00, 0.00
12, -6061.32, 41224.17, 5027.49, -4739.17, -7516.40, 490.93, -15314.01, -27219.08, 0.00, 0.00, 0.00
13, -6475.52, 38584.70, 3386.33, -3637.48, -6860.38, -369.79, -14204.47, -26100.18, 0.00, 0.00, 0.00
14, -6412.36, 37511.05, 3099.99, -3830.24, -6601.21, -189.86, -14421.48, -26319.60, 0.00, 0.00, 0.00
15, -6020.26, 40121.34, 4729.67, -4966.36, -7352.54, 667.94, -15563.23, -27458.02, 0.00, 0.00, 0.00
16, -6013.22, 41365.34, 5152.43, -4886.07, -7609.47, 577.48, -15473.04, -27356.25, -0.03, 0.92, 0.35
17, -6408.45, 39136.85, 3664.57, -3808.04, -7045.49, -277.30, -14380.67, -26262.27, 0.00, 0.00, 0.00
18, -6488.62, 37337.94, 2909.75, -3688.60, -6619.38, -362.59, -14274.16, -26156.59, 0.00, 0.00, 0.00
19, -6058.33, 39617.15, 4428.24, -4826.77, -7246.97, 530.83, -15413.87, -27291.72, 0.00, 0.00, 0.00
20, -5975.60, 41392.50, 5208.65, -5042.15, -7679.01, 654.32, -15623.62, -27483.97, 0.00, 0.00, 0.00
21, -6333.68, 39712.23, 3968.46, -4062.30, -7241.38, -145.04, -14626.91, -26487.76, 0.00, 0.00, 0.00
22, -6489.69, 37325.82, 2817.53, -3549.03, -6611.94, -477.48, -14119.80, -25994.43, 0.00, 0.00, 0.00
23, -6091.50, 39086.23, 4109.28, -4657.48, -7118.49, 381.19, -15247.29, -27108.42, 0.00, 0.00, 0.00
24, -5941.74, 41303.09, 5219.44, -5153.84, -7713.81, 703.10, -15735.00, -27580.96, 0.00, 0.00, 0.00
25, -6256.57, 40267.85, 4303.00, -4332.71, -7435.33, -7.53, -14896.52, -26736.64, 0.00, 0.00, 0.00
26, -6533.30, 37506.96, 2843.19, -3561.71, -6725.86, -569.39, -14116.02, -25968.01, -0.03, 0.92, 0.35
27, -6187.19, 38576.29, 3779.08, -4500.39, -7024.30, 174.86, -15073.52, -26916.24, 0.00, 0.00, 0.00
28, -5948.22, 41110.47, 5145.51, -5215.42, -7707.57, 694.33, -15789.43, -27615.04, 0.00, 0.00, 0.00
29, -6170.98, 40712.96, 4571.96, -4541.27, -7553.37, 129.57, -15088.10, -26912.28, 0.00, 0.00, 0.00
30, -6513.81, 37820.29, 2942.34, -3571.34, -6818.00, -580.30, -14112.26, -25940.96, 0.00, 0.00, 0.00
31, -6261.51, 38095.15, 3444.38, -4272.33, -6908.19, -10.19, -14839.41, -26666.88, 0.00, 0.00, 0.00
32, -5939.01, 40821.91, 5006.77, -5202.08, -7662.36, 681.24, -15764.95, -27581.40, 0.00, 0.00, 0.00
33, -6098.20, 41098.64, 4822.39, -4785.08, -7704.06, 278.35, -15320.20, -27139.80, 0.00, 0.00, 0.00
34, -6485.34, 38287.38, 3148.49, -3695.39, -6989.48, -555.19, -14228.67, -26039.67, 0.00, 0.00, 0.00
35, -6340.50, 37711.19, 3169.39, -4094.08, -6848.93, -214.40, -14641.93, -26455.05, 0.00, 0.00, 0.00
36, -5942.57, 40437.19, 4827.44, -5139.60, -7585.80, 607.50, -15683.06, -27496.04, -0.02, 0.92, 0.35
37, -6017.89, 41322.25, 5031.56, -4959.18, -7781.45, 397.15, -15495.41, -27299.82, 0.00, 0.00, 0.00
38, -6443.72, 38799.63, 3438.41, -3870.41, -7163.26, -478.68, -14404.29, -26214.57, 0.00, 0.00, 0.00
39, -6419.04, 37411.95, 2961.11, -3910.57, -6797.34, -403.99, -14455.48, -26267.23, 0.00, 0.00, 0.00
40, -6001.09, 39942.77, 4581.50, -5074.63, -7500.53, 493.37, -15627.58, -27434.78, 0.00, 0.00, 0.00
41, -5974.98, 41416.06, 5159.59, -5129.66, -7840.59, 488.05, -15679.61, -27455.68, 0.00, 0.00, 0.00
42, -6366.27, 39361.31, 3746.58, -4076.47, -7324.38, -359.66, -14606.84, -26385.65, 0.00, 0.00, 0.00
43, -6477.13, 37272.25, 2801.03, -3773.29, -6800.83, -548.02, -14296.58, -26109.72, 0.00, 0.00, 0.00
44, -6048.25, 39392.91, 4249.71, -4907.88, -7379.96, 350.45, -15448.47, -27247.71, 0.00, 0.00, 0.00
45, -5942.01, 41362.93, 5166.23, -5224.99, -7885.94, 550.26, -15760.10, -27548.12, 0.00, 0.00, 0.00
46, -6285.42, 39891.49, 4025.53, -4287.29, -7504.51, -221.30, -14810.27, -26591.22, -0.03, 0.93, 0.36
47, -6515.02, 37304.17, 2715.09, -3711.46, -6875.11, -647.57, -14243.07, -26016.51, 0.00, 0.00, 0.00
48, -6118.66, 38834.21, 3877.00, -4755.69, -7302.02, 178.08, -15298.43, -27067.65, 0.00, 0.00, 0.00
49, -5899.56, 41222.67, 5110.06, -5303.49, -7906.33, 591.05, -15836.93, -27594.05, 0.00, 0.00, 0.00
50, -6172.14, 40412.60, 4316.23, -4523.72, -7662.42, -58.56, -15043.71, -26792.68, 0.00, 0.00, 0.00
51, -6500.98, 37538.99, 2753.00, -3693.04, -6961.92, -687.18, -14227.58, -25967.07, 0.00, 0.00, 0.00
52, -6182.09, 38331.65, 3534.32, -4553.61, -7190.04, 4.87, -15094.85, -26836.87, 0.00, 0.00, 0.00
53, -5899.68, 40993.75, 5004.82, -5343.52, -7904.87, 595.65, -15856.13, -27611.44, 0.00, 0.00, 0.00
54, -6092.64, 40857.42, 4584.66, -4746.48, -7799.19, 93.23, -15242.41, -26990.42, 0.00, 0.00, 0.00
55, -6485.02, 37938.57, 2903.96, -3740.77, -7080.32, -672.94, -14240.99, -25984.91, 0.00, 0.00, 0.00
56, -6275.79, 37898.07, 3218.56, -4341.76, -7085.57, -178.61, -14857.67, -26599.80, -0.03, 0.92, 0.36
57, -5927.95, 40697.27, 4847.85, -5344.19, -7859.79, 581.39, -15856.08, -27589.45, 0.00, 0.00, 0.00
58, -6049.12, 41246.70, 4823.10, -5011.31, -7951.41, 255.35, -15510.05, -27238.60, 0.00, 0.00, 0.00
59, -6453.40, 38531.30, 3154.50, -3900.78, -7264.18, -600.30, -14400.71, -26125.21, 0.00, 0.00, 0.00
60, -6354.96, 37642.50, 2964.78, -4169.99, -7036.13, -359.06, -14685.57, -26410.42, 0.00, 0.00, 0.00
61, -5964.94, 40383.84, 4637.41, -5328.19, -7812.85, 506.47, -15838.49, -27559.68, 0.00, 0.00, 0.00
62, -5982.82, 41550.98, 4997.69, -5212.92, -8043.88, 367.17, -15706.06, -27427.49, 0.00, 0.00, 0.00
63, -6378.14, 39208.33, 3456.29, -4098.50, -7437.01, -504.57, -14582.37, -26309.07, 0.00, 0.00, 0.00
64, -6416.90, 37543.75, 2784.00, -4006.30, -7011.16, -521.82, -14510.37, -26236.72, 0.00, 0.00, 0.00
65, -5989.73, 39997.68, 4372.87, -5182.25, -7683.10, 400.03, -15698.64, -27412.56, 0.00, 0.00, 0.00
66, -5944.25, 41741.32, 5113.10, -5368.82, -8118.42, 475.15, -15869.72, -27580.38, -0.04, 0.92, 0.37
67, -6319.17, 39932.26, 3802.90, -4328.33, -7636.07, -359.82, -14815.92, -26535.48, 0.00, 0.00, 0.00
68, -6492.15, 37637.86, 2699.06, -3915.60, -7061.72, -645.34, -14409.92, -26133.81, 0.00, 0.00, 0.00
69, -6069.44, 39588.00, 4067.12, -5024.05, -7583.19, 245.58, -15511.80, -27251.60, 0.00, 0.00, 0.00
70, -5933.81, 41776.91, 5135.07, -5462.03, -8151.39, 533.36, -15954.70, -27668.04, 0.00, 0.00, 0.00
71, -6263.23, 40589.80, 4132.59, -4588.97, -7825.57, -207.11, -15078.89, -26779.63, 0.00, 0.00, 0.00
72, -6535.00, 37863.18, 2701.68, -3880.82, -7143.44, -728.31, -14377.69, -26085.69, 0.00, 0.00, 0.00
73, -6164.52, 39133.01, 3728.25, -4856.52, -7490.43, 60.15, -15355.18, -27076.14, 0.00, 0.00, 0.00
74, -5910.47, 41676.86, 5076.28, -5498.26, -8144.30, 557.25, -15975.04, -27688.96, 0.00, 0.00, 0.00
75, -6155.42, 41161.27, 4435.23, -4799.08, -7977.54, -41.82, -15272.41, -26975.78, 0.00, 0.00, 0.00
76, -6509.88, 38266.99, 2807.51, -3894.84, -7276.77, -739.78, -14373.94, -26072.82, -0.04, 0.91, 0.36
77, -6226.48, 38736.11, 3396.88, -4652.94, -7412.31, -124.28, -15147.53, -26837.45, 0.00, 0.00, 0.00
78, -5902.07, 41490.27, 4950.82, -5527.50, -8151.70, 543.10, -16019.72, -27696.85, 0.00, 0.00, 0.00
79, -6076.70, 41648.88, 4697.73, -5060.12, -8157.63, 104.00, -15541.77, -27210.70, 0.00, 0.00, 0.00
80, -6476.89, 38805.44, 3011.54, -4002.46, -7457.48, -713.62, -14486.92, -26150.33, 0.00, 0.00, 0.00
81, -6316.18, 38408.52, 3120.48, -4461.23, -7377.15, -324.93, -14963.29, -26621.57, 0.00, 0.00, 0.00
82, -5945.14, 41182.48, 4777.60, -5528.57, -8153.25, 476.56, -16029.04, -27665.69, 0.00, 0.00, 0.00
83, -6039.87, 41985.27, 4915.69, -5314.48, -8322.20, 219.43, -15799.98, -27423.82, 0.00, 0.00, 0.00
84, -6442.96, 39414.51, 3292.88, -4187.22, -7655.34, -656.11, -14652.46, -26287.73, 0.00, 0.00, 0.00
85, -6387.19, 38168.48, 2892.54, -4267.48, -7315.61, -522.96, -14739.79, -26381.18, 0.00, 0.00, 0.00
86, -5971.11, 40760.06, 4532.46, -5411.38, -8037.69, 373.61, -15885.61, -27522.89, -0.03, 0.91, 0.36
87, -5978.53, 42142.49, 5050.73, -5455.48, -8376.56, 319.63, -15929.80, -27547.74, 0.00, 0.00, 0.00
88, -6371.43, 40004.17, 3600.82, -4387.94, -7832.32, -549.83, -14851.35, -26480.11, 0.00, 0.00, 0.00
89, -6456.68, 38028.16, 2728.43, -4143.68, -7323.46, -696.61, -14628.08, -26251.05, 0.00, 0.00, 0.00
90, -6032.56, 40241.43, 4222.65, -5304.67, -7945.91, 212.01, -15792.80, -27393.60, 0.00, 0.00, 0.00
91, -5928.82, 42131.36, 5093.02, -5564.76, -8419.99, 369.92, -16020.30, -27634.44, 0.00, 0.00, 0.00
92, -6278.83, 40539.22, 3897.61, -4591.03, -8003.73, -434.45, -15042.86, -26655.17, 0.00, 0.00, 0.00
93, -6485.31, 38019.60, 2636.88, -4038.20, -7370.47, -824.15, -14496.83, -26102.46, 0.00, 0.00, 0.00
94, -6088.84, 39655.68, 3856.12, -5107.87, -7827.60, 37.48, -15571.88, -27176.05, 0.00, 0.00, 0.00
95, -5921.40, 41971.95, 5039.27, -5655.66, -8465.32, 405.71, -16108.10, -27710.13, 0.00, 0.00, 0.00
96, -6222.30, 41038.29, 4181.47, -4852.14, -8210.49, -293.50, -15301.94, -26888.66, -0.01, 0.91, 0.36
97, -6522.04, 38179.28, 2650.83, -4010.04, -7479.81, -897.65, -14465.85, -26041.48, 0.00, 0.00, 0.00
98, -6195.48, 39087.30, 3504.82, -4911.84, -7742.98, -162.74, -15377.13, -26948.18, 0.00, 0.00, 0.00
99, -5927.75, 41699.19, 4945.95, -5687.42, -8460.13, 403.85, -16148.15, -27710.46, 0.00, 0.00, 0.00
100, -6149.99, 41444.31, 4471.71, -5104.04, -8372.38, -144.84, -15546.96, -27104.44, 0.00, 0.00, 0.00
101, -6504.78, 38518.78, 2819.07, -4084.96, -7623.02, -906.27, -14526.04, -26089.98, 0.00, 0.00, 0.00
102, -6267.36, 38592.70, 3220.84, -4698.25, -7652.10, -373.07, -15165.61, -26734.36, 0.00, 0.00, 0.00
103, -5918.00, 41341.72, 4832.96, -5627.39, -8396.50, 362.08, -16114.60, -27672.44, 0.00, 0.00, 0.00
104, -6051.96, 41744.54, 4749.79, -5251.39, -8453.92, -5.59, -15738.44, -27275.54, 0.00, 0.00, 0.00
105, -6451.63, 38962.02, 3081.59, -4158.25, -7752.50, -857.90, -14635.18, -26182.70, 0.00, 0.00, 0.00
106, -6354.35, 38182.61, 2976.87, -4491.45, -7589.58, -575.20, -14977.50, -26543.30, 0.00, 0.92, 0.37
107, -5952.36, 40873.80, 4632.35, -5570.70, -8329.56, 271.89, -16049.27, -27612.27, 0.00, 0.00, 0.00
108, -5990.92, 41897.36, 4921.68, -5438.47, -8537.70, 95.35, -15915.76, -27457.71, 0.00, 0.00, 0.00
109, -6400.69, 39485.72, 3356.54, -4356.00, -7939.09, -780.88, -14820.57, -26369.56, 0.00, 0.00, 0.00
110, -6421.03, 37910.68, 2743.50, -4319.27, -7547.45, -757.19, -14785.88, -26350.05, 0.00, 0.00, 0.00
111, -5997.46, 40350.08, 4319.90, -5460.22, -8226.67, 155.14, -15936.12, -27495.46, 0.00, 0.00, 0.00
112, -5961.90, 41936.99, 4964.61, -5597.21, -8618.63, 193.12, -16068.24, -27609.68, 0.00, 0.00, 0.00
113, -6324.47, 40024.78, 3603.41, -4549.74, -8105.46, -648.85, -15011.07, -26545.20, 0.00, 0.00, 0.00
114, -6470.09, 37803.55, 2554.83, -4190.33, -7559.92, -884.95, -14670.03, -26204.00, 0.00, 0.00, 0.00
115, -6049.30, 39781.03, 3935.99, -5292.76, -8097.05, 18.53, -15786.95, -27314.84, 0.00, 0.00, 0.00
116, -5924.71, 41844.12, 4926.57, -5680.56, -8630.63, 275.78, -16168.74, -27686.23, 0.00, 0.00, 0.00
117, -6250.58, 40557.42, 3874.47, -4800.98, -8292.09, -476.76, -15286.16, -26798.89, 0.01, 0.92, 0.38
118, -6491.24, 37884.98, 2490.27, -4120.37, -7619.98, -954.24, -14594.35, -26121.12, 0.00, 0.00, 0.00
119, -6129.61, 39211.84, 3557.91, -5130.51, -8010.62, -146.31, -15616.02, -27126.34, 0.00, 0.00, 0.00
120, -5897.82, 41653.41, 4852.38, -5740.53, -8640.25, 307.63, -16221.02, -27726.53, 0.00, 0.00, 0.00
121, -6167.78, 41018.55, 4155.44, -5039.25, -8460.60, -318.02, -15491.23, -27009.29, 0.00, 0.00, 0.00
122, -6475.34, 38162.34, 2573.96, -4128.10, -7714.50, -974.89, -14583.78, -26102.34, 0.00, 0.00, 0.00
123, -6182.36, 38713.20, 3224.60, -4897.85, -7865.49, -321.22, -15380.64, -26887.85, 0.00, 0.00, 0.00
124, -5886.02, 41389.17, 4732.85, -5752.09, -8597.96, 322.36, -16241.63, -27730.51, 0.00, 0.00, 0.00
125, -6070.31, 41467.98, 4428.51, -5283.55, -8588.57, -136.19, -15754.72, -27243.36, 0.00, 0.00, 0.00
126, -6445.21, 38656.18, 2762.09, -4246.45, -7875.23, -931.08, -14708.83, -26201.99, 0.00, 0.00, 0.00
127, -6262.94, 38377.83, 2934.14, -4718.54, -7812.98, -500.99, -15193.73, -26697.68, 0.00, 0.91, 0.37
128, -5904.70, 41084.54, 4544.31, -5723.99, -8581.26, 277.09, -16200.72, -27695.02, 0.00, 0.00, 0.00
129, -6007.81, 41785.15, 4617.78, -5480.00, -8738.84, -5.16, -15954.09, -27437.35, 0.00, 0.00, 0.00
130, -6393.25, 39245.86, 3012.14, -4388.45, -8088.92, -853.88, -14863.19, -26347.65, 0.00, 0.00, 0.00
131, -6338.55, 38156.01, 2691.53, -4547.71, -7819.80, -676.27, -15025.24, -26513.41, 0.00, 0.00, 0.00
132, -5940.78, 40712.76, 4299.54, -5653.61, -8536.85, 188.36, -16121.53, -27604.31, 0.00, 0.00, 0.00
133, -5947.37, 42013.03, 4757.01, -5648.46, -8829.21, 113.10, -16111.23, -27584.60, 0.00, 0.00, 0.00
134, -6337.08, 39923.81, 3321.42, -4626.72, -8297.35, -726.48, -15092.34, -26561.16, 0.00, 0.00, 0.00
135, -6389.07, 38133.08, 2543.92, -4408.41, -7814.28, -814.48, -14879.71, -26366.38, 0.00, 0.00, 0.00
136, -5961.23, 40341.28, 4028.99, -5501.39, -8407.90, 85.34, -15977.74, -27444.95, 0.00, 0.00, 0.00
137, -5871.74, 42145.20, 4837.25, -5744.26, -8845.37, 223.29, -16216.08, -27655.19, -0.00, 0.91, 0.37
138, -6214.88, 40605.03, 3656.21, -4811.46, -8424.19, -550.99, -15286.22, -26715.27, 0.00, 0.00, 0.00
139, -6420.00, 38273.50, 2494.21, -4330.11, -7852.99, -886.65, -14788.38, -26256.46, 0.00, 0.00, 0.00
140, -6043.96, 39954.39, 3731.69, -5374.19, -8332.51, -49.08, -15835.74, -27308.94, 0.00, 0.00, 0.00
141, -5888.97, 42176.89, 4848.67, -5876.92, -8920.38, 275.91, -16336.20, -27788.92, 0.00, 0.00, 0.00
142, -6173.53, 41244.27, 3976.62, -5073.53, -8632.00, -408.39, -15532.96, -26969.46, 0.00, 0.00, 0.00
143, -6456.21, 38571.24, 2529.03, -4309.89, -7944.01, -950.06, -14787.60, -26220.92, 0.00, 0.00, 0.00
144, -6143.20, 39552.93, 3400.48, -5194.86, -8241.69, -226.33, -15668.08, -27117.05, 0.00, 0.00, 0.00
145, -5873.86, 42069.09, 4769.95, -5878.78, -8883.43, 303.96, -16336.20, -27768.94, 0.00, 0.00, 0.00
146, -6090.45, 41772.95, 4244.91, -5279.50, -8761.95, -234.81, -15724.52, -27148.45, 0.00, 0.00, 0.00
147, -6440.10, 39002.63, 2645.35, -4343.64, -8068.91, -939.80, -14793.32, -26216.52, -0.01, 0.91, 0.36
148, -6207.46, 39221.25, 3092.68, -4993.18, -8139.97, -392.38, -15467.92, -26882.31, 0.00, 0.00, 0.00
149, -5888.83, 41899.48, 4633.65, -5910.27, -8867.83, 289.41, -16375.56, -27784.18, 0.00, 0.00, 0.00
150, -6037.59, 42271.57, 4497.08, -5541.62, -8926.37, -94.57, -15976.85, -27392.31, 0.00, 0.00, 0.00
151, -6429.23, 39610.15, 2861.34, -4495.29, -8255.59, -914.16, -14936.33, -26337.64, 0.00, 0.00, 0.00
152, -6289.15, 38997.69, 2828.64, -4809.85, -8078.88, -595.29, -15273.97, -26668.96, 0.00, 0.00, 0.00
153, -5909.02, 41631.35, 4441.69, -5846.08, -8805.94, 208.63, -16311.01, -27693.79, 0.00, 0.00, 0.00
154, -5978.35, 42582.73, 4682.09, -5718.67, -9030.86, 4.02, -16179.80, -27548.75, 0.00, 0.00, 0.00
155, -6366.42, 40233.83, 3144.96, -4646.73, -8424.28, -849.17, -15097.93, -26459.93, 0.00, 0.00, 0.00
156, -6369.67, 38831.59, 2624.12, -4651.69, -8065.54, -791.97, -15116.28, -26479.64, 0.00, 0.00, 0.00
157, -5970.55, 41237.38, 4187.78, -5761.68, -8744.27, 75.24, -16215.90, -27585.31, -0.01, 0.92, 0.37
158, -5953.43, 42735.62, 4793.44, -5874.73, -9119.27, 70.39, -16314.85, -27683.33, 0.00, 0.00, 0.00
159, -6333.50, 40856.71, 3457.55, -4886.74, -8642.28, -755.94, -15318.59, -26685.12, 0.00, 0.00, 0.00
160, -6450.69, 38809.06, 2507.53, -4551.75, -8113.17, -959.54, -14993.64, -26360.66, 0.00, 0.00, 0.00
161, -6053.57, 40786.90, 3890.97, -5640.66, -8668.05, -98.21, -16095.09, -27453.51, 0.00, 0.00, 0.00
162, -5946.01, 42741.63, 4821.05, -5991.74, -9172.28, 97.92, -16434.37, -27790.13, 0.00, 0.00, 0.00
163, -6256.21, 41436.54, 3761.75, -5087.93, -8797.38, -649.50, -15515.78, -26870.15, 0.00, 0.00, 0.00
164, -6487.06, 38914.90, 2460.48, -4463.40, -8152.37, -1074.65, -14906.85, -26261.98, 0.00, 0.00, 0.00
165, -6126.41, 40284.97, 3544.20, -5438.20, -8536.09, -279.11, -15892.76, -27239.82, 0.00, 0.00, 0.00
166, -5919.73, 42593.62, 4762.69, -6011.61, -9140.54, 125.17, -16471.16, -27793.30, 0.00, 0.00, 0.00
167, -6174.36, 41901.68, 4038.76, -5302.55, -8932.94, -498.29, -15730.17, -27066.13, -0.01, 0.92, 0.36
168, -6493.38, 39148.21, 2516.00, -4478.33, -8258.37, -1111.57, -14907.74, -26256.79, 0.00, 0.00, 0.00
169, -6215.95, 39779.64, 3210.07, -5268.62, -8462.55, -465.59, -15721.64, -27054.26, 0.00, 0.00, 0.00
170, -5931.57, 42329.00, 4653.25, -6046.35, -9147.96, 118.06, -16500.19, -27813.93, 0.00, 0.00, 0.00
