%OpenBCI Raw EEG Data
%
%Sample Rate = 250.0 Hz
%First Column = SampleIndex
%Other Columns = EEG data in microvolts followed by Accel Data (in G) interleaved with Aux Data
0, 30478.08, 35906.29, 4028.57, 24380.01, 5042.62, 34315.36, 14769.58, 0.00, 0.02, 0.49, 0.12
1, 30493.48, 35930.38, 4023.29, 24329.05, 5004.87, 34455.30, 14754.63, 0.00, 0.00, 0.00, 0.00
2, 30569.00, 36002.60, 4210.53, 24453.23, 5144.77, 33278.37, 14951.84, 0.00, 0.00, 0.00, 0.00
3, 30577.74, 35987.29, 4235.10, 24499.34, 5194.21, 33057.76, 14981.79, 0.00, 0.00, 0.00, 0.00
4, 30507.22, 35918.56, 4073.87, 24406.52, 5082.63, 34088.44, 14805.46, 0.00, 0.00, 0.00, 0.00
5, 30499.00, 35928.73, 4005.41, 24327.15, 4988.55, 34614.49, 14728.88, 0.00, 0.00, 0.00, 0.00
6, 30570.68, 35992.34, 4191.29, 24453.05, 5137.19, 33461.70, 14928.01, 0.00, 0.00, 0.00, 0.00
7, 30563.08, 35979.80, 4236.97, 24523.66, 5191.82, 33021.08, 14980.38, 0.00, 0.04, 0.96, 0.24
8, 30510.60, 35934.56, 4109.26, 24434.72, 5103.48, 33874.13, 14846.09, 0.00, 0.00, 0.00, 0.00
9, 30494.08, 35911.94, 3996.13, 24306.74, 4976.75, 34697.33, 14714.26, 0.00, 0.00, 0.00, 0.00
10, 30566.23, 35978.68, 4165.00, 24405.00, 5092.91, 33672.10, 14884.92, 0.00, 0.00, 0.00, 0.00
11, 30593.59, 35997.46, 4263.75, 24496.08, 5192.11, 33004.36, 14983.18, 0.00, 0.00, 0.00, 0.00
12, 30543.70, 35965.09, 4154.65, 24461.10, 5117.10, 33649.50, 14880.20, 0.00, 0.00, 0.00, 0.00
13, 30502.71, 35924.37, 3995.66, 24328.08, 5009.00, 34709.46, 14712.52, 0.00, 0.00, 0.00, 0.00
14, 30565.09, 35980.29, 4124.81, 24378.73, 5081.47, 33904.85, 14848.84, 0.00, 0.00, 0.00, 0.00
15, 30590.55, 36003.29, 4243.70, 24477.86, 5188.76, 33028.01, 14968.05, 0.00, 0.00, 0.00, 0.00
16, 30562.19, 35973.52, 4181.68, 24470.55, 5156.59, 33443.24, 14910.85, 0.00, 0.05, 0.96, 0.24
17, 30523.52, 35934.70, 4002.59, 24354.68, 5013.90, 34625.27, 14732.82, 0.00, 0.00, 0.00, 0.00
18, 30571.02, 35996.75, 4091.46, 24375.63, 5064.37, 34143.52, 14822.47, 0.00, 0.00, 0.00, 0.00
19, 30620.28, 36043.86, 4242.88, 24491.45, 5207.24, 33121.21, 14988.54, 0.00, 0.00, 0.00, 0.00
20, 30594.73, 36002.98, 4208.65, 24508.29, 5189.05, 33312.68, 14947.24, 0.00, 0.00, 0.00, 0.00
21, 30553.40, 35961.36, 4050.23, 24404.80, 5066.69, 34520.12, 14771.35, 0.00, 0.00, 0.00, 0.00
22, 30577.61, 35996.57, 4085.14, 24371.43, 5065.87, 34379.30, 14814.83, 0.00, 0.00, 0.00, 0.00
23, 30624.55, 36045.76, 4246.90, 24484.28, 5203.96, 33237.13, 14988.10, 0.00, 0.00, 0.00, 0.00
24, 30613.24, 36027.05, 4237.80, 24531.24, 5203.84, 33203.36, 14987.87, 0.00, 0.00, 0.00, 0.00
25, 30555.66, 35969.57, 4074.72, 24439.29, 5082.83, 34333.60, 14807.72, 0.00, 0.00, 0.00, 0.00
26, 30575.38, 35985.10, 4065.63, 24365.46, 5056.21, 34570.19, 14790.37, 0.00, 0.05, 0.97, 0.23
27, 30628.06, 36038.21, 4251.66, 24484.97, 5182.50, 33399.50, 14982.46, 0.00, 0.00, 0.00, 0.00
28, 30622.76, 36027.37, 4267.35, 24537.88, 5237.28, 33126.54, 15009.60, 0.00, 0.00, 0.00, 0.00
29, 30563.42, 35982.66, 4115.98, 24462.33, 5140.54, 34123.18, 14860.09, 0.00, 0.00, 0.00, 0.00
30, 30547.26, 35974.64, 4027.58, 24362.04, 5038.33, 34721.54, 14773.12, 0.00, 0.00, 0.00, 0.00
31, 30606.78, 36034.61, 4194.26, 24464.39, 5160.70, 33590.56, 14942.48, 0.00, 0.00, 0.00, 0.00
32, 30628.62, 36040.40, 4267.64, 24543.20, 5242.56, 33075.69, 15015.95, 0.00, 0.00, 0.00, 0.00
33, 30577.01, 35986.06, 4151.64, 24493.40, 5159.99, 33877.40, 14896.03, 0.00, 0.00, 0.00, 0.00
34, 30541.62, 35963.00, 4024.54, 24372.59, 5032.54, 34782.46, 14754.92, 0.00, 0.00, 0.00, 0.00
35, 30611.00, 36040.64, 4186.50, 24487.32, 5151.94, 33812.40, 14923.16, 0.00, 0.00, 0.00, 0.00
36, 30639.79, 36050.86, 4282.35, 24550.46, 5246.92, 33088.27, 15026.83, 0.00, 0.05, 0.97, 0.23
37, 30583.82, 35995.09, 4185.86, 24496.44, 5177.92, 33673.53, 14925.40, 0.00, 0.00, 0.00, 0.00
38, 30549.27, 35966.08, 4032.01, 24365.03, 5037.84, 34769.30, 14760.06, 0.00, 0.00, 0.00, 0.00
39, 30625.87, 36042.10, 4158.54, 24423.44, 5102.37, 34034.91, 14891.25, 0.00, 0.00, 0.00, 0.00
40, 30652.09, 36060.98, 4280.56, 24530.28, 5212.11, 33122.91, 15020.80, 0.00, 0.00, 0.00, 0.00
41, 30603.92, 36007.52, 4226.87, 24513.49, 5203.40, 33481.41, 14954.34, 0.00, 0.00, 0.00, 0.00
42, 30546.09, 35955.77, 4049.89, 24386.56, 5058.83, 34680.99, 14758.83, 0.00, 0.00, 0.00, 0.00
43, 30599.80, 36008.86, 4132.41, 24402.20, 5080.40, 34269.76, 14837.78, 0.00, 0.00, 0.00, 0.00
44, 30651.30, 36069.28, 4279.06, 24504.04, 5215.91, 33200.45, 14999.47, 0.00, 0.00, 0.00, 0.00
45, 30635.41, 36060.38, 4255.41, 24520.04, 5218.37, 33331.55, 14983.07, 0.00, 0.00, 0.00, 0.00
46, 30579.96, 35979.63, 4088.49, 24400.04, 5087.39, 34531.07, 14802.51, 0.00, 0.05, 0.96, 0.23
47, 30599.22, 35992.21, 4101.23, 24364.52, 5061.80, 34486.46, 14818.20, 0.00, 0.00, 0.00, 0.00
48, 30663.98, 36059.35, 4267.26, 24499.17, 5207.38, 33332.73, 14999.05, 0.00, 0.00, 0.00, 0.00
49, 30656.65, 36047.53, 4268.29, 24541.57, 5228.39, 33236.91, 15007.16, 0.00, 0.00, 0.00, 0.00
50, 30604.03, 35994.27, 4105.17, 24457.23, 5112.09, 34339.83, 14843.10, 0.00, 0.00, 0.00, 0.00
51, 30608.77, 36003.92, 4052.15, 24369.86, 5048.34, 34680.83, 14796.03, 0.00, 0.00, 0.00, 0.00
52, 30678.01, 36080.72, 4272.51, 24500.30, 5203.78, 33514.88, 14988.54, 0.00, 0.00, 0.00, 0.00
53, 30676.27, 36070.71, 4298.73, 24555.02, 5254.02, 33168.78, 15033.22, 0.00, 0.00, 0.00, 0.00
54, 30609.89, 36009.42, 4143.66, 24467.49, 5146.96, 34113.97, 14886.55, 0.00, 0.00, 0.00, 0.00
55, 30603.65, 36006.85, 4066.41, 24385.17, 5059.50, 34812.53, 14804.92, 0.00, 0.05, 0.96, 0.23
56, 30664.20, 36081.97, 4234.31, 24504.33, 5168.59, 33719.39, 14988.48, 0.00, 0.00, 0.00, 0.00
57, 30672.61, 36082.93, 4302.17, 24552.50, 5248.73, 33152.15, 15055.91, 0.00, 0.00, 0.00, 0.00
58, 30623.74, 36028.06, 4192.92, 24493.53, 5206.37, 33889.18, 14923.79, 0.00, 0.00, 0.00, 0.00
59, 30603.87, 36006.80, 4066.14, 24386.85, 5079.50, 34852.07, 14787.87, 0.00, 0.00, 0.00, 0.00
60, 30668.04, 36076.45, 4208.41, 24459.65, 5169.42, 33939.04, 14946.68, 0.00, 0.00, 0.00, 0.00
61, 30713.64, 36116.04, 4319.65, 24545.03, 5275.79, 33168.94, 15065.23, 0.00, 0.00, 0.00, 0.00
62, 30670.75, 36065.70, 4235.05, 24528.13, 5220.88, 33702.38, 14974.35, 0.00, 0.00, 0.00, 0.00
63, 30628.21, 36014.80, 4065.34, 24395.97, 5068.77, 34826.39, 14788.54, 0.00, 0.00, 0.00, 0.00
64, 30686.42, 36075.51, 4169.54, 24428.87, 5129.41, 34166.36, 14898.02, 0.00, 0.00, 0.00, 0.00
65, 30713.17, 36109.82, 4312.75, 24544.45, 5263.37, 33210.40, 15047.60, 0.00, 0.05, 0.96, 0.23
66, 30677.05, 36077.26, 4273.41, 24550.44, 5241.01, 33522.09, 14998.27, 0.00, 0.00, 0.00, 0.00
67, 30626.54, 36018.70, 4085.36, 24413.87, 5088.67, 34718.49, 14803.31, 0.00, 0.00, 0.00, 0.00
68, 30671.09, 36071.56, 4147.10, 24401.31, 5110.97, 34378.17, 14858.97, 0.00, 0.00, 0.00, 0.00
69, 30721.33, 36124.64, 4315.61, 24530.99, 5250.67, 33279.42, 15024.78, 0.00, 0.00, 0.00, 0.00
70, 30687.25, 36084.34, 4291.15, 24542.53, 5240.57, 33352.96, 14997.66, 0.00, 0.00, 0.00, 0.00
71, 30641.85, 36039.48, 4129.10, 24438.59, 5108.42, 34532.86, 14838.05, 0.00, 0.00, 0.00, 0.00
72, 30671.64, 36069.84, 4138.43, 24392.32, 5099.80, 34590.87, 14844.82, 0.00, 0.00, 0.00, 0.00
73, 30741.34, 36141.07, 4297.75, 24521.96, 5255.65, 33420.53, 15030.45, 0.00, 0.00, 0.00, 0.00
74, 30731.84, 36122.52, 4329.00, 24557.37, 5277.05, 33258.19, 15038.28, 0.00, 0.00, 0.00, 0.00
75, 30667.96, 36062.84, 4166.57, 24461.59, 5145.91, 34323.74, 14867.80, 0.00, 0.06, 0.96, 0.23
76, 30656.27, 36061.01, 4090.46, 24371.02, 5056.10, 34742.97, 14806.91, 0.00, 0.00, 0.00, 0.00
77, 30725.58, 36139.37, 4276.87, 24496.93, 5209.03, 33585.86, 14989.50, 0.00, 0.00, 0.00, 0.00
78, 30739.30, 36142.01, 4325.96, 24587.16, 5293.34, 33202.42, 15053.36, 0.00, 0.00, 0.00, 0.00
79, 30681.17, 36087.88, 4192.05, 24490.11, 5194.46, 34108.78, 14923.83, 0.00, 0.00, 0.00, 0.00
80, 30667.93, 36075.49, 4091.84, 24390.02, 5090.14, 34856.85, 14820.23, 0.00, 0.00, 0.00, 0.00
81, 30732.06, 36145.79, 4250.59, 24493.09, 5205.45, 33803.79, 14987.38, 0.00, 0.00, 0.00, 0.00
82, 30758.97, 36167.49, 4334.88, 24568.05, 5285.56, 33192.68, 15075.74, 0.00, 0.00, 0.00, 0.00
83, 30703.76, 36111.77, 4219.85, 24516.42, 5217.63, 33885.76, 14963.78, 0.00, 0.00, 0.00, 0.00
84, 30670.64, 36084.72, 4071.77, 24400.06, 5082.45, 34889.62, 14816.84, 0.00, 0.00, 0.00, 0.00
85, 30713.91, 36139.28, 4208.54, 24464.34, 5173.78, 34042.29, 14963.11, 0.00, 0.05, 0.96, 0.23
86, 30754.75, 36172.70, 4318.67, 24575.29, 5288.62, 33239.66, 15090.24, 0.00, 0.00, 0.00, 0.00
87, 30723.68, 36135.62, 4245.62, 24567.88, 5244.79, 33725.54, 15024.57, 0.00, 0.00, 0.00, 0.00
88, 30688.97, 36105.02, 4091.13, 24449.10, 5110.97, 34888.79, 14852.11, 0.00, 0.00, 0.00, 0.00
89, 30732.28, 36155.36, 4195.33, 24479.05, 5164.17, 34309.61, 14956.29, 0.00, 0.00, 0.00, 0.00
90, 30788.81, 36199.54, 4325.31, 24598.14, 5291.46, 33328.28, 15103.36, 0.00, 0.00, 0.00, 0.00
91, 30756.60, 36171.74, 4287.76, 24605.58, 5262.27, 33570.66, 15057.50, 0.00, 0.00, 0.00, 0.00
92, 30713.29, 36144.00, 4126.62, 24499.66, 5144.57, 34760.56, 14874.59, 0.00, 0.00, 0.00, 0.00
93, 30753.52, 36182.24, 4164.33, 24496.13, 5150.20, 34541.18, 14917.55, 0.00, 0.00, 0.00, 0.00
94, 30798.04, 36217.11, 4317.51, 24605.85, 5278.19, 33437.56, 15069.12, 0.00, 0.00, 0.00, 0.00
95, 30769.54, 36191.96, 4296.47, 24620.83, 5289.56, 33446.99, 15062.21, 0.00, 0.04, 0.97, 0.24
96, 30725.58, 36140.60, 4129.48, 24501.49, 5160.10, 34595.43, 14887.33, 0.00, 0.00, 0.00, 0.00
97, 30745.72, 36155.80, 4123.47, 24436.13, 5116.78, 34723.68, 14873.32, 0.00, 0.00, 0.00, 0.00
98, 30782.13, 36205.55, 4303.85, 24558.33, 5272.17, 33557.54, 15059.78, 0.00, 0.00, 0.00, 0.00
99, 30773.23, 36182.98, 4296.09, 24601.09, 5290.64, 33344.67, 15088.10, 0.00, 0.00, 0.00, 0.00
100, 30705.17, 36129.09, 4163.75, 24507.99, 5172.35, 34361.54, 14922.16, 0.00, 0.00, 0.00, 0.00
101, 30701.26, 36125.94, 4099.38, 24404.39, 5128.88, 34870.66, 14836.22, 0.00, 0.00, 0.00, 0.00
102, 30764.29, 36192.91, 4273.56, 24519.86, 5243.07, 33725.63, 15025.16, 0.00, 0.00, 0.00, 0.00
103, 30769.03, 36194.02, 4328.57, 24598.56, 5319.38, 33287.63, 15105.26, 0.00, 0.00, 0.00, 0.00
104, 30709.82, 36133.67, 4198.13, 24530.73, 5248.66, 34134.71, 14968.18, 0.00, 0.04, 0.96, 0.24
105, 30699.70, 36118.52, 4093.12, 24414.72, 5127.69, 34954.84, 14836.93, 0.00, 0.00, 0.00, 0.00
106, 30769.86, 36188.43, 4255.24, 24504.17, 5245.22, 33934.93, 15014.16, 0.00, 0.00, 0.00, 0.00
107, 30785.64, 36199.43, 4334.72, 24600.20, 5331.29, 33280.47, 15110.67, 0.00, 0.00, 0.00, 0.00
108, 30742.50, 36156.65, 4240.35, 24575.25, 5269.51, 33914.17, 15020.35, 0.00, 0.00, 0.00, 0.00
109, 30736.08, 36137.38, 4102.80, 24453.93, 5131.13, 34958.98, 14862.19, 0.00, 0.00, 0.00, 0.00
110, 30770.44, 36184.66, 4232.73, 24479.92, 5203.13, 34165.38, 14991.67, 0.00, 0.00, 0.00, 0.00
111, 30780.47, 36198.11, 4352.20, 24602.12, 5334.67, 33311.61, 15112.46, 0.00, 0.00, 0.00, 0.00
112, 30752.85, 36154.82, 4281.52, 24575.76, 5290.01, 33724.04, 15046.97, 0.00, 0.00, 0.00, 0.00
113, 30719.66, 36126.59, 4117.64, 24455.71, 5154.22, 34895.23, 14873.95, 0.00, 0.00, 0.00, 0.00
114, 30766.37, 36186.40, 4185.01, 24492.62, 5196.13, 34402.71, 14968.40, 0.00, 0.05, 0.97, 0.25
115, 30805.64, 36222.66, 4354.41, 24572.77, 5323.02, 33378.71, 15121.42, 0.00, 0.00, 0.00, 0.00
116, 30772.23, 36182.29, 4309.77, 24572.90, 5302.86, 33562.75, 15077.88, 0.00, 0.00, 0.00, 0.00
117, 30736.75, 36135.84, 4149.36, 24477.93, 5176.10, 34757.83, 14902.20, 0.00, 0.00, 0.00, 0.00
118, 30762.28, 36160.29, 4179.35, 24450.26, 5172.82, 34620.46, 14941.29, 0.00, 0.00, 0.00, 0.00
119, 30821.94, 36217.85, 4340.87, 24578.83, 5298.10, 33489.93, 15120.78, 0.00, 0.00, 0.00, 0.00
120, 30806.02, 36199.07, 4327.50, 24595.88, 5329.15, 33446.34, 15114.79, 0.00, 0.00, 0.00, 0.00
121, 30739.15, 36140.49, 4162.32, 24502.25, 5213.90, 34573.88, 14932.62, 0.00, 0.00, 0.00, 0.00
122, 30743.28, 36142.01, 4140.12, 24449.68, 5160.82, 34813.73, 14912.06, 0.00, 0.00, 0.00, 0.00
123, 30814.49, 36204.91, 4325.82, 24581.29, 5317.68, 33653.16, 15109.64, 0.00, 0.00, 0.00, 0.00
124, 30818.34, 36202.43, 4351.46, 24627.91, 5359.46, 33381.17, 15139.82, 0.00, 0.05, 0.96, 0.24
125, 30747.97, 36154.50, 4212.99, 24559.85, 5257.64, 34362.88, 14990.73, 0.00, 0.00, 0.00, 0.00
126, 30745.45, 36157.50, 4143.86, 24455.22, 5173.80, 34958.15, 14912.73, 0.00, 0.00, 0.00, 0.00
127, 30822.81, 36237.56, 4313.66, 24557.06, 5296.58, 33844.59, 15094.24, 0.00, 0.00, 0.00, 0.00
128, 30830.83, 36246.71, 4369.07, 24629.88, 5372.67, 33346.28, 15151.13, 0.00, 0.00, 0.00, 0.00
129, 30780.83, 36189.84, 4262.54, 24573.87, 5312.88, 34135.98, 15034.01, 0.00, 0.00, 0.00, 0.00
130, 30765.25, 36166.73, 4153.56, 24462.49, 5191.13, 35025.83, 14901.19, 0.00, 0.00, 0.00, 0.00
131, 30828.55, 36230.88, 4291.15, 24540.76, 5295.02, 34059.14, 15054.21, 0.00, 0.00, 0.00, 0.00
132, 30855.73, 36257.52, 4391.80, 24641.39, 5405.17, 33344.36, 15162.35, 0.00, 0.00, 0.00, 0.00
133, 30820.80, 36233.94, 4316.93, 24607.21, 5352.93, 33930.13, 15071.00, 0.00, 0.00, 0.00, 0.00
134, 30799.41, 36197.60, 4155.55, 24485.15, 5213.57, 35033.05, 14901.66, 0.00, 0.05, 0.96, 0.25
135, 30851.96, 36256.05, 4275.98, 24535.24, 5293.81, 34312.86, 15031.35, 0.00, 0.00, 0.00, 0.00
136, 30896.73, 36304.24, 4409.40, 24652.32, 5422.26, 33398.22, 15166.57, 0.00, 0.00, 0.00, 0.00
137, 30864.32, 36258.37, 4312.48, 24656.72, 5379.68, 33753.08, 15099.70, 0.00, 0.00, 0.00, 0.00
138, 30806.87, 36206.52, 4157.74, 24550.33, 5221.95, 34947.18, 14913.98, 0.00, 0.00, 0.00, 0.00
139, 30846.81, 36256.18, 4247.86, 24537.16, 5278.54, 34538.76, 14988.63, 0.00, 0.00, 0.00, 0.00
140, 30915.61, 36313.09, 4393.66, 24651.94, 5421.82, 33483.02, 15151.53, 0.00, 0.00, 0.00, 0.00
141, 30889.24, 36278.07, 4359.19, 24647.00, 5417.62, 33610.00, 15125.02, 0.00, 0.00, 0.00, 0.00
142, 30816.48, 36227.93, 4196.83, 24546.71, 5282.90, 34796.32, 14945.78, 0.00, 0.00, 0.00, 0.00
143, 30839.30, 36260.25, 4217.80, 24523.93, 5261.78, 34757.61, 14963.22, 0.00, 0.00, 0.00, 0.00
144, 30912.77, 36317.88, 4396.01, 24657.88, 5415.51, 33614.88, 15151.53, 0.00, 0.05, 0.97, 0.25
145, 30902.83, 36295.57, 4398.82, 24681.29, 5433.98, 33511.43, 15165.41, 0.00, 0.00, 0.00, 0.00
146, 30851.53, 36242.12, 4234.94, 24571.41, 5290.61, 34605.39, 14993.24, 0.00, 0.00, 0.00, 0.00
147, 30859.46, 36252.38, 4196.54, 24503.90, 5240.77, 34941.43, 14951.71, 0.00, 0.00, 0.00, 0.00
148, 30928.87, 36317.79, 4373.54, 24621.54, 5406.69, 33772.21, 15135.39, 0.00, 0.00, 0.00, 0.00
149, 30921.07, 36308.71, 4401.55, 24683.28, 5430.42, 33436.55, 15160.76, 0.00, 0.00, 0.00, 0.00
150, 30863.60, 36250.91, 4273.74, 24615.39, 5339.85, 34383.98, 15024.64, 0.00, 0.00, 0.00, 0.00
151, 30862.53, 36248.96, 4210.31, 24509.76, 5262.90, 35073.30, 14950.52, 0.00, 0.00, 0.00, 0.00
152, 30932.22, 36329.90, 4374.06, 24614.50, 5388.31, 33990.61, 15129.29, 0.00, 0.00, 0.00, 0.00
153, 30957.41, 36338.14, 4428.51, 24692.80, 5455.99, 33434.52, 15201.69, 0.00, 0.05, 0.97, 0.25
154, 30904.06, 36290.25, 4318.85, 24641.34, 5372.55, 34181.20, 15082.62, 0.00, 0.00, 0.00, 0.00
155, 30884.54, 36281.17, 4203.40, 24531.06, 5254.05, 35131.18, 14939.64, 0.00, 0.00, 0.00, 0.00
156, 30951.15, 36346.28, 4339.68, 24611.10, 5366.25, 34216.00, 15102.94, 0.00, 0.00, 0.00, 0.00
157, 30984.84, 36372.70, 4416.79, 24722.12, 5462.45, 33452.43, 15218.92, 0.00, 0.00, 0.00, 0.00
158, 30938.12, 36323.15, 4373.41, 24695.06, 5392.16, 33977.38, 15130.19, 0.00, 0.00, 0.00, 0.00
159, 30887.36, 36283.43, 4224.50, 24560.01, 5293.34, 35101.07, 14964.81, 0.00, 0.00, 0.00, 0.00
160, 30925.65, 36321.14, 4299.65, 24578.07, 5341.06, 34445.80, 15066.66, 0.00, 0.00, 0.00, 0.00
161, 30970.04, 36344.92, 4445.38, 24695.06, 5474.59, 33496.75, 15215.37, 0.00, 0.00, 0.00, 0.00
162, 30939.78, 36315.46, 4397.97, 24694.81, 5451.72, 33798.16, 15164.45, 0.00, 0.00, 0.00, 0.00
163, 30899.77, 36281.75, 4235.34, 24578.40, 5316.74, 35014.05, 14987.87, 0.00, 0.04, 0.96, 0.25
164, 30937.25, 36332.00, 4290.15, 24576.28, 5330.09, 34696.03, 15039.24, 0.00, 0.00, 0.00, 0.00
165, 30984.37, 36381.66, 4441.54, 24698.99, 5470.50, 33602.98, 15208.64, 0.00, 0.00, 0.00, 0.00
166, 30964.41, 36353.34, 4427.43, 24721.77, 5473.92, 33670.06, 15191.83, 0.00, 0.00, 0.00, 0.00
167, 30907.16, 36302.94, 4259.77, 24602.45, 5338.96, 34837.29, 14996.68, 0.00, 0.00, 0.00, 0.00
168, 30940.09, 36330.77, 4261.52, 24565.19, 5316.16, 34891.39, 15010.29, 0.00, 0.00, 0.00, 0.00
169, 30997.49, 36386.56, 4437.49, 24695.41, 5460.89, 33728.34, 15204.42, 0.00, 0.00, 0.00, 0.00
170, 30981.06, 36366.06, 4451.10, 24737.28, 5481.74, 33566.24, 15215.41, 0.00, 0.00, 0.00, 0.00
171, 30921.27, 36315.50, 4290.77, 24646.37, 5382.26, 34625.31, 15043.04, 0.00, 0.00, 0.00, 0.00
172, 30934.59, 36328.02, 4239.25, 24555.38, 5303.91, 35048.11, 14987.63, 0.00, 0.00, 0.00, 0.00
173, 30990.49, 36392.17, 4420.06, 24665.44, 5437.02, 33897.94, 15166.46, 0.00, 0.05, 0.96, 0.25
174, 30993.35, 36381.96, 4462.79, 24731.00, 5491.40, 33502.67, 15216.46, 0.00, 0.00, 0.00, 0.00
175, 30944.18, 36323.08, 4335.70, 24675.07, 5397.21, 34389.23, 15077.17, 0.00, 0.00, 0.00, 0.00
176, 30928.38, 36311.73, 4239.46, 24558.91, 5284.60, 35142.89, 14955.51, 0.00, 0.00, 0.00, 0.00
177, 30991.05, 36378.78, 4389.97, 24633.25, 5403.04, 34084.29, 15126.97, 0.00, 0.00, 0.00, 0.00
178, 31007.77, 36393.73, 4470.68, 24723.85, 5490.15, 33471.89, 15221.25, 0.00, 0.00, 0.00, 0.00
179, 30962.55, 36348.05, 4361.47, 24699.30, 5421.73, 34164.44, 15115.12, 0.00, 0.00, 0.00, 0.00
180, 30924.87, 36310.16, 4223.23, 24578.67, 5291.10, 35164.72, 14966.15, 0.00, 0.00, 0.00, 0.00
181, 30988.86, 36373.66, 4366.08, 24623.44, 5385.74, 34305.59, 15115.14, 0.00, 0.00, 0.00, 0.00
182, 31027.84, 36399.12, 4476.03, 24721.95, 5494.30, 33487.36, 15233.56, 0.00, 0.00, 0.00, 0.00
183, 30990.67, 36360.16, 4398.91, 24706.92, 5444.35, 33962.96, 15156.27, 0.00, 0.04, 0.96, 0.25
184, 30951.09, 36327.26, 4249.09, 24604.60, 5311.36, 35123.78, 14990.67, 0.00, 0.00, 0.00, 0.00
185, 30984.52, 36377.60, 4328.44, 24618.50, 5355.57, 34552.64, 15089.28, 0.00, 0.00, 0.00, 0.00
186, 31028.20, 36425.65, 4466.97, 24746.55, 5484.96, 33566.04, 15243.53, 0.00, 0.00, 0.00, 0.00
187, 30999.72, 36386.02, 4428.24, 24750.67, 5453.27, 33809.36, 15199.32, 0.00, 0.00, 0.00, 0.00
188, 30944.87, 36335.87, 4269.81, 24602.21, 5329.19, 35000.55, 15023.37, 0.00, 0.00, 0.00, 0.00
189, 30975.02, 36370.18, 4304.30, 24584.86, 5341.49, 34764.54, 15062.19, 0.00, 0.00, 0.00, 0.00
190, 31036.27, 36416.22, 4456.71, 24713.07, 5472.87, 33654.11, 15227.55, 0.00, 0.00, 0.00, 0.00
191, 31015.86, 36393.06, 4449.61, 24739.16, 5482.73, 33670.20, 15226.70, 0.00, 0.00, 0.00, 0.00
192, 30964.52, 36347.36, 4297.64, 24645.46, 5363.50, 34816.77, 15058.62, 0.00, 0.05, 0.96, 0.25
193, 30978.82, 36358.26, 4282.35, 24586.78, 5319.20, 34960.56, 15050.73, 0.00, 0.00, 0.00, 0.00
194, 31045.79, 36423.75, 4454.68, 24712.00, 5469.61, 33800.64, 15235.42, 0.00, 0.00, 0.00, 0.00
195, 31035.31, 36409.58, 4470.17, 24769.44, 5506.84, 33591.12, 15268.39, 0.00, 0.00, 0.00, 0.00
196, 30978.80, 36355.58, 4318.49, 24686.29, 5390.46, 34618.85, 15105.91, 0.00, 0.00, 0.00, 0.00
197, 30980.63, 36359.16, 4255.41, 24580.19, 5309.59, 35125.25, 15034.25, 0.00, 0.00, 0.00, 0.00
198, 31037.72, 36426.05, 4427.57, 24691.55, 5446.32, 33987.93, 15212.62, 0.00, 0.00, 0.00, 0.00
199, 31045.32, 36432.16, 4491.38, 24770.52, 5523.63, 33537.81, 15280.03, 0.00, 0.00, 0.00, 0.00
200, 30991.52, 36377.11, 4361.47, 24703.46, 5430.60, 34385.05, 15147.51, 0.00, 0.00, 0.00, 0.00
201, 30982.60, 36364.86, 4252.91, 24604.64, 5309.86, 35217.05, 15034.88, 0.00, 0.00, 0.00, 0.00
202, 31032.78, 36424.98, 4397.53, 24683.86, 5425.84, 34200.83, 15192.32, 0.00, 0.06, 0.96, 0.25
203, 31044.20, 36433.41, 4478.78, 24754.85, 5518.06, 33530.43, 15272.68, 0.00, 0.00, 0.00, 0.00
204, 31002.29, 36388.28, 4384.05, 24721.79, 5458.70, 34175.32, 15182.67, 0.00, 0.00, 0.00, 0.00
205, 30956.38, 36334.84, 4240.33, 24594.58, 5328.12, 35230.19, 15030.68, 0.00, 0.00, 0.00, 0.00
206, 31000.84, 36380.64, 4362.61, 24634.39, 5401.81, 34434.34, 15152.54, 0.00, 0.00, 0.00, 0.00
207, 31046.86, 36416.51, 4483.51, 24745.26, 5519.54, 33567.63, 15282.07, 0.00, 0.00, 0.00, 0.00
208, 31018.25, 36384.57, 4423.79, 24737.72, 5487.46, 33979.41, 15222.23, 0.00, 0.00, 0.00, 0.00
209, 30975.40, 36342.57, 4265.00, 24610.21, 5348.30, 35158.49, 15043.08, 0.00, 0.00, 0.00, 0.00
210, 31032.74, 36392.08, 4346.32, 24616.15, 5385.85, 34663.11, 15132.38, 0.00, 0.00, 0.00, 0.00
211, 31065.82, 36437.99, 4491.74, 24728.65, 5515.54, 33635.04, 15282.51, 0.00, 0.00, 0.00, 0.00
212, 31028.00, 36410.79, 4447.62, 24739.89, 5501.95, 33817.76, 15247.98, 0.00, 0.06, 0.96, 0.26
213, 30979.99, 36364.43, 4274.75, 24630.35, 5362.76, 35007.39, 15062.68, 0.00, 0.00, 0.00, 0.00
214, 31012.69, 36397.87, 4307.72, 24599.75, 5350.58, 34870.69, 15088.17, 0.00, 0.00, 0.00, 0.00
215, 31076.28, 36446.13, 4469.14, 24717.92, 5484.87, 33739.09, 15260.16, 0.00, 0.00, 0.00, 0.00
216, 31061.41, 36431.00, 4465.07, 24769.58, 5502.55, 33692.64, 15266.53, 0.00, 0.00, 0.00, 0.00
217, 31006.09, 36375.81, 4304.97, 24636.11, 5397.88, 34812.57, 15089.19, 0.00, 0.00, 0.00, 0.00
218, 31020.55, 36384.59, 4301.12, 24559.22, 5350.72, 35052.74, 15072.50, 0.00, 0.00, 0.00, 0.00
219, 31077.87, 36447.27, 4464.78, 24686.25, 5486.68, 33893.69, 15252.96, 0.00, 0.00, 0.00, 0.00
220, 31078.02, 36448.90, 4473.75, 24745.53, 5520.68, 33609.63, 15280.48, 0.00, 0.00, 0.00, 0.00
221, 31023.06, 36391.50, 4339.39, 24669.69, 5416.36, 34585.77, 15138.05, 0.00, 0.00, 0.00, 0.00
222, 31026.32, 36387.84, 4270.75, 24584.86, 5336.14, 35188.44, 15067.38, 0.00, 0.06, 0.96, 0.27
223, 31090.25, 36459.65, 4433.78, 24688.02, 5462.74, 34079.88, 15243.42, 0.00, 0.00, 0.00, 0.00
224, 31093.58, 36473.26, 4490.24, 24759.27, 5527.99, 33571.74, 15303.55, 0.00, 0.00, 0.00, 0.00
225, 31040.40, 36419.77, 4377.10, 24710.54, 5450.43, 34361.58, 15182.89, 0.00, 0.00, 0.00, 0.00
226, 31025.31, 36394.45, 4260.94, 24596.66, 5333.86, 35262.25, 15047.71, 0.00, 0.00, 0.00, 0.00
227, 31090.58, 36459.38, 4407.70, 24669.33, 5436.70, 34302.80, 15204.91, 0.00, 0.00, 0.00, 0.00
228, 31113.92, 36480.86, 4498.91, 24750.00, 5531.61, 33582.38, 15311.37, 0.00, 0.00, 0.00, 0.00
229, 31074.51, 36439.85, 4418.07, 24717.86, 5476.13, 34160.80, 15220.60, 0.00, 0.00, 0.00, 0.00
230, 31044.58, 36408.80, 4267.98, 24601.09, 5337.02, 35257.06, 15056.76, 0.00, 0.00, 0.00, 0.00
231, 31087.01, 36468.50, 4378.33, 24643.60, 5416.45, 34534.85, 15177.01, 0.00, 0.00, 0.00, 0.00
232, 31130.86, 36514.41, 4508.23, 24763.59, 5551.30, 33630.50, 15315.44, 0.00, 0.06, 0.96, 0.27
233, 31108.24, 36477.66, 4456.78, 24749.33, 5517.33, 33987.86, 15267.58, 0.00, 0.00, 0.00, 0.00
234, 31057.05, 36418.10, 4291.60, 24629.16, 5377.40, 35182.43, 15090.62, 0.00, 0.00, 0.00, 0.00
235, 31087.95, 36458.53, 4350.95, 24636.47, 5401.54, 34776.63, 15157.25, 0.00, 0.00, 0.00, 0.00
236, 31141.34, 36509.18, 4500.57, 24758.87, 5537.11, 33715.84, 15317.00, 0.00, 0.00, 0.00, 0.00
237, 31117.27, 36483.54, 4475.94, 24760.03, 5534.31, 33833.01, 15299.50, 0.00, 0.00, 0.00, 0.00
238, 31062.60, 36428.85, 4306.58, 24655.18, 5396.94, 35020.49, 15115.19, 0.00, 0.00, 0.00, 0.00
239, 31086.60, 36462.22, 4330.31, 24618.95, 5380.69, 34981.02, 15131.17, 0.00, 0.00, 0.00, 0.00
240, 31130.30, 36512.49, 4495.20, 24735.45, 5520.95, 33832.36, 15304.46, 0.00, 0.00, 0.00, 0.00
241, 31121.65, 36492.08, 4490.64, 24767.86, 5535.25, 33726.79, 15308.69, 0.00, 0.05, 0.95, 0.27
242, 31078.89, 36445.66, 4342.74, 24684.84, 5423.67, 34819.61, 15149.12, 0.00, 0.00, 0.00, 0.00
243, 31076.28, 36446.80, 4313.53, 24610.30, 5364.96, 35158.24, 15102.54, 0.00, 0.00, 0.00, 0.00
244, 31131.13, 36514.12, 4483.54, 24731.78, 5501.99, 33996.84, 15285.08, 0.00, 0.00, 0.00, 0.00
245, 31131.04, 36511.93, 4494.02, 24788.91, 5528.01, 33654.82, 15309.22, 0.00, 0.00, 0.00, 0.00
246, 31086.80, 36459.80, 4358.17, 24730.10, 5429.08, 34590.89, 15180.88, 0.00, 0.00, 0.00, 0.00
247, 31085.93, 36453.88, 4288.00, 24610.88, 5369.07, 35271.61, 15101.71, 0.00, 0.00, 0.00, 0.00
248, 31142.77, 36503.95, 4449.74, 24700.58, 5487.33, 34186.79, 15263.69, 0.00, 0.00, 0.00, 0.00
249, 31146.84, 36511.62, 4516.33, 24785.54, 5554.79, 33626.59, 15333.81, 0.00, 0.00, 0.00, 0.00
250, 31091.97, 36465.66, 4414.85, 24733.28, 5476.47, 34365.98, 15214.59, 0.00, 0.00, 0.00, 0.00
251, 31066.46, 36437.50, 4280.54, 24606.95, 5346.58, 35316.96, 15065.70, 0.00, 0.06, 0.95, 0.27
252, 31132.31, 36509.96, 4407.36, 24660.63, 5437.04, 34389.86, 15209.09, 0.00, 0.00, 0.00, 0.00
253, 31157.26, 36545.01, 4520.46, 24769.42, 5553.92, 33629.94, 15335.31, 0.00, 0.00, 0.00, 0.00
254, 31105.71, 36497.60, 4437.72, 24757.35, 5511.22, 34170.25, 15266.15, 0.00, 0.00, 0.00, 0.00
255, 31076.21, 36465.51, 4281.97, 24642.98, 5376.58, 35302.07, 15098.85, 0.00, 0.00, 0.00, 0.00
0, 31131.40, 36531.18, 4387.98, 24680.08, 5435.72, 34650.59, 15207.19, 0.00, 0.00, 0.00, 0.00
1, 31167.14, 36566.87, 4512.84, 24795.13, 5553.87, 33696.66, 15341.41, 0.00, 0.00, 0.00, 0.00
2, 31140.27, 36543.89, 4465.50, 24785.89, 5535.79, 33993.79, 15294.16, 0.00, 0.00, 0.00, 0.00
3, 31094.47, 36506.32, 4302.22, 24665.44, 5403.27, 35190.61, 15119.39, 0.00, 0.00, 0.00, 0.00
4, 31124.02, 36539.60, 4357.09, 24654.11, 5414.87, 34871.80, 15172.72, 0.00, 0.00, 0.00, 0.00
5, 31178.16, 36587.43, 4514.60, 24772.04, 5552.73, 33789.04, 15336.22, 0.00, 0.05, 0.96, 0.27
6, 31168.93, 36561.20, 4492.86, 24797.14, 5551.21, 33860.32, 15316.53, 0.00, 0.00, 0.00, 0.00
7, 31109.49, 36512.98, 4325.51, 24696.22, 5407.69, 35034.08, 15143.95, 0.00, 0.00, 0.00, 0.00
8, 31131.13, 36538.62, 4330.63, 24646.87, 5384.60, 35085.69, 15146.50, 0.00, 0.00, 0.00, 0.00
9, 31199.73, 36603.02, 4503.23, 24778.88, 5550.38, 33925.79, 15332.60, 0.00, 0.00, 0.00, 0.00
10, 31175.16, 36581.20, 4509.87, 24808.07, 5571.46, 33761.08, 15351.38, 0.00, 0.00, 0.00, 0.00
11, 31114.39, 36528.02, 4366.32, 24719.11, 5455.01, 34815.99, 15184.17, 0.00, 0.00, 0.00, 0.00
12, 31135.51, 36541.66, 4330.78, 24650.29, 5391.31, 35242.08, 15132.82, 0.00, 0.00, 0.00, 0.00
13, 31201.45, 36600.15, 4488.92, 24757.60, 5530.18, 34094.59, 15317.34, 0.00, 0.00, 0.00, 0.00
14, 31195.59, 36593.56, 4523.52, 24809.36, 5583.17, 33703.21, 15364.28, 0.00, 0.00, 0.00, 0.00
15, 31141.10, 36547.54, 4397.53, 24744.68, 5487.38, 34598.29, 15221.34, 0.00, 0.05, 0.95, 0.27
16, 31130.03, 36534.46, 4311.65, 24641.14, 5390.75, 35359.48, 15121.71, 0.00, 0.00, 0.00, 0.00
17, 31192.62, 36597.02, 4490.49, 24724.52, 5514.96, 34307.07, 15294.16, 0.00, 0.00, 0.00, 0.00
18, 31215.60, 36609.61, 4547.60, 24814.71, 5601.01, 33690.18, 15378.04, 0.00, 0.00, 0.00, 0.00
19, 31171.59, 36561.21, 4432.71, 24775.28, 5529.51, 34380.83, 15269.35, 0.00, 0.00, 0.00, 0.00
20, 31138.21, 36525.52, 4296.65, 24647.33, 5396.16, 35393.85, 15112.48, 0.00, 0.00, 0.00, 0.00
21, 31193.33, 36590.48, 4439.12, 24709.52, 5490.84, 34534.63, 15258.44, 0.00, 0.00, 0.00, 0.00
22, 31225.63, 36624.34, 4546.90, 24811.13, 5598.87, 33712.22, 15381.49, 0.00, 0.00, 0.00, 0.00
23, 31183.77, 36587.97, 4476.72, 24818.50, 5549.89, 34189.81, 15301.74, 0.00, 0.00, 0.00, 0.00
24, 31153.21, 36559.94, 4335.17, 24690.88, 5426.02, 35348.52, 15134.61, 0.00, 0.04, 0.95, 0.27
25, 31191.72, 36591.70, 4412.08, 24674.38, 5467.59, 34761.07, 15227.21, 0.00, 0.00, 0.00, 0.00
26, 31225.41, 36619.62, 4539.95, 24796.55, 5584.76, 33769.64, 15372.37, 0.00, 0.00, 0.00, 0.00
27, 31198.25, 36584.80, 4497.15, 24800.73, 5581.36, 34019.60, 15325.21, 0.00, 0.00, 0.00, 0.00
28, 31155.34, 36545.41, 4339.32, 24696.17, 5445.64, 35221.90, 15151.58, 0.00, 0.00, 0.00, 0.00
29, 31197.07, 36584.30, 4391.98, 24678.94, 5452.62, 34995.90, 15200.28, 0.00, 0.00, 0.00, 0.00
30, 31244.23, 36637.44, 4535.48, 24786.61, 5590.31, 33880.64, 15366.73, 0.00, 0.00, 0.00, 0.00
31, 31217.05, 36607.73, 4514.67, 24809.12, 5589.14, 33893.04, 15350.66, 0.00, 0.00, 0.00, 0.00
32, 31165.62, 36559.36, 4360.85, 24719.96, 5467.15, 35047.31, 15183.56, 0.00, 0.00, 0.00, 0.00
33, 31191.50, 36582.85, 4359.55, 24670.33, 5433.95, 35196.55, 15177.71, 0.00, 0.00, 0.00, 0.00
34, 31243.11, 36639.52, 4526.32, 24782.12, 5571.93, 34034.57, 15355.67, 0.00, 0.05, 0.96, 0.27
35, 31231.69, 36626.21, 4540.38, 24828.94, 5605.97, 33817.07, 15382.40, 0.00, 0.00, 0.00, 0.00
36, 31175.90, 36572.39, 4394.73, 24750.58, 5498.55, 34844.31, 15229.38, 0.00, 0.00, 0.00, 0.00
37, 31187.14, 36577.69, 4340.91, 24670.58, 5422.49, 35361.78, 15164.43, 0.00, 0.00, 0.00, 0.00
38, 31253.28, 36636.83, 4505.98, 24772.53, 5554.14, 34231.36, 15344.99, 0.00, 0.00, 0.00, 0.00
39, 31255.02, 36641.86, 4557.10, 24842.76, 5617.84, 33783.54, 15402.09, 0.00, 0.00, 0.00, 0.00
40, 31205.22, 36596.58, 4443.15, 24784.98, 5532.06, 34624.39, 15272.28, 0.00, 0.00, 0.00, 0.00
42, 31252.28, 36647.94, 4486.67, 24758.06, 5533.53, 34446.56, 15324.87, 0.00, 0.00, 0.00, 0.00
43, 31271.88, 36653.37, 4565.12, 24833.66, 5632.51, 33771.18, 15404.06, 0.00, 0.00, 0.00, 0.00
44, 31224.85, 36606.97, 4468.65, 24798.34, 5566.01, 34404.81, 15309.02, 0.00, 0.04, 0.96, 0.27
45, 31199.08, 36577.46, 4333.22, 24692.89, 5439.50, 35454.16, 15156.07, 0.00, 0.00, 0.00, 0.00
46, 31253.53, 36640.45, 4461.10, 24729.63, 5518.33, 34657.63, 15285.78, 0.00, 0.00, 0.00, 0.00
67, 31295.46, 36689.92, 4498.49, 24765.08, 5577.45, 34533.18, 15341.61, 0.00, 0.00, 0.00, 0.00
68, 31323.91, 36712.92, 4590.76, 24854.65, 5673.90, 33810.50, 15445.32, 0.00, 0.00, 0.00, 0.00
69, 31276.86, 36665.15, 4497.55, 24816.22, 5607.54, 34387.73, 15345.70, 0.00, 0.00, 0.00, 0.00
70, 31241.84, 36638.51, 4353.96, 24700.20, 5480.36, 35484.82, 15194.49, 0.00, 0.00, 0.00, 0.00
71, 31296.69, 36694.30, 4474.82, 24743.96, 5557.56, 34762.64, 15322.17, 0.00, 0.00, 0.00, 0.00
72, 31342.93, 36721.97, 4599.30, 24850.91, 5675.13, 33854.80, 15448.56, 0.00, 0.00, 0.00, 0.00
73, 31300.60, 36682.03, 4533.00, 24838.40, 5637.80, 34207.98, 15386.29, 0.00, 0.04, 0.96, 0.28
74, 31261.95, 36655.34, 4377.92, 24730.64, 5507.36, 35405.03, 15217.60, 0.00, 0.00, 0.00, 0.00
75, 31319.15, 36713.61, 4459.75, 24739.87, 5540.46, 34998.88, 15298.38, 0.00, 0.00, 0.00, 0.00
76, 31353.97, 36748.01, 4592.14, 24841.13, 5648.26, 33941.37, 15440.76, 0.00, 0.00, 0.00, 0.00
77, 31330.82, 36724.50, 4567.82, 24855.65, 5667.33, 34066.40, 15418.43, 0.00, 0.00, 0.00, 0.00
78, 31292.13, 36679.59, 4421.64, 24756.57, 5548.35, 35257.37, 15248.54, 0.00, 0.00, 0.00, 0.00
79, 31323.46, 36705.39, 4456.69, 24720.16, 5531.32, 35215.80, 15266.96, 0.00, 0.00, 0.00, 0.00
80, 31375.54, 36760.15, 4601.84, 24836.70, 5670.53, 34057.89, 15439.76, 0.00, 0.00, 0.00, 0.00
81, 31369.73, 36745.20, 4579.29, 24873.27, 5678.66, 33949.35, 15445.17, 0.00, 0.00, 0.00, 0.00
82, 31317.34, 36697.11, 4426.27, 24783.21, 5561.07, 35050.13, 15283.07, 0.00, 0.00, 0.00, 0.00
83, 31316.89, 36697.43, 4395.38, 24709.65, 5501.84, 35388.71, 15236.69, 0.00, 0.05, 0.95, 0.28
84, 31370.85, 36750.76, 4561.23, 24837.59, 5637.65, 34225.66, 15412.40, 0.00, 0.00, 0.00, 0.00
85, 31365.40, 36743.65, 4594.42, 24876.37, 5685.08, 33884.93, 15453.17, 0.00, 0.00, 0.00, 0.00
86, 31314.26, 36704.49, 4460.47, 24819.00, 5588.45, 34829.07, 15313.36, 0.00, 0.00, 0.00, 0.00
87, 31313.74, 36706.79, 4381.14, 24714.57, 5496.05, 35515.54, 15219.06, 0.00, 0.00, 0.00, 0.00
88, 31381.51, 36765.67, 4553.68, 24798.79, 5629.94, 34425.44, 15398.99, 0.00, 0.00, 0.00, 0.00
89, 31398.93, 36771.82, 4622.36, 24879.14, 5702.02, 33867.43, 15474.80, 0.00, 0.00, 0.00, 0.00
90, 31359.79, 36732.36, 4504.61, 24842.64, 5629.04, 34608.34, 15364.77, 0.00, 0.00, 0.00, 0.00
91, 31335.16, 36709.81, 4380.81, 24727.04, 5509.84, 35561.85, 15220.22, 0.00, 0.00, 0.00, 0.00
92, 31392.71, 36778.81, 4526.41, 24789.40, 5607.67, 34639.08, 15362.17, 0.00, 0.00, 0.00, 0.00
93, 31426.57, 36805.75, 4632.58, 24895.35, 5713.64, 33870.69, 15475.52, 0.00, 0.05, 0.95, 0.28
94, 31376.13, 36749.44, 4553.45, 24878.63, 5667.64, 34393.99, 15399.59, 0.00, 0.00, 0.00, 0.00
95, 31341.97, 36695.26, 4400.21, 24754.42, 5531.68, 35534.20, 15232.07, 0.00, 0.00, 0.00, 0.00
96, 31404.29, 36739.54, 4503.00, 24784.71, 5586.01, 34884.70, 15352.65, 0.00, 0.00, 0.00, 0.00
97, 31435.51, 36764.93, 4625.76, 24887.77, 5727.88, 33928.92, 15480.73, 0.00, 0.00, 0.00, 0.00
98, 31398.05, 36725.34, 4571.92, 24879.79, 5699.43, 34223.98, 15421.47, 0.00, 0.00, 0.00, 0.00
99, 31356.68, 36697.96, 4424.10, 24777.80, 5573.38, 35434.73, 15250.04, 0.00, 0.00, 0.00, 0.00
120, 31398.19, 36721.97, 4454.23, 24788.49, 5626.11, 35593.52, 15271.76, 0.00, 0.00, 0.00, 0.00
121, 31442.89, 36774.39, 4543.73, 24812.69, 5670.88, 35018.01, 15368.43, 0.00, 0.00, 0.00, 0.00
122, 31482.23, 36813.52, 4677.39, 24914.13, 5795.09, 34022.82, 15512.31, 0.00, 0.04, 0.95, 0.29
123, 31458.65, 36779.86, 4631.55, 24914.57, 5769.41, 34263.34, 15472.64, 0.00, 0.00, 0.00, 0.00
124, 31429.68, 36751.12, 4474.71, 24823.42, 5638.41, 35470.34, 15313.38, 0.00, 0.00, 0.00, 0.00
125, 31457.62, 36787.28, 4529.89, 24809.83, 5665.63, 35244.52, 15354.91, 0.00, 0.00, 0.00, 0.00
126, 31500.11, 36835.47, 4679.00, 24934.78, 5795.20, 34132.79, 15513.79, 0.00, 0.00, 0.00, 0.00
127, 31479.70, 36822.44, 4662.86, 24955.74, 5803.61, 34142.22, 15511.33, 0.00, 0.00, 0.00, 0.00
128, 31424.81, 36766.38, 4510.54, 24851.12, 5684.38, 35295.86, 15341.63, 0.00, 0.00, 0.00, 0.00
129, 31442.98, 36775.01, 4490.76, 24796.46, 5640.66, 35445.33, 15326.59, 0.00, 0.00, 0.00, 0.00
130, 31492.36, 36825.30, 4642.59, 24898.12, 5770.19, 34271.21, 15492.24, 0.00, 0.00, 0.00, 0.00
131, 31486.21, 36817.37, 4672.43, 24943.61, 5807.12, 34048.10, 15519.71, 0.00, 0.00, 0.00, 0.00
132, 31440.32, 36774.50, 4525.49, 24870.65, 5703.02, 35073.33, 15382.49, 0.00, 0.04, 0.95, 0.29
133, 31438.85, 36776.15, 4457.34, 24786.25, 5625.17, 35589.83, 15323.53, 0.00, 0.00, 0.00, 0.00
134, 31488.91, 36827.67, 4627.35, 24881.25, 5758.79, 34454.16, 15510.86, 0.00, 0.00, 0.00, 0.00
135, 31490.79, 36816.21, 4680.66, 24944.75, 5815.07, 34001.72, 15561.26, 0.00, 0.00, 0.00, 0.00
136, 31441.73, 36769.58, 4555.49, 24891.15, 5731.81, 34846.57, 15436.87, 0.00, 0.00, 0.00, 0.00
137, 31431.45, 36760.04, 4451.08, 24787.77, 5626.49, 35674.72, 15321.67, 0.00, 0.00, 0.00, 0.00
138, 31477.76, 36827.16, 4594.80, 24856.35, 5727.48, 34663.57, 15470.80, 0.00, 0.00, 0.00, 0.00
139, 31506.68, 36838.98, 4683.09, 24954.65, 5820.68, 33998.48, 15568.03, 0.00, 0.00, 0.00, 0.00
140, 31451.12, 36781.76, 4591.23, 24924.94, 5760.18, 34640.51, 15474.09, 0.00, 0.00, 0.00, 0.00
141, 31409.30, 36748.43, 4444.40, 24800.47, 5630.14, 35699.16, 15320.53, 0.00, 0.00, 0.00, 0.00
142, 31467.28, 36802.13, 4564.92, 24841.46, 5709.22, 34901.69, 15453.06, 0.00, 0.05, 0.94, 0.29
143, 31508.78, 36833.41, 4679.96, 24940.48, 5816.01, 34032.88, 15571.63, 0.00, 0.00, 0.00, 0.00
144, 31469.42, 36803.62, 4627.62, 24931.07, 5784.43, 34441.98, 15508.98, 0.00, 0.00, 0.00, 0.00
145, 31421.52, 36767.30, 4459.26, 24815.06, 5644.91, 35623.38, 15328.40, 0.00, 0.00, 0.00, 0.00
146, 31465.20, 36808.36, 4539.64, 24834.82, 5683.62, 35121.94, 15412.33, 0.00, 0.00, 0.00, 0.00
147, 31510.57, 36841.17, 4686.51, 24962.12, 5816.97, 34092.58, 15566.51, 0.00, 0.00, 0.00, 0.00
148, 31479.62, 36805.19, 4640.74, 24947.54, 5801.35, 34271.97, 15534.77, 0.00, 0.00, 0.00, 0.00
149, 31429.88, 36771.05, 4481.70, 24847.00, 5673.72, 35473.02, 15365.01, 0.00, 0.00, 0.00, 0.00
150, 31461.60, 36802.57, 4514.90, 24829.35, 5668.65, 35343.29, 15396.82, 0.00, 0.00, 0.00, 0.00
151, 31506.26, 36846.36, 4667.69, 24910.15, 5799.34, 34204.38, 15555.20, 0.00, 0.00, 0.00, 0.00
152, 31496.87, 36833.68, 4665.39, 24946.45, 5814.78, 34150.45, 15556.41, 0.00, 0.05, 0.94, 0.29
153, 31445.01, 36779.55, 4509.60, 24864.88, 5698.06, 35281.85, 15397.33, 0.00, 0.00, 0.00, 0.00
154, 31467.88, 36792.16, 4490.09, 24804.42, 5650.57, 35528.63, 15374.67, 0.00, 0.00, 0.00, 0.00
155, 31522.80, 36843.56, 4656.29, 24910.37, 5781.10, 34357.91, 15548.50, 0.00, 0.00, 0.00, 0.00
156, 31512.09, 36833.24, 4689.46, 24965.58, 5823.25, 34077.42, 15585.18, 0.00, 0.00, 0.00, 0.00
157, 31459.45, 36797.52, 4538.14, 24896.45, 5724.91, 35058.57, 15442.95, 0.00, 0.00, 0.00, 0.00
158, 31452.88, 36796.91, 4459.69, 24798.07, 5627.43, 35657.56, 15352.25, 0.00, 0.00, 0.00, 0.00
159, 31508.72, 36847.45, 4628.53, 24895.08, 5755.66, 34542.72, 15528.38, 0.00, 0.00, 0.00, 0.00
160, 31529.32, 36847.39, 4691.39, 24964.97, 5828.53, 34031.51, 15597.27, 0.00, 0.00, 0.00, 0.00
161, 31475.75, 36796.02, 4585.88, 24912.20, 5750.63, 34832.49, 15478.40, 0.00, 0.05, 0.94, 0.29
162, 31445.77, 36779.84, 4471.11, 24801.63, 5639.28, 35730.20, 15357.37, 0.00, 0.00, 0.00, 0.00
163, 31509.43, 36846.78, 4607.34, 24871.05, 5740.11, 34756.80, 15507.71, 0.00, 0.00, 0.00, 0.00
164, 31535.58, 36863.08, 4692.37, 24955.97, 5832.15, 34038.33, 15602.66, 0.00, 0.00, 0.00, 0.00
165, 31495.53, 36816.81, 4611.48, 24928.72, 5780.76, 34623.75, 15517.90, 0.00, 0.00, 0.00, 0.00
166, 31460.19, 36780.71, 4467.31, 24816.16, 5651.08, 35722.18, 15359.38, 0.00, 0.00, 0.00, 0.00
167, 31502.32, 36830.22, 4575.25, 24851.07, 5715.88, 34992.84, 15472.50, 0.00, 0.00, 0.00, 0.00
168, 31527.27, 36859.05, 4698.22, 24957.13, 5832.42, 34079.64, 15602.52, 0.00, 0.00, 0.00, 0.00
169, 31500.49, 36834.20, 4651.91, 24956.06, 5810.60, 34433.44, 15550.06, 0.00, 0.00, 0.00, 0.00
170, 31460.19, 36797.83, 4489.46, 24819.94, 5676.38, 35625.93, 15370.53, 0.00, 0.00, 0.00, 0.00
171, 31494.59, 36831.63, 4550.17, 24815.44, 5696.23, 35208.89, 15437.08, 0.00, 0.05, 0.95, 0.29
172, 31543.63, 36873.29, 4691.72, 24941.15, 5826.61, 34148.82, 15594.95, 0.00, 0.00, 0.00, 0.00
173, 31527.20, 36860.28, 4671.58, 24966.47, 5827.26, 34274.52, 15575.66, 0.00, 0.00, 0.00, 0.00
174, 31473.36, 36802.23, 4514.74, 24861.71, 5707.50, 35470.65, 15415.17, 0.00, 0.00, 0.00, 0.00
175, 31490.66, 36816.29, 4524.04, 24829.55, 5690.08, 35429.95, 15432.72, 0.00, 0.00, 0.00, 0.00
176, 31536.88, 36860.06, 4682.53, 24935.34, 5825.04, 34278.88, 15597.87, 0.00, 0.00, 0.00, 0.00
177, 31534.76, 36850.00, 4693.26, 24979.21, 5848.76, 34171.30, 15606.43, 0.00, 0.00, 0.00, 0.00
178, 31495.78, 36814.75, 4546.61, 24895.66, 5733.74, 35270.11, 15444.63, 0.00, 0.00, 0.00, 0.00
179, 31499.33, 36827.92, 4514.14, 24817.86, 5674.62, 35601.93, 15399.08, 0.00, 0.00, 0.00, 0.00
180, 31547.29, 36876.49, 4679.76, 24917.34, 5806.96, 34436.62, 15568.71, 0.00, 0.00, 0.00, 0.00
181, 31545.28, 36878.10, 4709.98, 24975.19, 5854.61, 34102.03, 15610.77, 0.00, 0.05, 0.95, 0.29
182, 31502.01, 36835.32, 4576.65, 24925.30, 5759.73, 35045.21, 15470.49, 0.00, 0.00, 0.00, 0.00
183, 31500.16, 36821.05, 4510.76, 24826.89, 5669.36, 35728.46, 15375.09, 0.00, 0.00, 0.00, 0.00
184, 31556.48, 36879.62, 4656.09, 24895.66, 5792.19, 34638.88, 15553.89, 0.00, 0.00, 0.00, 0.00
185, 31561.98, 36886.81, 4711.32, 24977.27, 5862.24, 34074.25, 15629.37, 0.00, 0.00, 0.00, 0.00
186, 31515.94, 36834.38, 4608.33, 24935.81, 5786.55, 34821.56, 15521.70, 0.00, 0.00, 0.00, 0.00
187, 31491.77, 36809.32, 4484.72, 24819.18, 5667.35, 35778.46, 15386.47, 0.00, 0.00, 0.00, 0.00
188, 31551.81, 36872.35, 4624.35, 24891.86, 5763.71, 34863.38, 15532.12, 0.00, 0.00, 0.00, 0.00
189, 31574.77, 36890.88, 4718.21, 24974.25, 5860.14, 34099.62, 15638.80, 0.00, 0.00, 0.00, 0.00
190, 31532.79, 36848.10, 4639.02, 24940.08, 5810.67, 34624.37, 15553.68, 0.00, 0.00, 0.00, 0.00
191, 31496.42, 36811.15, 4492.90, 24821.07, 5679.96, 35755.93, 15389.49, 0.00, 0.05, 0.95, 0.29
192, 31547.32, 36867.50, 4607.86, 24854.45, 5744.55, 35099.01, 15499.79, 0.00, 0.00, 0.00, 0.00
193, 31587.78, 36903.60, 4722.16, 24967.59, 5864.18, 34146.78, 15632.79, 0.00, 0.00, 0.00, 0.00
194, 31556.97, 36861.00, 4666.91, 24960.51, 5828.04, 34444.02, 15574.14, 0.00, 0.00, 0.00, 0.00
195, 31510.33, 36816.21, 4503.09, 24852.75, 5693.19, 35646.56, 15394.61, 0.00, 0.00, 0.00, 0.00
196, 31548.88, 36860.51, 4557.10, 24837.32, 5710.71, 35320.43, 15455.16, 0.00, 0.00, 0.00, 0.00
197, 31606.55, 36908.52, 4718.63, 24961.71, 5860.43, 34237.80, 15632.54, 0.00, 0.00, 0.00, 0.00
198, 31584.49, 36881.52, 4691.09, 24981.13, 5857.48, 34308.96, 15610.01, 0.00, 0.00, 0.00, 0.00
199, 31528.21, 36845.48, 4534.10, 24887.01, 5735.97, 35485.49, 15440.81, 0.00, 0.00, 0.00, 0.00
200, 31553.80, 36877.49, 4543.33, 24842.69, 5710.80, 35535.63, 15445.41, 0.00, 0.00, 0.00, 0.00
201, 31620.54, 36929.77, 4719.32, 24960.93, 5856.18, 34374.66, 15622.10, 0.00, 0.05, 0.95, 0.28
202, 31604.90, 36907.60, 4725.43, 24991.82, 5877.01, 34206.62, 15627.29, 0.00, 0.00, 0.00, 0.00
203, 31542.58, 36853.64, 4561.57, 24899.91, 5758.90, 35263.47, 15458.96, 0.00, 0.00, 0.00, 0.00
204, 31540.68, 36852.35, 4520.64, 24817.23, 5688.38, 35686.41, 15403.57, 0.00, 0.00, 0.00, 0.00
205, 31601.74, 36920.36, 4687.25, 24920.05, 5821.58, 34531.90, 15582.18, 0.00, 0.00, 0.00, 0.00
206, 31616.77, 36924.30, 4738.52, 24996.47, 5888.54, 34136.23, 15645.53, 0.00, 0.00, 0.00, 0.00
207, 31565.56, 36868.66, 4614.61, 24937.13, 5797.17, 35034.66, 15503.93, 0.00, 0.00, 0.00, 0.00
208, 31558.47, 36863.03, 4523.23, 24830.64, 5695.18, 35796.21, 15396.17, 0.00, 0.00, 0.00, 0.00
209, 31613.72, 36925.01, 4674.06, 24914.51, 5814.81, 34742.88, 15574.58, 0.00, 0.00, 0.00, 0.00
210, 31625.24, 36931.27, 4744.45, 24996.80, 5892.17, 34120.90, 15656.37, 0.00, 0.05, 0.95, 0.29
211, 31584.76, 36891.35, 4653.10, 24965.40, 5830.68, 34810.74, 15558.13, 0.00, 0.00, 0.00, 0.00
212, 31545.35, 36861.36, 4518.83, 24853.87, 5703.96, 35827.07, 15411.30, 0.00, 0.00, 0.00, 0.00
213, 31596.67, 36917.26, 4636.56, 24896.62, 5783.47, 34970.96, 15546.15, 0.00, 0.00, 0.00, 0.00
214, 31629.46, 36945.55, 4741.45, 25008.18, 5885.26, 34147.61, 15656.55, 0.00, 0.00, 0.00, 0.00
215, 31594.99, 36906.04, 4677.19, 24968.80, 5848.62, 34612.08, 15585.96, 0.00, 0.00, 0.00, 0.00
216, 31552.19, 36863.97, 4523.86, 24841.33, 5718.58, 35772.36, 15421.00, 0.00, 0.00, 0.00, 0.00
217, 31590.14, 36907.33, 4618.18, 24862.49, 5766.50, 35190.05, 15516.42, 0.00, 0.00, 0.00, 0.00
218, 31630.82, 36938.07, 4752.03, 24975.30, 5891.38, 34198.70, 15660.10, 0.00, 0.00, 0.00, 0.00
219, 31609.32, 36905.43, 4707.41, 24982.68, 5874.53, 34439.25, 15626.24, 0.00, 0.00, 0.00, 0.00
220, 31553.46, 36860.02, 4538.92, 24871.90, 5738.18, 35646.92, 15446.98, 0.00, 0.05, 0.95, 0.29
221, 31599.51, 36918.42, 4594.58, 24869.91, 5752.47, 35422.89, 15494.30, 0.00, 0.00, 0.00, 0.00
222, 31651.86, 36975.71, 4749.92, 24987.64, 5887.09, 34314.15, 15655.59, 0.00, 0.00, 0.00, 0.00
223, 31618.96, 36936.95, 4731.55, 25000.83, 5890.71, 34323.52, 15645.84, 0.00, 0.00, 0.00, 0.00
224, 31568.87, 36882.32, 4575.96, 24902.19, 5767.44, 35477.61, 15472.41, 0.00, 0.00, 0.00, 0.00
225, 31594.21, 36909.28, 4569.34, 24847.52, 5731.79, 35620.43, 15458.49, 0.00, 0.00, 0.00, 0.00
226, 31647.07, 36965.07, 4738.19, 24958.22, 5870.86, 34454.59, 15631.54, 0.00, 0.00, 0.00, 0.00
227, 31639.07, 36948.08, 4765.79, 25011.09, 5907.66, 34237.57, 15659.81, 0.00, 0.00, 0.00, 0.00
228, 31577.67, 36890.23, 4608.33, 24922.44, 5788.95, 35260.19, 15498.77, 0.00, 0.00, 0.00, 0.00
229, 31591.02, 36905.43, 4538.81, 24845.10, 5719.03, 35775.11, 15441.17, 0.00, 0.00, 0.00, 0.00
230, 31644.37, 36971.84, 4694.67, 24942.76, 5841.61, 34639.04, 15606.41, 0.00, 0.05, 0.95, 0.29
231, 31650.45, 36971.33, 4750.64, 25024.25, 5903.61, 34191.66, 15660.95, 0.00, 0.00, 0.00, 0.00
232, 31599.78, 36913.03, 4642.64, 24967.34, 5828.24, 35043.98, 15550.78, 0.00, 0.00, 0.00, 0.00
233, 31582.21, 36902.26, 4553.18, 24860.48, 5726.74, 35870.35, 15443.24, 0.00, 0.00, 0.00, 0.00
234, 31629.19, 36955.01, 4689.35, 24926.26, 5825.74, 34853.66, 15601.18, 0.00, 0.00, 0.00, 0.00
235, 31649.87, 36968.80, 4759.92, 25007.60, 5904.97, 34178.01, 15683.93, 0.00, 0.00, 0.00, 0.00
236, 31615.38, 36934.20, 4664.85, 24983.10, 5843.30, 34814.27, 15587.46, 0.00, 0.00, 0.00, 0.00
1, 31635.52, 36958.95, 4657.23, 24970.07, 5840.64, 35021.50, 15580.48, 0.00, 0.00, 0.00, 0.00
2, 31621.97, 36951.90, 4554.88, 24868.37, 5741.36, 35914.27, 15472.68, 0.00, 0.00, 0.00, 0.00
3, 31667.86, 37004.45, 4682.89, 24933.62, 5833.34, 34946.93, 15623.58, 0.00, 0.04, 0.95, 0.29
4, 31691.71, 37013.84, 4759.83, 25021.41, 5917.87, 34228.41, 15710.37, 0.00, 0.00, 0.00, 0.00
5, 31650.99, 36971.89, 4675.02, 24996.92, 5867.06, 34813.91, 15629.37, 0.00, 0.00, 0.00, 0.00
6, 31611.18, 36935.99, 4530.99, 24877.18, 5736.71, 35912.01, 15467.99, 0.00, 0.00, 0.00, 0.00
7, 31651.77, 36984.36, 4643.55, 24900.31, 5794.62, 35175.01, 15571.79, 0.00, 0.00, 0.00, 0.00
8, 31691.44, 37023.79, 4768.61, 25012.92, 5919.70, 34264.11, 15707.93, 0.00, 0.00, 0.00, 0.00
9, 31656.30, 36986.61, 4699.88, 25003.71, 5883.85, 34625.85, 15648.25, 0.00, 0.00, 0.00, 0.00
10, 31608.23, 36936.28, 4536.09, 24883.12, 5742.19, 35819.25, 15468.21, 0.00, 0.00, 0.00, 0.00
11, 31648.71, 36976.45, 4614.45, 24891.21, 5774.39, 35405.45, 15544.54, 0.00, 0.00, 0.00, 0.00
32, 31716.97, 37046.74, 4660.63, 24931.00, 5812.21, 35275.12, 15580.46, 0.00, 0.00, 0.00, 0.00
33, 31746.16, 37071.24, 4781.57, 25028.01, 5925.00, 34326.18, 15707.75, 0.00, 0.05, 0.94, 0.28
34, 31712.12, 37045.87, 4742.68, 25029.46, 5908.88, 34626.02, 15663.57, 0.00, 0.00, 0.00, 0.00
35, 31664.38, 36994.33, 4580.81, 24914.24, 5778.60, 35832.77, 15489.36, 0.00, 0.00, 0.00, 0.00
36, 31709.39, 37032.39, 4630.34, 24897.47, 5794.18, 35501.05, 15553.06, 0.00, 0.00, 0.00, 0.00
37, 31766.70, 37093.79, 4779.56, 25025.86, 5930.77, 34414.55, 15720.65, 0.00, 0.00, 0.00, 0.00
38, 31744.77, 37063.08, 4751.00, 25054.67, 5928.20, 34489.39, 15700.89, 0.00, 0.00, 0.00, 0.00
39, 31685.99, 37003.11, 4593.08, 24938.87, 5807.41, 35667.64, 15528.76, 0.00, 0.00, 0.00, 0.00
40, 31704.41, 37021.28, 4606.31, 24886.01, 5782.91, 35714.58, 15537.32, 0.00, 0.00, 0.00, 0.00
41, 31736.26, 37062.39, 4762.55, 24992.40, 5912.30, 34556.54, 15699.33, 0.00, 0.00, 0.00, 0.00
42, 31726.69, 37047.88, 4772.81, 25029.55, 5935.55, 34396.14, 15709.03, 0.00, 0.05, 0.95, 0.28
43, 31689.38, 37011.67, 4629.81, 24957.69, 5841.56, 35460.73, 15572.37, 0.00, 0.00, 0.00, 0.00
44, 31701.25, 37031.12, 4586.22, 24879.19, 5774.68, 35878.91, 15518.26, 0.00, 0.00, 0.00, 0.00
45, 31763.46, 37092.70, 4751.60, 24979.77, 5898.58, 34727.28, 15684.44, 0.00, 0.00, 0.00, 0.00
46, 31769.79, 37084.36, 4786.02, 25047.05, 5950.10, 34340.57, 15730.15, 0.00, 0.00, 0.00, 0.00
47, 31717.88, 37035.68, 4658.10, 24993.16, 5863.47, 35244.27, 15606.23, 0.00, 0.00, 0.00, 0.00
48, 31705.52, 37020.28, 4569.99, 24890.88, 5768.05, 35994.27, 15507.10, 0.00, 0.00, 0.00, 0.00
49, 31762.12, 37073.86, 4726.86, 24970.41, 5883.07, 34933.79, 15668.66, 0.00, 0.00, 0.00, 0.00
50, 31786.50, 37099.22, 4804.08, 25054.54, 5965.55, 34319.02, 15751.45, 0.00, 0.00, 0.00, 0.00
51, 31742.34, 37057.38, 4699.72, 25008.16, 5894.67, 35013.83, 15645.24, 0.00, 0.00, 0.00, 0.00
52, 31718.02, 37033.96, 4581.57, 24904.42, 5778.55, 36022.20, 15502.81, 0.00, 0.05, 0.95, 0.29
53, 31780.02, 37101.01, 4718.19, 24962.56, 5871.42, 35154.62, 15643.07, 0.00, 0.00, 0.00, 0.00
54, 31813.24, 37124.66, 4826.84, 25048.82, 5974.98, 34334.91, 15750.36, 0.00, 0.00, 0.00, 0.00
55, 31765.92, 37078.26, 4741.12, 25026.04, 5924.22, 34805.55, 15675.37, 0.00, 0.00, 0.00, 0.00
56, 31718.76, 37039.75, 4568.09, 24908.40, 5787.16, 35966.79, 15510.84, 0.00, 0.00, 0.00, 0.00
57, 31760.67, 37076.78, 4659.24, 24927.40, 5831.15, 35385.85, 15605.07, 0.00, 0.00, 0.00, 0.00
58, 31808.34, 37116.86, 4799.14, 25044.64, 5961.21, 34397.14, 15750.47, 0.00, 0.00, 0.00, 0.00
59, 31784.38, 37096.54, 4759.45, 25069.98, 5945.70, 34640.40, 15707.62, 0.00, 0.00, 0.00, 0.00
60, 31741.22, 37062.36, 4596.50, 24975.39, 5809.31, 35851.62, 15525.86, 0.00, 0.00, 0.00, 0.00
61, 31776.85, 37097.93, 4641.85, 24906.19, 5812.30, 35611.31, 15565.64, 0.00, 0.00, 0.00, 0.00
62, 31825.87, 37147.66, 4802.43, 25026.46, 5956.16, 34492.90, 15733.15, 0.00, 0.06, 0.95, 0.29
63, 31810.02, 37127.70, 4795.92, 25068.73, 5970.15, 34508.66, 15731.96, 0.00, 0.00, 0.00, 0.00
64, 31755.61, 37062.90, 4621.16, 24968.22, 5839.75, 35665.65, 15552.41, 0.00, 0.00, 0.00, 0.00
65, 31775.55, 37084.76, 4623.70, 24920.70, 5811.36, 35804.54, 15543.65, 0.00, 0.00, 0.00, 0.00
86, 31821.64, 37135.12, 4651.24, 24944.59, 5887.14, 35713.46, 15579.90, 0.00, 0.00, 0.00, 0.00
87, 31886.86, 37184.00, 4821.96, 25088.76, 6032.02, 34584.09, 15756.91, 0.00, 0.00, 0.00, 0.00
88, 31862.95, 37166.08, 4817.83, 25101.54, 6044.87, 34536.33, 15752.41, 0.00, 0.00, 0.00, 0.00
89, 31802.91, 37109.66, 4654.10, 24985.36, 5918.52, 35658.39, 15577.24, 0.00, 0.00, 0.00, 0.00
90, 31825.64, 37141.69, 4639.19, 24925.79, 5876.30, 35893.97, 15557.89, 0.00, 0.00, 0.00, 0.00
91, 31886.28, 37184.76, 4805.63, 25035.03, 6012.35, 34723.90, 15735.58, 0.00, 0.05, 0.95, 0.29
92, 31887.76, 37162.50, 4834.17, 25089.18, 6052.65, 34444.77, 15764.64, 0.00, 0.00, 0.00, 0.00
93, 31834.90, 37115.45, 4695.07, 25021.50, 5948.98, 35436.84, 15619.82, 0.00, 0.00, 0.00, 0.00
94, 31820.72, 37112.41, 4628.20, 24931.58, 5865.97, 36037.02, 15543.72, 0.00, 0.00, 0.00, 0.00
95, 31874.50, 37174.66, 4785.98, 25022.20, 5986.29, 34924.33, 15706.68, 0.00, 0.00, 0.00, 0.00
96, 31897.59, 37188.14, 4848.70, 25100.96, 6059.58, 34419.11, 15777.00, 0.00, 0.00, 0.00, 0.00
97, 31851.03, 37146.27, 4730.10, 25048.15, 5984.52, 35214.46, 15662.78, 0.00, 0.00, 0.00, 0.00
98, 31827.38, 37120.34, 4611.52, 24926.31, 5867.40, 36102.34, 15527.73, 0.00, 0.00, 0.00, 0.00
99, 31888.94, 37180.58, 4762.62, 24998.41, 5971.89, 35130.30, 15681.60, 0.00, 0.00, 0.00, 0.00
100, 31909.21, 37189.17, 4854.75, 25084.42, 6063.11, 34415.63, 15781.05, 0.00, 0.00, 0.00, 0.00
101, 31861.49, 37156.73, 4774.71, 25063.23, 6015.12, 34998.34, 15697.56, 0.00, 0.05, 0.95, 0.29
102, 31825.66, 37120.61, 4614.45, 24947.14, 5883.31, 36092.77, 15535.65, 0.00, 0.00, 0.00, 0.00
103, 31875.26, 37179.24, 4729.96, 24996.96, 5948.76, 35360.19, 15651.05, 0.00, 0.00, 0.00, 0.00
104, 31908.77, 37209.93, 4857.62, 25090.86, 6064.50, 34462.23, 15784.71, 0.00, 0.00, 0.00, 0.00
105, 31884.43, 37176.25, 4799.05, 25079.84, 6033.92, 34819.19, 15725.64, 0.00, 0.00, 0.00, 0.00
106, 31838.85, 37137.55, 4640.74, 24963.57, 5895.50, 36014.76, 15545.66, 0.00, 0.00, 0.00, 0.00
107, 31878.82, 37181.23, 4701.33, 24966.52, 5916.53, 35601.97, 15617.45, 0.00, 0.00, 0.00, 0.00
108, 31928.93, 37217.57, 4850.40, 25079.13, 6045.90, 34547.04, 15769.07, 0.00, 0.00, 0.00, 0.00
109, 31905.79, 37200.97, 4830.93, 25090.99, 6051.71, 34666.46, 15753.67, 0.00, 0.00, 0.00, 0.00
110, 31855.71, 37153.80, 4667.92, 24987.21, 5928.00, 35853.67, 15581.87, 0.00, 0.00, 0.00, 0.00
111, 31886.73, 37187.80, 4689.64, 24948.44, 5910.94, 35808.05, 15599.26, 0.00, 0.06, 0.95, 0.29
112, 31943.10, 37241.34, 4853.48, 25065.16, 6050.24, 34662.17, 15773.85, 0.00, 0.00, 0.00, 0.00
113, 31923.30, 37213.02, 4855.87, 25100.07, 6068.01, 34560.13, 15774.14, 0.00, 0.00, 0.00, 0.00
114, 31864.00, 37155.71, 4702.78, 25009.66, 5950.01, 35656.13, 15611.89, 0.00, 0.00, 0.00, 0.00
115, 31870.21, 37163.33, 4664.74, 24931.87, 5889.86, 35983.65, 15571.97, 0.00, 0.00, 0.00, 0.00
116, 31934.12, 37233.29, 4841.75, 25047.10, 6030.39, 34819.68, 15754.07, 0.00, 0.00, 0.00, 0.00
137, 31973.52, 37271.11, 4862.67, 25073.89, 6045.92, 34751.17, 15769.27, 0.00, 0.00, 0.00, 0.00
138, 31963.15, 37256.22, 4876.46, 25116.68, 6076.19, 34588.79, 15782.81, 0.00, 0.00, 0.00, 0.00
139, 31909.48, 37210.47, 4732.74, 25030.73, 5971.45, 35652.39, 15633.52, 0.00, 0.00, 0.00, 0.00
140, 31921.80, 37213.17, 4685.24, 24954.20, 5905.33, 36066.33, 15582.36, 0.00, 0.05, 0.95, 0.28
141, 31987.04, 37272.43, 4849.05, 25063.88, 6037.12, 34918.74, 15761.42, 0.00, 0.00, 0.00, 0.00
142, 31991.04, 37273.07, 4900.98, 25129.78, 6098.41, 34530.27, 15820.21, 0.00, 0.00, 0.00, 0.00
143, 31929.20, 37225.69, 4769.79, 25061.65, 6003.70, 35428.30, 15679.50, 0.00, 0.00, 0.00, 0.00
144, 31922.07, 37227.54, 4669.82, 24963.16, 5904.01, 36179.76, 15576.68, 0.00, 0.00, 0.00, 0.00
145, 31980.41, 37281.39, 4825.12, 25044.03, 6018.99, 35126.01, 15742.11, 0.00, 0.00, 0.00, 0.00
146, 31987.11, 37279.89, 4899.23, 25134.63, 6096.80, 34514.51, 15818.28, 0.00, 0.00, 0.00, 0.00
147, 31939.81, 37228.80, 4806.05, 25089.18, 6032.44, 35209.18, 15711.11, 0.00, 0.00, 0.00, 0.00
148, 31921.78, 37217.55, 4683.07, 24959.74, 5915.70, 36210.90, 15578.03, 0.00, 0.00, 0.00, 0.00
149, 31977.81, 37274.86, 4809.11, 25025.08, 5998.96, 35349.02, 15719.29, 0.00, 0.00, 0.00, 0.00
150, 32001.19, 37288.09, 4895.48, 25117.19, 6091.23, 34531.66, 15819.54, 0.00, 0.05, 0.95, 0.29
151, 31964.33, 37250.05, 4828.78, 25104.88, 6053.28, 35001.07, 15748.08, 0.00, 0.00, 0.00, 0.00
152, 31930.00, 37216.30, 4680.32, 24988.98, 5922.07, 36159.18, 15583.08, 0.00, 0.00, 0.00, 0.00
153, 31974.97, 37270.73, 4778.02, 25012.18, 5971.63, 35582.55, 15685.40, 0.00, 0.00, 0.00, 0.00
154, 32016.59, 37303.52, 4911.44, 25120.16, 6092.84, 34596.72, 15829.08, 0.00, 0.00, 0.00, 0.00
175, 32048.67, 37338.32, 4920.92, 25123.67, 6102.74, 34583.09, 15835.79, 0.00, 0.00, 0.00, 0.00
176, 32021.89, 37313.29, 4859.36, 25118.17, 6071.94, 34998.79, 15779.17, 0.00, 0.00, 0.00, 0.00
177, 31979.29, 37278.02, 4701.20, 25003.73, 5939.51, 36180.97, 15613.45, 0.00, 0.00, 0.00, 0.00
178, 32024.15, 37323.75, 4786.11, 25018.96, 5977.37, 35686.91, 15698.88, 0.00, 0.00, 0.00, 0.00
179, 32054.86, 37355.38, 4923.04, 25125.62, 6105.13, 34671.02, 15844.86, 0.00, 0.05, 0.95, 0.29
180, 32033.56, 37336.09, 4893.22, 25140.97, 6098.27, 34858.89, 15818.20, 0.00, 0.00, 0.00, 0.00
181, 31992.68, 37288.25, 4722.72, 25039.21, 5967.80, 36061.88, 15646.87, 0.00, 0.00, 0.00, 0.00
182, 32023.81, 37314.00, 4755.91, 25013.41, 5962.53, 35916.30, 15676.26, 0.00, 0.00, 0.00, 0.00
183, 32074.19, 37364.54, 4918.64, 25129.95, 6100.75, 34787.63, 15839.32, 0.00, 0.00, 0.00, 0.00
184, 32055.11, 37342.34, 4907.75, 25156.20, 6110.14, 34741.11, 15830.94, 0.00, 0.00, 0.00, 0.00
185, 32003.83, 37295.14, 4754.62, 25070.30, 5995.39, 35866.41, 15668.91, 0.00, 0.00, 0.00, 0.00
186, 32009.44, 37312.46, 4730.95, 24997.99, 5938.61, 36098.63, 15642.62, 0.00, 0.00, 0.00, 0.00
187, 32055.08, 37364.02, 4887.48, 25093.83, 6061.95, 34934.55, 15804.74, 0.00, 0.00, 0.00, 0.00
188, 32057.45, 37347.84, 4912.67, 25147.10, 6102.00, 34659.60, 15839.38, 0.00, 0.00, 0.00, 0.00
189, 32003.16, 37298.82, 4773.62, 25076.24, 6005.76, 35639.09, 15694.34, 0.00, 0.05, 0.95, 0.28
190, 32007.90, 37298.96, 4699.68, 24981.36, 5919.61, 36229.85, 15614.08, 0.00, 0.00, 0.00, 0.00
191, 32068.22, 37358.32, 4865.91, 25078.97, 6046.39, 35119.84, 15789.96, 0.00, 0.00, 0.00, 0.00
192, 32073.28, 37367.40, 4928.36, 25164.06, 6120.04, 34618.20, 15856.64, 0.00, 0.00, 0.00, 0.00
193, 32029.85, 37329.22, 4816.00, 25092.98, 6042.08, 35404.69, 15736.63, 0.00, 0.00, 0.00, 0.00
194, 32014.29, 37314.67, 4702.87, 24984.89, 5932.40, 36292.73, 15615.69, 0.00, 0.00, 0.00, 0.00
195, 32062.19, 37359.60, 4852.45, 25057.60, 6031.42, 35325.46, 15761.44, 0.00, 0.00, 0.00, 0.00
196, 32081.57, 37369.28, 4939.47, 25146.34, 6121.27, 34608.01, 15861.56, 0.00, 0.00, 0.00, 0.00
197, 32034.77, 37330.92, 4845.68, 25119.34, 6061.57, 35182.88, 15774.99, 0.00, 0.00, 0.00, 0.00
198, 32008.35, 37308.68, 4696.21, 25006.06, 5935.82, 36279.23, 15622.01, 0.00, 0.00, 0.00, 0.00
199, 32054.93, 37355.22, 4812.58, 25042.38, 5998.31, 35551.19, 15735.87, 0.00, 0.05, 0.95, 0.28
200, 32094.64, 37391.76, 4935.24, 25163.32, 6111.37, 34645.45, 15858.54, 0.00, 0.00, 0.00, 0.00
201, 32073.03, 37372.00, 4875.50, 25143.45, 6087.07, 35000.35, 15809.75, 0.00, 0.00, 0.00, 0.00
202, 32019.41, 37335.75, 4713.00, 25012.00, 5948.65, 36187.99, 15636.65, 0.00, 0.00, 0.00, 0.00
223, 32047.35, 37356.16, 4722.10, 25017.44, 5954.12, 36305.73, 15640.77, 0.00, 0.00, 0.00, 0.00
224, 32098.18, 37407.25, 4828.98, 25049.24, 6004.26, 35650.45, 15743.50, 0.00, 0.00, 0.00, 0.00
225, 32137.74, 37436.00, 4952.43, 25164.58, 6135.13, 34709.80, 15895.35, 0.00, 0.00, 0.00, 0.00
226, 32094.29, 37389.24, 4903.59, 25155.61, 6105.02, 35010.30, 15836.97, 0.00, 0.00, 0.00, 0.00
227, 32055.04, 37355.33, 4744.81, 25065.71, 5981.30, 36206.61, 15664.46, 0.00, 0.00, 0.00, 0.00
228, 32093.39, 37397.35, 4782.47, 25055.28, 5990.69, 35879.15, 15720.99, 0.00, 0.06, 0.95, 0.29
229, 32145.43, 37436.78, 4931.31, 25158.63, 6120.44, 34800.75, 15876.40, 0.00, 0.00, 0.00, 0.00
230, 32127.37, 37417.11, 4915.55, 25166.90, 6126.10, 34874.84, 15861.94, 0.00, 0.00, 0.00, 0.00
231, 32079.92, 37374.20, 4755.65, 25069.22, 6003.92, 36045.79, 15689.87, 0.00, 0.00, 0.00, 0.00
232, 32098.42, 37396.70, 4760.92, 25021.59, 5971.29, 36094.36, 15692.89, 0.00, 0.00, 0.00, 0.00
233, 32146.12, 37448.25, 4928.00, 25133.84, 6108.53, 34939.33, 15866.83, 0.00, 0.00, 0.00, 0.00
234, 32135.24, 37434.75, 4934.33, 25172.11, 6139.85, 34777.05, 15887.51, 0.00, 0.00, 0.00, 0.00
235, 32077.68, 37390.42, 4788.17, 25090.75, 6033.54, 35837.54, 15726.04, 0.00, 0.00, 0.00, 0.00
236, 32080.05, 37388.05, 4742.44, 25009.57, 5965.41, 36253.41, 15669.38, 0.00, 0.00, 0.00, 0.00
237, 32139.75, 37445.00, 4913.00, 25120.28, 6102.23, 35104.35, 15856.39, 0.00, 0.00, 0.00, 0.00
238, 32145.90, 37442.95, 4956.32, 25184.51, 6158.11, 34718.18, 15902.51, 0.00, 0.05, 0.94, 0.30
239, 32105.06, 37408.08, 4829.72, 25128.93, 6064.23, 35622.51, 15768.44, 0.00, 0.00, 0.00, 0.00
240, 32094.56, 37405.44, 4742.32, 25029.66, 5969.68, 36376.59, 15673.24, 0.00, 0.00, 0.00, 0.00
241, 32148.78, 37459.38, 4892.60, 25114.73, 6077.73, 35325.46, 15834.51, 0.00, 0.00, 0.00, 0.00
242, 32173.64, 37473.82, 4969.93, 25202.62, 6154.91, 34719.99, 15912.50, 0.00, 0.00, 0.00, 0.00
243, 32139.15, 37442.34, 4876.77, 25173.90, 6093.20, 35418.93, 15810.30, 0.00, 0.00, 0.00, 0.00
244, 32120.51, 37429.02, 4739.96, 25066.56, 5974.60, 36424.71, 15672.51, 0.00, 0.00, 0.00, 0.00
245, 32161.88, 37471.16, 4852.68, 25104.05, 6042.37, 35558.16, 15792.60, 0.00, 0.00, 0.00, 0.00
246, 32190.51, 37492.12, 4961.64, 25197.59, 6149.34, 34733.40, 15911.63, 0.00, 0.00, 0.00, 0.00
247, 32149.61, 37450.66, 4892.13, 25180.22, 6110.70, 35196.91, 15844.84, 0.00, 0.00, 0.00, 0.00
248, 32111.39, 37412.10, 4742.21, 25063.97, 5985.62, 36347.36, 15686.36, 0.00, 0.05, 0.95, 0.29
249, 32147.71, 37455.35, 4825.61, 25065.76, 6022.48, 35763.86, 15771.95, 0.00, 0.00, 0.00, 0.00
250, 32171.74, 37479.09, 4950.62, 25161.16, 6133.34, 34774.75, 15897.16, 0.00, 0.00, 0.00, 0.00
251, 32140.38, 37448.18, 4906.14, 25171.77, 6119.28, 35014.77, 15858.70, 0.00, 0.00, 0.00, 0.00
252, 32092.39, 37419.68, 4746.42, 25064.42, 5993.71, 36220.35, 15685.16, 0.00, 0.00, 0.00, 0.00
253, 32132.06, 37462.39, 4798.76, 25031.52, 6002.65, 35988.45, 15739.63, 0.00, 0.00, 0.00, 0.00
254, 32188.66, 37494.96, 4960.32, 25154.74, 6140.16, 34885.44, 15904.99, 0.00, 0.00, 0.00, 0.00
255, 32165.97, 37462.17, 4944.54, 25178.37, 6145.79, 34898.76, 15891.60, 0.00, 0.00, 0.00, 0.00
0, 32111.61, 37416.17, 4790.60, 25085.76, 6029.90, 36049.90, 15734.58, 0.00, 0.00, 0.00, 0.00
1, 32127.48, 37437.72, 4776.79, 25034.09, 5993.51, 36189.80, 15723.25, 0.00, 0.00, 0.00, 0.00
2, 32180.77, 37492.50, 4928.29, 25145.58, 6123.55, 35029.27, 15886.50, 0.00, 0.05, 0.95, 0.29
3, 32177.26, 37480.43, 4950.55, 25185.59, 6159.58, 34806.20, 15913.88, 0.00, 0.00, 0.00, 0.00
4, 32125.96, 37432.44, 4816.98, 25101.97, 6060.97, 35826.29, 15760.46, 0.00, 0.00, 0.00, 0.00
5, 32123.28, 37426.99, 4755.33, 25012.94, 5981.08, 36326.57, 15687.88, 0.00, 0.00, 0.00, 0.00
6, 32180.32, 37485.84, 4915.15, 25122.20, 6103.66, 35196.33, 15860.82, 0.00, 0.00, 0.00, 0.00
7, 32183.31, 37483.43, 4960.97, 25181.88, 6162.71, 34752.63, 15909.32, 0.00, 0.00, 0.00, 0.00
8, 32130.18, 37430.79, 4842.75, 25110.13, 6082.27, 35596.74, 15786.21, 0.00, 0.00, 0.00, 0.00
9, 32112.04, 37419.99, 4743.22, 25011.89, 5980.52, 36412.58, 15683.48, 0.00, 0.00, 0.00, 0.00
10, 32174.75, 37484.39, 4898.65, 25097.74, 6091.39, 35400.94, 15842.63, 0.00, 0.00, 0.00, 0.00
11, 32188.61, 37490.13, 4969.89, 25173.36, 6169.28, 34737.02, 15918.44, 0.00, 0.05, 0.94, 0.30
12, 32148.98, 37450.39, 4872.81, 25133.51, 6105.69, 35366.70, 15822.22, 0.00, 0.00, 0.00, 0.00
13, 32121.31, 37426.72, 4735.13, 25015.83, 5978.02, 36408.98, 15675.14, 0.00, 0.00, 0.00, 0.00
14, 32166.37, 37471.98, 4847.89, 25053.02, 6044.92, 35612.05, 15787.91, 0.00, 0.00, 0.00, 0.00
15, 32196.59, 37493.82, 4969.40, 25163.35, 6165.68, 34754.52, 15916.50, 0.00, 0.00, 0.00, 0.00
16, 32158.15, 37456.63, 4912.76, 25154.76, 6131.37, 35169.53, 15856.77, 0.00, 0.00, 0.00, 0.00
37, 32191.16, 37476.34, 4899.39, 25168.71, 6176.70, 35393.56, 15842.31, 0.00, 0.00, 0.00, 0.00
38, 32166.80, 37453.05, 4756.88, 25061.98, 6061.14, 36475.88, 15694.63, 0.00, 0.00, 0.00, 0.00
39, 32212.73, 37503.57, 4865.28, 25117.73, 6126.97, 35751.19, 15810.64, 0.00, 0.00, 0.00, 0.00
40, 32242.93, 37531.89, 4981.11, 25197.41, 6239.13, 34849.07, 15934.69, 0.00, 0.00, 0.00, 0.00
41, 32197.11, 37491.65, 4928.47, 25179.04, 6212.20, 35198.68, 15882.55, 0.00, 0.07, 0.95, 0.30
42, 32160.67, 37452.13, 4775.05, 25061.47, 6084.90, 36384.62, 15717.79, 0.00, 0.00, 0.00, 0.00
43, 32203.12, 37498.18, 4843.71, 25071.75, 6108.13, 35972.74, 15790.97, 0.00, 0.00, 0.00, 0.00
44, 32237.58, 37528.09, 4980.13, 25183.58, 6228.78, 34927.93, 15932.23, 0.00, 0.00, 0.00, 0.00
45, 32222.07, 37507.99, 4959.43, 25205.70, 6225.90, 35054.11, 15909.59, 0.00, 0.00, 0.00, 0.00
46, 32178.82, 37472.50, 4802.58, 25107.22, 6104.95, 36238.10, 15739.92, 0.00, 0.00, 0.00, 0.00
47, 32206.81, 37503.66, 4824.38, 25071.57, 6087.68, 36192.52, 15758.02, 0.00, 0.00, 0.00, 0.00
68, 32248.74, 37533.88, 4847.60, 25078.70, 6095.92, 36058.57, 15786.86, 0.00, 0.00, 0.00, 0.00
69, 32286.56, 37568.30, 5002.57, 25181.92, 6227.53, 34979.34, 15936.53, 0.00, 0.00, 0.00, 0.00
70, 32261.52, 37540.80, 4979.32, 25188.02, 6219.19, 35042.32, 15907.89, 0.00, 0.06, 0.94, 0.30
71, 32212.82, 37501.00, 4809.00, 25085.52, 6094.34, 36201.69, 15737.33, 0.00, 0.00, 0.00, 0.00
72, 32235.15, 37517.89, 4810.25, 25040.08, 6068.21, 36246.66, 15750.20, 0.00, 0.00, 0.00, 0.00
73, 32286.15, 37570.49, 4977.00, 25159.59, 6206.34, 35099.66, 15926.82, 0.00, 0.00, 0.00, 0.00
74, 32270.51, 37555.38, 4986.81, 25205.59, 6227.73, 34941.61, 15933.75, 0.00, 0.00, 0.00, 0.00
75, 32225.13, 37507.59, 4843.20, 25135.18, 6118.86, 36001.60, 15778.86, 0.00, 0.00, 0.00, 0.00
76, 32230.99, 37518.27, 4797.44, 25026.33, 6045.99, 36417.72, 15720.38, 0.00, 0.00, 0.00, 0.00
77, 32286.83, 37568.88, 4965.75, 25138.60, 6177.93, 35272.57, 15901.16, 0.00, 0.00, 0.00, 0.00
78, 32291.74, 37566.62, 5013.36, 25199.91, 6231.06, 34881.89, 15951.50, 0.00, 0.00, 0.00, 0.00
79, 32247.91, 37524.91, 4877.46, 25132.84, 6140.16, 35769.59, 15824.23, 0.00, 0.00, 0.00, 0.00
80, 32241.59, 37516.53, 4777.71, 25032.34, 6037.52, 36507.57, 15715.87, 0.00, 0.06, 0.94, 0.30
81, 32289.08, 37575.32, 4929.54, 25108.92, 6144.14, 35459.10, 15870.59, 0.00, 0.00, 0.00, 0.00
82, 32299.81, 37573.57, 5002.95, 25188.85, 6221.23, 34854.21, 15948.10, 0.00, 0.00, 0.00, 0.00
83, 32259.22, 37526.03, 4913.32, 25156.24, 6164.41, 35543.81, 15855.34, 0.00, 0.00, 0.00, 0.00
84, 32236.40, 37504.84, 4787.16, 25045.26, 6042.88, 36542.13, 15716.27, 0.00, 0.00, 0.00, 0.00
85, 32277.06, 37558.95, 4905.27, 25110.24, 6113.78, 35690.50, 15841.66, 0.00, 0.00, 0.00, 0.00
86, 32307.52, 37586.49, 5010.64, 25195.87, 6218.72, 34883.34, 15952.01, 0.00, 0.00, 0.00, 0.00
87, 32277.21, 37550.44, 4951.60, 25170.57, 6181.22, 35344.88, 15883.84, 0.00, 0.00, 0.00, 0.00
88, 32232.98, 37510.45, 4800.77, 25055.34, 6043.73, 36498.30, 15712.02, 0.00, 0.00, 0.00, 0.00
89, 32273.77, 37563.85, 4888.91, 25076.55, 6087.48, 35921.98, 15806.42, 0.00, 0.00, 0.00, 0.00
90, 32318.10, 37609.43, 5023.78, 25181.56, 6209.78, 34935.02, 15946.65, 0.00, 0.06, 0.95, 0.30
91, 32293.91, 37563.56, 4975.81, 25181.83, 6189.67, 35169.84, 15907.87, 0.00, 0.00, 0.00, 0.00
92, 32251.64, 37516.80, 4800.66, 25073.78, 6053.90, 36368.39, 15727.11, 0.00, 0.00, 0.00, 0.00
93, 32293.29, 37565.86, 4852.38, 25067.03, 6063.98, 36136.38, 15776.24, 0.00, 0.00, 0.00, 0.00
94, 32325.65, 37602.79, 5002.34, 25174.88, 6196.71, 35036.34, 15940.37, 0.00, 0.00, 0.00, 0.00
95, 32302.18, 37573.41, 4986.23, 25201.50, 6206.39, 35050.39, 15940.17, 0.00, 0.00, 0.00, 0.00
96, 32266.75, 37534.97, 4836.27, 25111.47, 6088.68, 36196.48, 15769.56, 0.00, 0.00, 0.00, 0.00
97, 32293.60, 37561.41, 4846.69, 25052.42, 6056.56, 36338.26, 15761.47, 0.00, 0.00, 0.00, 0.00
98, 32337.07, 37606.61, 4990.79, 25154.45, 6184.01, 35186.03, 15929.35, 0.00, 0.00, 0.00, 0.00
99, 32321.65, 37591.25, 4986.27, 25195.40, 6210.14, 34966.33, 15942.63, 0.00, 0.00, 0.00, 0.00
100, 32272.03, 37548.98, 4858.06, 25124.05, 6116.29, 35979.24, 15794.84, 0.00, 0.06, 0.95, 0.29
101, 32277.24, 37556.56, 4809.69, 25048.57, 6050.86, 36484.59, 15735.94, 0.00, 0.00, 0.00, 0.00
102, 32336.36, 37612.75, 4971.83, 25143.07, 6177.51, 35357.98, 15902.77, 0.00, 0.00, 0.00, 0.00
103, 32346.01, 37609.60, 5019.37, 25210.82, 6236.67, 34908.55, 15954.18, 0.00, 0.00, 0.00, 0.00
104, 32291.14, 37572.05, 4905.65, 25192.05, 6160.05, 35756.06, 15845.31, 0.00, 0.00, 0.00, 0.00
105, 32268.63, 37544.38, 4802.70, 25045.55, 6050.21, 36574.52, 15727.49, 0.00, 0.00, 0.00, 0.00
106, 32326.19, 37595.45, 4952.79, 25101.77, 6151.80, 35572.46, 15874.41, 0.00, 0.00, 0.00, 0.00
107, 32343.98, 37614.27, 5032.20, 25200.38, 6241.08, 34909.82, 15961.74, 0.00, 0.00, 0.00, 0.00
108, 32307.95, 37576.61, 4934.26, 25172.13, 6179.54, 35542.98, 15869.56, 0.00, 0.00, 0.00, 0.00
109, 32284.32, 37550.37, 4793.29, 25056.73, 6052.81, 36590.14, 15722.33, 0.00, 0.06, 0.95, 0.30
110, 32331.86, 37611.75, 4923.15, 25111.49, 6133.54, 35800.79, 15852.59, 0.00, 0.00, 0.00, 0.00
111, 32359.42, 37637.79, 5031.80, 25204.34, 6236.81, 34946.71, 15964.93, 0.00, 0.00, 0.00, 0.00
112, 32333.32, 37607.43, 4959.63, 25191.18, 6198.34, 35355.56, 15898.42, 0.00, 0.00, 0.00, 0.00
113, 32305.06, 37581.75, 4810.27, 25077.09, 6076.32, 36520.94, 15747.27, 0.00, 0.00, 0.00, 0.00
114, 32330.77, 37607.88, 4883.36, 25072.04, 6105.13, 36026.00, 15818.53, 0.00, 0.00, 0.00, 0.00
115, 32369.62, 37641.48, 5022.33, 25186.21, 6230.53, 35008.95, 15958.56, 0.00, 0.00, 0.00, 0.00
116, 32348.00, 37621.41, 4994.52, 25209.19, 6229.99, 35194.52, 15944.91, 0.00, 0.00, 0.00, 0.00
117, 32301.76, 37571.85, 4837.32, 25102.39, 6108.40, 36384.93, 15780.24, 0.00, 0.00, 0.00, 0.00
118, 32329.76, 37599.75, 4872.70, 25068.91, 6103.23, 36240.25, 15807.20, 0.00, 0.00, 0.00, 0.00
119, 32382.22, 37649.34, 5030.51, 25183.55, 6238.95, 35119.57, 15966.21, 0.00, 0.06, 0.95, 0.30
120, 32370.35, 37632.20, 5020.49, 25220.21, 6248.83, 35074.94, 15965.38, 0.00, 0.00, 0.00, 0.00
121, 32321.25, 37584.41, 4876.61, 25115.07, 6136.29, 36193.20, 15803.78, 0.00, 0.00, 0.00, 0.00
122, 32330.12, 37597.55, 4865.44, 25051.90, 6095.52, 36421.74, 15778.95, 0.00, 0.00, 0.00, 0.00
123, 32369.66, 37647.58, 5008.22, 25153.27, 6216.58, 35260.17, 15943.16, 0.00, 0.00, 0.00, 0.00
124, 32369.26, 37639.98, 5035.85, 25203.78, 6252.74, 34981.15, 15972.80, 0.00, 0.00, 0.00, 0.00
125, 32323.04, 37590.36, 4917.56, 25140.28, 6161.53, 35958.86, 15834.29, 0.00, 0.00, 0.00, 0.00
126, 32325.49, 37594.45, 4841.75, 25057.80, 6076.90, 36546.20, 15757.29, 0.00, 0.00, 0.00, 0.00
127, 32384.01, 37654.51, 4988.10, 25148.93, 6189.96, 35443.52, 15918.55, 0.00, 0.00, 0.00, 0.00
128, 32383.47, 37651.42, 5041.23, 25217.86, 6248.52, 34946.01, 15975.35, 0.00, 0.00, 0.00, 0.00
129, 32340.13, 37618.75, 4934.13, 25178.21, 6179.34, 35735.83, 15869.20, 0.00, 0.06, 0.95, 0.30
130, 32326.77, 37606.70, 4831.71, 25069.89, 6067.87, 36619.22, 15742.98, 0.00, 0.00, 0.00, 0.00
131, 32388.32, 37656.88, 4977.60, 25135.85, 6169.46, 35655.41, 15891.64, 0.00, 0.00, 0.00, 0.00
132, 32403.48, 37654.89, 5037.17, 25216.86, 6250.64, 34940.00, 15983.84, 0.00, 0.00, 0.00, 0.00
133, 32362.04, 37621.81, 4953.66, 25186.23, 6197.80, 35515.89, 15906.44, 0.00, 0.00, 0.00, 0.00
134, 32332.20, 37608.62, 4818.43, 25074.37, 6072.99, 36604.36, 15758.99, 0.00, 0.00, 0.00, 0.00
135, 32390.87, 37659.52, 4930.55, 25110.87, 6137.59, 35884.14, 15872.04, 0.00, 0.00, 0.00, 0.00
136, 32421.32, 37676.25, 5039.22, 25209.97, 6241.19, 34986.20, 15988.31, 0.00, 0.00, 0.00, 0.00
137, 32393.42, 37648.18, 4993.69, 25207.56, 6215.08, 35335.27, 15937.87, 0.00, 0.00, 0.00, 0.00
138, 32359.36, 37619.46, 4844.58, 25094.12, 6089.02, 36514.46, 15776.31, 0.00, 0.00, 0.00, 0.00
139, 32383.94, 37655.47, 4908.76, 25088.13, 6109.87, 36104.68, 15838.20, 0.00, 0.06, 0.95, 0.30
140, 32414.45, 37683.23, 5036.32, 25208.23, 6233.21, 35061.30, 15980.18, 0.00, 0.00, 0.00, 0.00
141, 32392.57, 37650.02, 5008.71, 25244.15, 6227.51, 35181.53, 15957.18, 0.00, 0.00, 0.00, 0.00
142, 32351.40, 37605.54, 4857.26, 25100.81, 6110.43, 36359.67, 15792.71, 0.00, 0.00, 0.00, 0.00
143, 32373.86, 37643.02, 4882.34, 25055.70, 6094.31, 36311.17, 15815.51, 0.00, 0.00, 0.00, 0.00
144, 32427.48, 37693.60, 5041.37, 25180.22, 6231.42, 35177.82, 15981.05, 0.00, 0.00, 0.00, 0.00
145, 32411.62, 37663.89, 5038.22, 25211.54, 6243.78, 35074.54, 15979.02, 0.00, 0.00, 0.00, 0.00
146, 32363.47, 37619.73, 4896.73, 25136.01, 6139.15, 36164.07, 15824.30, 0.00, 0.00, 0.00, 0.00
147, 32378.00, 37640.65, 4869.37, 25073.85, 6085.58, 36493.49, 15787.86, 0.00, 0.00, 0.00, 0.00
148, 32436.52, 37695.50, 5025.19, 25172.11, 6209.60, 35348.41, 15949.67, 0.00, 0.06, 0.94, 0.30
149, 32417.29, 37687.23, 5057.24, 25230.76, 6256.34, 35014.74, 15984.76, 0.00, 0.00, 0.00, 0.00
150, 32359.74, 37639.20, 4929.81, 25151.32, 6165.75, 35948.38, 15847.03, 0.00, 0.00, 0.00, 0.00
151, 32357.81, 37629.27, 4847.06, 25052.64, 6077.01, 36619.42, 15766.81, 0.00, 0.00, 0.00, 0.00
152, 32418.41, 37684.35, 4999.73, 25148.86, 6191.99, 35549.42, 15944.95, 0.00, 0.00, 0.00, 0.00
153, 32442.26, 37691.32, 5062.94, 25225.57, 6262.27, 34998.79, 16017.75, 0.00, 0.00, 0.00, 0.00
154, 32399.59, 37654.35, 4946.73, 25189.88, 6192.95, 35735.61, 15914.04, 0.00, 0.00, 0.00, 0.00
155, 32372.54, 37634.17, 4822.81, 25078.19, 6072.19, 36679.84, 15779.17, 0.00, 0.00, 0.00, 0.00
156, 32413.78, 37686.85, 4952.61, 25134.16, 6155.80, 35771.20, 15910.60, 0.00, 0.00, 0.00, 0.00
157, 32442.37, 37708.06, 5053.01, 25229.29, 6255.20, 35009.09, 16015.27, 0.00, 0.00, 0.00, 0.00
158, 32402.18, 37667.80, 4972.10, 25201.21, 6203.53, 35525.37, 15932.84, 0.00, 0.06, 0.94, 0.30
159, 32367.85, 37646.19, 4840.25, 25091.73, 6086.38, 36645.41, 15786.10, 0.00, 0.00, 0.00, 0.00
160, 32412.58, 37694.54, 4945.90, 25115.80, 6138.19, 35999.34, 15885.67, 0.00, 0.00, 0.00, 0.00
161, 32465.35, 37721.05, 5058.36, 25218.31, 6253.64, 35062.33, 16017.68, 0.00, 0.00, 0.00, 0.00
162, 32431.40, 37699.25, 5013.52, 25224.14, 6233.21, 35352.39, 15979.95, 0.00, 0.00, 0.00, 0.00
163, 32388.08, 37659.85, 4865.80, 25129.51, 6109.20, 36545.46, 15808.96, 0.00, 0.00, 0.00, 0.00
164, 32422.86, 37682.22, 4917.50, 25098.17, 6115.75, 36223.44, 15852.50, 0.00, 0.00, 0.00, 0.00
165, 32457.88, 37713.54, 5058.62, 25201.32, 6240.79, 35150.44, 16001.88, 0.00, 0.00, 0.00, 0.00
166, 32438.93, 37689.31, 5041.91, 25222.91, 6241.37, 35214.79, 15988.07, 0.00, 0.00, 0.00, 0.00
167, 32386.38, 37643.18, 4880.28, 25123.00, 6116.64, 36382.58, 15817.41, 0.00, 0.00, 0.00, 0.00
168, 32416.78, 37679.41, 4895.01, 25084.11, 6096.39, 36431.84, 15824.97, 0.00, 0.06, 0.95, 0.30
169, 32473.44, 37743.02, 5060.05, 25196.54, 6237.95, 35279.99, 15995.31, 0.00, 0.00, 0.00, 0.00
170, 32450.75, 37723.95, 5068.12, 25250.85, 6258.98, 35113.81, 16002.91, 0.00, 0.00, 0.00, 0.00
171, 32400.30, 37676.52, 4924.56, 25153.96, 6156.61, 36162.93, 15849.55, 0.00, 0.00, 0.00, 0.00
172, 32408.89, 37676.34, 4873.53, 25062.00, 6086.29, 36575.81, 15793.70, 0.00, 0.00, 0.00, 0.00
173, 32478.49, 37735.36, 5031.78, 25165.49, 6215.60, 35435.16, 15960.06, 0.00, 0.00, 0.00, 0.00
174, 32477.29, 37726.84, 5078.50, 25228.97, 6270.63, 35045.14, 16011.96, 0.00, 0.00, 0.00, 0.00
175, 32415.04, 37678.18, 4957.68, 25170.84, 6185.04, 35932.21, 15889.12, 0.00, 0.00, 0.00, 0.00
176, 32415.37, 37681.60, 4866.60, 25076.91, 6090.63, 36679.68, 15793.59, 0.00, 0.00, 0.00, 0.00
177, 32467.45, 37740.90, 5012.29, 25152.46, 6196.75, 35646.32, 15953.54, 0.00, 0.00, 0.00, 0.00
178, 32485.26, 37751.45, 5090.10, 25233.98, 6277.96, 35035.98, 16034.58, 0.00, 0.06, 0.95, 0.30
179, 32438.39, 37715.68, 4995.82, 25198.55, 6213.32, 35717.04, 15937.24, 0.00, 0.00, 0.00, 0.00
180, 32409.16, 37686.45, 4857.35, 25084.36, 6087.10, 36718.46, 15789.61, 0.00, 0.00, 0.00, 0.00
181, 32459.16, 37738.24, 4970.02, 25138.87, 6163.45, 35871.06, 15927.03, 0.00, 0.00, 0.00, 0.00
182, 32487.46, 37759.85, 5072.64, 25235.68, 6262.49, 35054.73, 16039.97, 0.00, 0.00, 0.00, 0.00
183, 32453.97, 37726.23, 5001.72, 25230.27, 6218.99, 35517.23, 15970.05, 0.00, 0.00, 0.00, 0.00
184, 32420.15, 37708.24, 4857.32, 25109.32, 6095.34, 36670.56, 15808.56, 0.00, 0.00, 0.00, 0.00
185, 32453.53, 37749.99, 4941.28, 25123.61, 6133.32, 36101.60, 15893.36, 0.00, 0.00, 0.00, 0.00
186, 32498.16, 37769.69, 5075.14, 25223.47, 6250.75, 35119.24, 16026.33, 0.00, 0.00, 0.00, 0.00
187, 32476.23, 37737.39, 5031.67, 25226.87, 6238.66, 35351.14, 15986.59, 0.00, 0.00, 0.00, 0.00
188, 32423.13, 37697.00, 4870.96, 25122.71, 6109.94, 36547.54, 15823.42, 0.00, 0.06, 0.94, 0.30
189, 32450.98, 37730.44, 4914.43, 25100.14, 6110.72, 36317.96, 15864.04, 0.00, 0.00, 0.00, 0.00
190, 32492.60, 37769.13, 5058.07, 25202.80, 6238.06, 35218.61, 16011.96, 0.00, 0.00, 0.00, 0.00
191, 32477.71, 37751.16, 5054.80, 25229.42, 6253.12, 35229.88, 16012.41, 0.00, 0.00, 0.00, 0.00
192, 32437.32, 37718.99, 4909.43, 25143.39, 6144.74, 36373.02, 15855.30, 0.00, 0.00, 0.00, 0.00
193, 32453.26, 37731.20, 4896.17, 25086.55, 6103.17, 36517.70, 15838.40, 0.00, 0.00, 0.00, 0.00
194, 32498.18, 37775.56, 5051.63, 25188.09, 6231.44, 35365.06, 16000.21, 0.00, 0.00, 0.00, 0.00
195, 32486.67, 37763.56, 5067.92, 25229.64, 6264.75, 35138.35, 16019.38, 0.00, 0.00, 0.00, 0.00
196, 32442.97, 37719.86, 4940.47, 25167.42, 6173.51, 36152.58, 15879.35, 0.00, 0.00, 0.00, 0.00
197, 32444.76, 37714.39, 4882.20, 25084.29, 6099.97, 36662.34, 15812.12, 0.00, 0.05, 0.94, 0.30
198, 32498.77, 37771.18, 5025.52, 25171.48, 6217.79, 35539.25, 15977.52, 0.00, 0.00, 0.00, 0.00
199, 32504.24, 37779.05, 5072.26, 25240.66, 6278.18, 35090.52, 16037.06, 0.00, 0.00, 0.00, 0.00
200, 32463.11, 37742.04, 4968.93, 25195.38, 6209.74, 35923.30, 15922.91, 0.00, 0.00, 0.00, 0.00
201, 32445.34, 37718.10, 4871.99, 25089.07, 6102.38, 36742.09, 15806.80, 0.00, 0.00, 0.00, 0.00
202, 32499.53, 37778.83, 5038.46, 25187.24, 6209.52, 35744.66, 15970.23, 0.00, 0.00, 0.00, 0.00
203, 32520.63, 37800.82, 5106.17, 25264.87, 6298.45, 35088.06, 16069.74, 0.00, 0.00, 0.00, 0.00
204, 32478.78, 37755.18, 4991.86, 25207.04, 6229.27, 35714.13, 15967.95, 0.00, 0.00, 0.00, 0.00
205, 32459.27, 37737.75, 4867.07, 25112.63, 6108.02, 36763.43, 15821.03, 0.00, 0.00, 0.00, 0.00
206, 32504.84, 37779.16, 4982.00, 25136.48, 6167.96, 35976.45, 15925.21, 0.00, 0.00, 0.00, 0.00
207, 32541.48, 37816.42, 5098.79, 25249.38, 6279.14, 35122.55, 16050.41, 0.00, 0.06, 0.95, 0.31
208, 32505.20, 37784.71, 5035.83, 25242.88, 6243.02, 35527.27, 15992.99, 0.00, 0.00, 0.00, 0.00
209, 32468.50, 37756.68, 4887.41, 25122.44, 6108.40, 36684.66, 15814.66, 0.00, 0.00, 0.00, 0.00
210, 32513.94, 37792.04, 4959.05, 25117.24, 6126.55, 36179.72, 15873.22, 0.00, 0.00, 0.00, 0.00
211, 32535.82, 37806.36, 5087.91, 25223.36, 6250.04, 35174.52, 16022.27, 0.00, 0.00, 0.00, 0.00
212, 32480.01, 37755.29, 5036.63, 25228.05, 6235.82, 35356.23, 15994.82, 0.00, 0.00, 0.00, 0.00
213, 32435.58, 37710.99, 4881.24, 25126.40, 6117.99, 36541.91, 15831.83, 0.00, 0.00, 0.00, 0.00
214, 32433.63, 37727.06, 4915.75, 25091.64, 6113.49, 36402.25, 15862.76, 0.00, 0.00, 0.00, 0.00
215, 32461.53, 37750.15, 5057.40, 25196.67, 6241.75, 35281.71, 16021.19, 0.00, 0.00, 0.00, 0.00
216, 32443.64, 37716.18, 5039.45, 25230.76, 6253.35, 35235.36, 16020.92, 0.00, 0.00, 0.00, 0.00
217, 32407.55, 37684.23, 4899.48, 25158.14, 6152.52, 36352.96, 15871.06, 0.00, 0.05, 0.95, 0.31
218, 32414.70, 37698.74, 4891.77, 25086.79, 6108.15, 36586.59, 15846.63, 0.00, 0.00, 0.00, 0.00
219, 32459.58, 37734.62, 5040.07, 25182.17, 6237.39, 35429.01, 16012.19, 0.00, 0.00, 0.00, 0.00
220, 32460.50, 37726.93, 5063.52, 25239.01, 6281.22, 35152.81, 16049.87, 0.00, 0.00, 0.00, 0.00
221, 32403.28, 37673.84, 4929.07, 25162.65, 6184.19, 36133.58, 15905.19, 0.00, 0.00, 0.00, 0.00
222, 32408.02, 37683.00, 4866.82, 25074.95, 6100.31, 36726.29, 15826.22, 0.00, 0.00, 0.00, 0.00
223, 32472.97, 37757.88, 5027.44, 25173.72, 6223.93, 35619.54, 15999.33, 0.00, 0.00, 0.00, 0.00
224, 32488.04, 37758.09, 5073.31, 25240.66, 6284.66, 35114.10, 16058.95, 0.00, 0.00, 0.00, 0.00
225, 32436.22, 37721.38, 4968.08, 25193.32, 6209.40, 35903.70, 15942.02, 0.00, 0.00, 0.00, 0.00
226, 32418.37, 37710.30, 4852.32, 25102.44, 6095.57, 36794.12, 15824.07, 0.00, 0.00, 0.00, 0.00
227, 32479.10, 37773.13, 4998.88, 25172.49, 6196.66, 35839.43, 15975.82, 0.00, 0.06, 0.95, 0.31
228, 32497.89, 37792.64, 5088.73, 25226.67, 6284.68, 35123.17, 16065.07, 0.00, 0.00, 0.00, 0.00
229, 32467.96, 37751.49, 5011.10, 25200.54, 6229.01, 35693.50, 15977.38, 0.00, 0.00, 0.00, 0.00
230, 32445.63, 37731.53, 4856.92, 25095.73, 6101.53, 36777.09, 15826.04, 0.00, 0.00, 0.00, 0.00
231, 32483.30, 37777.46, 4958.42, 25128.34, 6155.29, 36058.61, 15934.29, 0.00, 0.00, 0.00, 0.00
232, 32507.06, 37792.91, 5073.31, 25220.59, 6258.91, 35158.78, 16045.51, 0.00, 0.00, 0.00, 0.00
233, 32481.22, 37760.05, 5019.40, 25215.81, 6228.65, 35503.42, 15986.77, 0.00, 0.00, 0.00, 0.00
234, 32450.44, 37728.85, 4864.37, 25103.71, 6100.91, 36683.70, 15822.31, 0.00, 0.00, 0.00, 0.00
235, 32495.63, 37787.88, 4947.60, 25104.14, 6129.12, 36271.00, 15895.08, 0.00, 0.00, 0.00, 0.00
236, 32530.75, 37826.32, 5075.92, 25209.46, 6249.17, 35225.30, 16038.25, 0.00, 0.06, 0.95, 0.30
237, 32498.68, 37785.38, 5036.92, 25227.12, 6239.58, 35347.05, 16006.49, 0.00, 0.00, 0.00, 0.00
238, 32457.44, 37743.04, 4887.50, 25125.57, 6126.72, 36521.32, 15847.57, 0.00, 0.00, 0.00, 0.00
239, 32487.77, 37773.06, 4906.39, 25088.18, 6110.99, 36475.92, 15869.31, 0.00, 0.00, 0.00, 0.00
240, 32543.31, 37820.13, 5063.41, 25201.75, 6246.75, 35343.05, 16033.75, 0.00, 0.00, 0.00, 0.00
241, 32522.88, 37805.05, 5064.95, 25239.46, 6264.23, 35238.35, 16043.46, 0.00, 0.00, 0.00, 0.00
242, 32472.55, 37761.15, 4919.19, 25159.73, 6155.33, 36327.68, 15885.79, 0.00, 0.00, 0.00, 0.00
243, 32490.81, 37778.14, 4891.25, 25090.90, 6099.63, 36656.23, 15848.26, 0.00, 0.00, 0.00, 0.00
244, 32545.32, 37837.37, 5051.96, 25197.95, 6226.08, 35510.30, 16018.18, 0.00, 0.00, 0.00, 0.00
245, 32542.78, 37827.89, 5078.81, 25253.98, 6271.16, 35179.05, 16053.60, 0.00, 0.00, 0.00, 0.00
246, 32499.99, 37788.11, 4955.18, 25197.61, 6186.81, 36113.11, 15920.86, 0.00, 0.06, 0.95, 0.31
247, 32491.75, 37788.37, 4875.99, 25104.94, 6098.56, 36789.83, 15835.61, 0.00, 0.00, 0.00, 0.00
248, 32549.86, 37847.05, 5033.03, 25190.06, 6212.87, 35718.22, 15992.72, 0.00, 0.00, 0.00, 0.00
249, 32550.84, 37842.64, 5087.39, 25256.11, 6278.18, 35162.78, 16046.50, 0.00, 0.00, 0.00, 0.00
250, 32507.66, 37794.23, 4988.17, 25218.27, 6220.11, 35894.55, 15946.32, 0.00, 0.00, 0.00, 0.00
251, 32494.65, 37783.34, 4877.49, 25119.29, 6120.40, 36836.32, 15826.64, 0.00, 0.00, 0.00, 0.00
252, 32541.19, 37833.03, 5006.21, 25171.48, 6207.37, 35926.05, 15959.46, 0.00, 0.00, 0.00, 0.00
253, 32563.85, 37852.43, 5099.13, 25263.53, 6305.07, 35163.38, 16053.74, 0.00, 0.00, 0.00, 0.00
254, 32528.49, 37816.42, 5031.40, 25256.78, 6268.95, 35683.31, 15976.65, 0.00, 0.00, 0.00, 0.00
255, 32510.90, 37795.26, 4893.56, 25142.54, 6152.85, 36801.54, 15826.29, 0.00, 0.00, 0.00, 0.00
0, 32560.99, 37843.36, 4984.51, 25151.19, 6210.19, 36147.04, 15930.71, 0.00, 0.06, 0.95, 0.31
1, 32578.07, 37848.30, 5100.40, 25250.00, 6327.09, 35205.85, 16058.68, 0.00, 0.00, 0.00, 0.00
2, 32548.59, 37812.04, 5061.73, 25247.70, 6309.18, 35495.20, 16012.43, 0.00, 0.00, 0.00, 0.00
3, 32502.16, 37775.70, 4897.69, 25125.30, 6180.97, 36677.80, 15833.28, 0.00, 0.00, 0.00, 0.00
4, 32536.61, 37814.08, 4956.68, 25121.82, 6194.32, 36355.80, 15884.38, 0.00, 0.00, 0.00, 0.00
5, 32582.16, 37851.88, 5106.79, 25234.38, 6329.92, 35286.43, 16041.02, 0.00, 0.00, 0.00, 0.00
6, 32562.82, 37822.82, 5093.09, 25250.09, 6332.85, 35347.36, 16024.32, 0.00, 0.00, 0.00, 0.00
7, 32518.86, 37795.59, 4944.74, 25164.29, 6221.38, 36504.29, 15869.63, 0.00, 0.00, 0.00, 0.00
8, 32540.88, 37813.81, 4938.80, 25133.37, 6182.13, 36555.79, 15867.30, 0.00, 0.00, 0.00, 0.00
9, 32601.40, 37873.51, 5105.97, 25225.66, 6318.77, 35412.27, 16034.60, 0.00, 0.00, 0.00, 0.00
10, 32584.28, 37847.11, 5115.62, 25253.29, 6342.53, 35249.84, 16043.66, 0.00, 0.06, 0.94, 0.31
11, 32537.59, 37795.43, 4977.00, 25188.45, 6245.28, 36301.15, 15905.46, 0.00, 0.00, 0.00, 0.00
12, 32535.29, 37800.22, 4918.61, 25109.75, 6164.28, 36718.75, 15841.49, 0.00, 0.00, 0.00, 0.00
13, 32599.91, 37866.20, 5083.73, 25225.02, 6293.25, 35587.69, 16013.08, 0.00, 0.00, 0.00, 0.00
14, 32614.23, 37870.07, 5134.96, 25281.30, 6353.91, 35201.94, 16069.43, 0.00, 0.00, 0.00, 0.00
15, 32566.18, 37831.06, 5020.13, 25226.98, 6273.33, 36092.79, 15945.51, 0.00, 0.00, 0.00, 0.00
16, 32554.22, 37828.67, 4912.09, 25125.68, 6168.17, 36838.63, 15845.26, 0.00, 0.00, 0.00, 0.00
17, 32601.31, 37880.42, 5063.85, 25203.89, 6272.66, 35802.29, 15999.42, 0.00, 0.00, 0.00, 0.00
18, 32617.97, 37889.20, 5142.11, 25291.13, 6354.73, 35194.81, 16081.83, 0.00, 0.00, 0.00, 0.00
19, 32570.96, 37836.61, 5029.57, 25250.68, 6288.17, 35877.03, 15983.62, 0.00, 0.00, 0.00, 0.00
20, 32540.09, 37810.37, 4906.27, 25133.93, 6172.46, 36870.45, 15848.15, 0.00, 0.06, 0.94, 0.30
21, 32579.34, 37851.36, 5026.55, 25177.32, 6245.01, 36025.22, 15971.48, 0.00, 0.00, 0.00, 0.00
22, 32604.67, 37871.23, 5128.94, 25274.30, 6352.03, 35215.69, 16083.44, 0.00, 0.00, 0.00, 0.00
23, 32573.42, 37838.21, 5058.49, 25262.81, 6317.18, 35671.91, 16018.67, 0.00, 0.00, 0.00, 0.00
24, 32531.02, 37802.48, 4904.84, 25140.95, 6179.12, 36818.53, 15849.60, 0.00, 0.00, 0.00, 0.00
25, 32571.43, 37840.07, 4995.23, 25155.68, 6218.21, 36250.68, 15938.72, 0.00, 0.00, 0.00, 0.00
26, 32604.13, 37868.41, 5125.86, 25260.26, 6336.29, 35273.93, 16069.54, 0.00, 0.00, 0.00, 0.00
27, 32582.61, 37846.06, 5087.61, 25269.85, 6326.28, 35506.59, 16038.74, 0.00, 0.00, 0.00, 0.00
28, 32546.35, 37817.21, 4936.09, 25163.82, 6209.11, 36700.47, 15884.07, 0.00, 0.00, 0.00, 0.00
29, 32571.77, 37841.59, 4969.17, 25127.29, 6198.85, 36474.67, 15909.37, 0.00, 0.06, 0.94, 0.31
30, 32620.04, 37881.09, 5120.47, 25238.61, 6325.01, 35372.80, 16058.95, 0.00, 0.00, 0.00, 0.00
31, 32595.53, 37866.74, 5115.00, 25275.51, 6340.56, 35376.60, 16062.48, 0.00, 0.00, 0.00, 0.00
32, 32545.30, 37823.82, 4953.26, 25185.81, 6225.01, 36518.93, 15900.43, 0.00, 0.00, 0.00, 0.00
33, 32575.59, 37835.98, 4957.17, 25118.33, 6192.22, 36663.99, 15892.07, 0.00, 0.00, 0.00, 0.00
34, 32630.39, 37886.96, 5122.53, 25235.16, 6326.59, 35520.30, 16061.07, 0.00, 0.00, 0.00, 0.00
35, 32614.14, 37867.07, 5133.26, 25277.23, 6351.65, 35300.60, 16080.13, 0.00, 0.00, 0.00, 0.00
36, 32572.21, 37826.82, 5001.27, 25213.19, 6257.53, 36311.61, 15942.56, 0.00, 0.00, 0.00, 0.00
37, 32563.99, 37829.16, 4942.82, 25129.78, 6175.52, 36819.65, 15870.39, 0.00, 0.00, 0.00, 0.00
38, 32606.79, 37876.39, 5101.85, 25229.26, 6295.32, 35700.65, 16034.74, 0.00, 0.00, 0.00, 0.00
39, 32610.37, 37872.08, 5152.99, 25284.09, 6355.52, 35250.40, 16093.28, 0.00, 0.06, 0.94, 0.31
40, 32566.24, 37828.40, 5024.65, 25224.08, 6268.61, 36079.34, 15963.28, 0.00, 0.00, 0.00, 0.00
41, 32561.82, 37827.06, 4928.76, 25126.73, 6167.40, 36895.53, 15856.17, 0.00, 0.00, 0.00, 0.00
42, 32616.38, 37892.31, 5078.90, 25204.56, 6274.47, 35895.96, 16012.83, 0.00, 0.00, 0.00, 0.00
43, 32624.92, 37895.73, 5153.93, 25282.68, 6352.54, 35236.21, 16097.26, 0.00, 0.00, 0.00, 0.00
44, 32586.52, 37839.51, 5054.09, 25251.08, 6293.27, 35862.21, 16001.39, 0.00, 0.00, 0.00, 0.00
45, 32569.57, 37818.50, 4919.44, 25139.77, 6172.12, 36906.95, 15858.41, 0.00, 0.00, 0.00, 0.00
46, 32608.53, 37867.18, 5033.84, 25174.25, 6235.26, 36125.63, 15974.28, 0.00, 0.00, 0.00, 0.00
47, 32633.12, 37888.20, 5151.83, 25279.24, 6350.89, 35271.59, 16101.64, 0.00, 0.00, 0.00, 0.00
48, 32590.50, 37846.06, 5080.01, 25269.45, 6313.61, 35676.58, 16042.96, 0.00, 0.00, 0.00, 0.00
49, 32562.33, 37822.66, 4926.12, 25170.25, 6191.41, 36847.18, 15887.24, 0.00, 0.06, 0.95, 0.31
50, 32601.49, 37864.59, 4998.59, 25169.43, 6215.35, 36362.06, 15958.83, 0.00, 0.00, 0.00, 0.00
51, 32639.45, 37902.88, 5137.15, 25272.20, 6339.16, 35352.66, 16102.02, 0.00, 0.00, 0.00, 0.00
52, 32618.35, 37871.21, 5109.74, 25283.73, 6334.15, 35531.98, 16083.96, 0.00, 0.00, 0.00, 0.00
53, 32574.29, 37834.84, 4960.77, 25188.47, 6216.91, 36724.72, 15926.49, 0.00, 0.00, 0.00, 0.00
54, 32595.19, 37859.79, 4980.50, 25162.14, 6197.11, 36586.59, 15941.96, 0.00, 0.00, 0.00, 0.00
55, 32640.56, 37892.87, 5121.92, 25250.81, 6312.56, 35456.70, 16076.60, 0.00, 0.00, 0.00, 0.00
56, 32623.78, 37876.01, 5118.95, 25295.31, 6330.91, 35407.35, 16075.11, 0.00, 0.00, 0.00, 0.00
57, 32572.84, 37846.33, 4984.64, 25219.54, 6241.57, 36535.27, 15939.79, 0.00, 0.00, 0.00, 0.00
58, 32596.11, 37873.80, 4979.68, 25136.82, 6196.19, 36774.07, 15913.35, 0.00, 0.00, 0.00, 0.00
59, 32646.24, 37918.10, 5127.87, 25241.87, 6317.39, 35620.25, 16064.04, 0.00, 0.06, 0.95, 0.31
60, 32653.51, 37914.32, 5145.51, 25302.55, 6362.29, 35336.00, 16111.85, 0.00, 0.00, 0.00, 0.00
61, 32613.18, 37874.74, 5019.84, 25234.72, 6269.42, 36302.34, 15977.88, 0.00, 0.00, 0.00, 0.00
62, 32603.06, 37868.75, 4942.28, 25136.41, 6178.51, 36896.31, 15888.71, 0.00, 0.00, 0.00, 0.00
63, 32654.76, 37920.70, 5096.76, 25221.69, 6293.94, 35793.19, 16048.51, 0.00, 0.00, 0.00, 0.00
64, 32671.23, 37927.76, 5166.34, 25297.57, 6368.97, 35284.02, 16115.56, 0.00, 0.00, 0.00, 0.00
65, 32636.65, 37893.00, 5055.76, 25259.17, 6306.08, 36064.56, 16010.62, 0.00, 0.00, 0.00, 0.00
66, 32611.60, 37877.29, 4935.11, 25144.01, 6188.88, 36944.28, 15882.61, 0.00, 0.00, 0.00, 0.00
67, 32656.95, 37931.33, 5067.63, 25204.59, 6279.25, 35991.54, 16024.01, 0.00, 0.00, 0.00, 0.00
68, 32665.46, 37928.52, 5142.20, 25278.91, 6361.42, 35277.58, 16107.99, 0.00, 0.00, 0.00, 0.00
69, 32632.07, 37901.45, 5068.17, 25262.97, 6321.63, 35842.12, 16034.16, 0.00, 0.06, 0.96, 0.30
70, 32603.33, 37874.63, 4932.16, 25154.74, 6200.64, 36930.04, 15883.35, 0.00, 0.00, 0.00, 0.00
71, 32649.08, 37914.57, 5040.72, 25184.04, 6256.88, 36217.76, 15989.57, 0.00, 0.00, 0.00, 0.00
72, 32686.32, 37939.61, 5160.50, 25280.45, 6366.92, 35322.50, 16115.79, 0.00, 0.00, 0.00, 0.00
73, 32664.77, 37910.77, 5109.74, 25291.40, 6351.27, 35673.85, 16077.65, 0.00, 0.00, 0.00, 0.00
74, 32628.43, 37881.94, 4944.90, 25188.38, 6223.53, 36858.41, 15907.58, 0.00, 0.00, 0.00, 0.00
75, 32655.36, 37916.20, 5008.29, 25154.41, 6237.95, 36456.12, 15973.85, 0.00, 0.00, 0.00, 0.00
76, 32689.51, 37943.74, 5153.10, 25261.52, 6363.34, 35404.22, 16120.30, 0.00, 0.00, 0.00, 0.00
77, 32674.31, 37920.70, 5133.79, 25282.35, 6366.13, 35514.37, 16094.40, 0.00, 0.00, 0.00, 0.00
78, 32640.56, 37880.75, 4985.87, 25187.69, 6253.01, 36688.18, 15930.47, 0.00, 0.05, 0.95, 0.30
79, 32660.72, 37910.66, 4992.69, 25151.48, 6226.17, 36652.12, 15946.02, 0.00, 0.00, 0.00, 0.00
80, 32716.47, 37970.54, 5156.41, 25270.68, 6365.98, 35521.26, 16113.80, 0.00, 0.00, 0.00, 0.00
81, 32701.74, 37946.67, 5141.68, 25293.95, 6376.08, 35410.75, 16113.62, 0.00, 0.00, 0.00, 0.00
82, 32652.84, 37909.25, 4999.33, 25217.35, 6269.37, 36492.82, 15961.25, 0.00, 0.00, 0.00, 0.00
83, 32651.63, 37907.64, 4964.17, 25147.34, 6208.38, 36828.34, 15918.08, 0.00, 0.00, 0.00, 0.00
84, 32707.15, 37960.04, 5126.06, 25249.27, 6338.55, 35680.07, 16085.01, 0.00, 0.00, 0.00, 0.00
85, 32715.15, 37954.45, 5159.25, 25300.47, 6383.01, 35340.10, 16119.63, 0.00, 0.00, 0.00, 0.00
86, 32675.59, 37914.95, 5035.83, 25242.20, 6295.55, 36270.75, 15990.91, 0.00, 0.00, 0.00, 0.00
87, 32658.20, 37910.59, 4950.26, 25139.27, 6198.61, 36945.29, 15894.91, 0.00, 0.00, 0.00, 0.00
88, 32724.25, 37979.73, 5115.11, 25231.86, 6322.21, 35870.75, 16061.47, 0.00, 0.05, 0.95, 0.30
89, 32741.08, 37977.22, 5181.54, 25300.30, 6395.06, 35306.30, 16137.36, 0.00, 0.00, 0.00, 0.00
90, 32696.73, 37931.89, 5076.35, 25257.22, 6323.26, 36036.82, 16029.87, 0.00, 0.00, 0.00, 0.00
91, 32670.05, 37909.14, 4949.48, 25148.62, 6203.23, 36981.74, 15897.07, 0.00, 0.00, 0.00, 0.00
92, 32710.95, 37959.59, 5072.30, 25205.32, 6283.50, 36081.79, 16028.86, 0.00, 0.00, 0.00, 0.00
93, 32730.28, 37975.14, 5168.46, 25296.65, 6380.95, 35318.50, 16126.98, 0.00, 0.00, 0.00, 0.00
94, 32690.12, 37936.81, 5097.94, 25281.37, 6339.83, 35828.21, 16051.86, 0.00, 0.00, 0.00, 0.00
95, 32658.40, 37912.22, 4952.54, 25155.12, 6209.36, 36949.60, 15891.17, 0.00, 0.00, 0.00, 0.00
96, 32714.55, 37968.59, 5069.26, 25188.69, 6272.59, 36308.38, 16003.76, 0.00, 0.00, 0.00, 0.00
97, 32759.21, 38004.91, 5212.00, 25302.98, 6403.53, 35365.53, 16142.18, 0.00, 0.00, 0.00, 0.00
98, 32736.83, 37976.28, 5141.86, 25312.30, 6377.51, 35655.79, 16098.02, 0.00, 0.06, 0.94, 0.31
99, 32690.59, 37938.31, 4974.56, 25191.38, 6247.38, 36846.11, 15931.94, 0.00, 0.00, 0.00, 0.00
100, 32716.43, 37969.18, 5034.35, 25168.76, 6251.38, 36533.05, 15979.53, 0.00, 0.00, 0.00, 0.00
101, 32761.78, 38000.64, 5169.20, 25276.27, 6372.95, 35461.69, 16124.97, 0.00, 0.00, 0.00, 0.00
102, 32743.14, 37973.78, 5150.65, 25304.32, 6378.47, 35523.85, 16113.44, 0.00, 0.00, 0.00, 0.00
103, 32692.87, 37930.82, 4999.10, 25212.61, 6263.88, 36687.28, 15949.62, 0.00, 0.00, 0.00, 0.00
104, 32718.01, 37964.86, 5004.96, 25168.80, 6235.09, 36744.77, 15952.39, 0.00, 0.00, 0.00, 0.00
105, 32780.20, 38023.56, 5169.42, 25283.60, 6372.06, 35600.43, 16126.54, 0.00, 0.00, 0.00, 0.00
106, 32766.83, 38004.98, 5176.84, 25321.75, 6398.32, 35431.92, 16142.70, 0.00, 0.00, 0.00, 0.00
107, 32708.04, 37957.55, 5027.33, 25241.82, 6289.22, 36484.10, 15985.56, 0.00, 0.00, 0.00, 0.00
108, 32714.06, 37966.47, 4987.77, 25166.99, 6228.83, 36910.46, 15938.56, 0.00, 0.06, 0.94, 0.31
109, 32762.43, 38010.37, 5141.79, 25260.96, 6351.47, 35772.98, 16097.08, 0.00, 0.00, 0.00, 0.00
110, 32767.97, 38004.20, 5178.94, 25320.68, 6404.36, 35378.23, 16148.40, 0.00, 0.00, 0.00, 0.00
111, 32721.34, 37960.05, 5060.46, 25272.40, 6324.58, 36260.23, 16032.64, 0.00, 0.00, 0.00, 0.00
112, 32710.59, 37951.65, 4973.69, 25178.03, 6229.48, 37014.13, 15931.38, 0.00, 0.00, 0.00, 0.00
113, 32752.44, 38001.94, 5126.89, 25243.70, 6331.53, 35972.20, 16076.25, 0.00, 0.00, 0.00, 0.00
114, 32775.52, 38005.43, 5202.35, 25324.64, 6411.96, 35357.87, 16154.77, 0.00, 0.00, 0.00, 0.00
115, 32725.17, 37970.27, 5095.77, 25290.66, 6346.11, 36036.80, 16055.44, 0.00, 0.00, 0.00, 0.00
116, 32700.18, 37958.00, 4967.41, 25187.93, 6228.04, 37039.95, 15916.16, 0.00, 0.00, 0.00, 0.00
117, 32740.72, 38001.56, 5084.98, 25226.27, 6296.17, 36201.87, 16044.06, 0.00, 0.06, 0.94, 0.31
118, 32763.88, 38015.71, 5191.26, 25313.66, 6392.78, 35388.58, 16145.40, 0.00, 0.00, 0.00, 0.00
119, 32744.05, 37986.86, 5137.19, 25308.39, 6367.32, 35840.84, 16077.65, 0.00, 0.00, 0.00, 0.00
120, 32708.65, 37947.65, 4981.31, 25220.99, 6242.02, 36992.63, 15918.35, 0.00, 0.00, 0.00, 0.00
121, 32765.67, 38009.32, 5080.01, 25232.57, 6292.89, 36431.13, 16017.06, 0.00, 0.00, 0.00, 0.00
122, 32802.01, 38036.25, 5201.07, 25296.12, 6412.07, 35444.12, 16156.31, 0.00, 0.00, 0.00, 0.00
123, 32773.04, 38005.86, 5163.54, 25307.54, 6398.59, 35670.45, 16119.29, 0.00, 0.00, 0.00, 0.00
124, 32720.85, 37957.78, 5007.42, 25204.68, 6268.28, 36863.90, 15940.66, 0.00, 0.00, 0.00, 0.00
125, 32746.73, 37987.21, 5049.30, 25181.79, 6266.13, 36645.59, 15977.74, 0.00, 0.00, 0.00, 0.00
126, 32794.88, 38035.79, 5205.34, 25297.12, 6406.19, 35543.25, 16146.54, 0.00, 0.00, 0.00, 0.00
127, 32773.42, 38018.06, 5174.41, 25322.58, 6411.33, 35542.22, 16138.79, 0.00, 0.06, 0.93, 0.31
128, 32725.12, 37970.98, 5019.37, 25229.51, 6295.91, 36685.92, 15973.05, 0.00, 0.00, 0.00, 0.00
129, 32744.84, 37986.97, 5022.79, 25184.43, 6262.58, 36841.89, 15965.27, 0.00, 0.00, 0.00, 0.00
130, 32790.43, 38026.84, 5183.62, 25280.69, 6387.10, 35692.05, 16126.72, 0.00, 0.00, 0.00, 0.00
131, 32794.41, 38025.10, 5194.70, 25328.57, 6426.48, 35464.64, 16157.72, 0.00, 0.00, 0.00, 0.00
132, 32746.06, 37981.94, 5055.43, 25258.83, 6327.18, 36478.70, 16012.61, 0.00, 0.00, 0.00, 0.00
133, 32736.27, 37982.74, 5003.17, 25176.27, 6250.73, 36992.88, 15945.51, 0.00, 0.00, 0.00, 0.00
134, 32804.00, 38038.40, 5161.76, 25271.55, 6369.11, 35870.30, 16102.71, 0.00, 0.00, 0.00, 0.00
135, 32814.44, 38042.42, 5214.75, 25344.22, 6437.64, 35417.90, 16167.69, 0.00, 0.00, 0.00, 0.00
136, 32763.95, 37999.13, 5100.44, 25298.02, 6366.11, 36254.33, 16058.90, 0.00, 0.00, 0.00, 0.00
137, 32751.88, 37990.34, 5007.08, 25200.38, 6264.66, 37079.98, 15943.92, 0.00, 0.06, 0.94, 0.30
138, 32808.18, 38051.43, 5152.35, 25266.54, 6360.32, 36081.14, 16089.43, 0.00, 0.00, 0.00, 0.00
139, 32827.43, 38068.17, 5216.52, 25346.45, 6438.15, 35413.52, 16174.97, 0.00, 0.00, 0.00, 0.00
140, 32783.10, 38021.03, 5122.64, 25315.94, 6378.61, 36032.64, 16078.08, 0.00, 0.00, 0.00, 0.00
141, 32755.01, 37984.51, 4993.92, 25211.27, 6257.57, 37082.28, 15928.95, 0.00, 0.00, 0.00, 0.00
142, 32806.53, 38035.29, 5113.65, 25241.33, 6327.62, 36302.68, 16057.25, 0.00, 0.00, 0.00, 0.00
143, 32836.25, 38063.81, 5216.54, 25322.74, 6432.03, 35436.59, 16164.40, 0.00, 0.00, 0.00, 0.00
144, 32796.07, 38020.56, 5147.83, 25313.15, 6395.57, 35832.01, 16101.84, 0.00, 0.00, 0.00, 0.00
145, 32759.16, 37981.04, 4999.44, 25198.86, 6269.02, 37001.37, 15936.57, 0.00, 0.00, 0.00, 0.00
146, 32805.50, 38038.55, 5086.88, 25214.87, 6303.71, 36516.36, 16013.71, 0.00, 0.00, 0.00, 0.00
147, 32848.41, 38082.25, 5233.26, 25325.33, 6430.35, 35498.32, 16157.83, 0.00, 0.06, 0.94, 0.30
148, 32821.55, 38057.58, 5196.91, 25337.00, 6422.84, 35666.21, 16125.78, 0.00, 0.00, 0.00, 0.00
149, 32777.20, 38015.13, 5024.92, 25221.28, 6292.62, 36847.70, 15946.25, 0.00, 0.00, 0.00, 0.00
150, 32815.11, 38042.36, 5059.18, 25195.04, 6286.27, 36721.90, 15979.98, 0.00, 0.00, 0.00, 0.00
151, 32860.82, 38086.90, 5205.52, 25306.02, 6411.84, 35602.50, 16140.93, 0.00, 0.00, 0.00, 0.00
152, 32832.43, 38066.00, 5191.64, 25326.67, 6417.61, 35545.73, 16134.72, 0.00, 0.00, 0.00, 0.00
153, 32792.22, 38023.02, 5050.26, 25246.32, 6312.67, 36656.26, 15982.32, 0.00, 0.00, 0.00, 0.00
154, 32806.37, 38034.82, 5031.38, 25188.54, 6263.38, 36902.24, 15956.80, 0.00, 0.00, 0.00, 0.00
155, 32855.21, 38085.54, 5192.42, 25295.56, 6394.19, 35747.66, 16131.23, 0.00, 0.00, 0.00, 0.00
156, 32846.96, 38067.79, 5205.36, 25334.61, 6425.32, 35468.84, 16155.19, 0.00, 0.00, 0.00, 0.00
157, 32809.66, 38034.42, 5087.28, 25275.78, 6342.33, 36442.15, 16026.18, 0.00, 0.06, 0.95, 0.29
158, 32810.48, 38028.95, 5023.73, 25187.67, 6256.23, 37043.41, 15944.13, 0.00, 0.00, 0.00, 0.00
159, 32855.36, 38076.17, 5161.08, 25272.31, 6362.16, 35945.87, 16097.41, 0.00, 0.00, 0.00, 0.00
160, 32857.76, 38081.29, 5216.65, 25353.34, 6427.42, 35437.97, 16163.04, 0.00, 0.00, 0.00, 0.00
161, 32818.24, 38048.23, 5123.94, 25326.56, 6367.86, 36213.25, 16058.70, 0.00, 0.00, 0.00, 0.00
162, 32798.84, 38031.04, 5018.28, 25193.34, 6260.19, 37107.63, 15934.71, 0.00, 0.00, 0.00, 0.00
163, 32848.77, 38078.45, 5143.27, 25232.06, 6342.31, 36152.27, 16067.95, 0.00, 0.00, 0.00, 0.00
164, 32866.63, 38082.34, 5235.69, 25317.71, 6428.21, 35424.90, 16160.33, 0.00, 0.00, 0.00, 0.00
165, 32830.89, 38051.68, 5147.36, 25305.93, 6382.50, 35988.79, 16084.65, 0.00, 0.00, 0.00, 0.00
166, 32801.83, 38015.46, 5004.62, 25195.24, 6259.94, 37086.59, 15937.13, 0.00, 0.06, 0.95, 0.30
167, 32845.57, 38062.47, 5119.22, 25220.66, 6323.26, 36381.44, 16054.48, 0.00, 0.00, 0.00, 0.00
168, 32868.93, 38089.67, 5232.65, 25316.55, 6430.19, 35474.18, 16171.38, 0.00, 0.00, 0.00, 0.00
169, 32838.94, 38057.69, 5175.32, 25314.40, 6401.45, 35808.70, 16120.77, 0.00, 0.00, 0.00, 0.00
170, 32797.63, 38024.92, 5018.35, 25208.83, 6271.94, 37000.29, 15949.62, 0.00, 0.00, 0.00, 0.00
171, 32838.82, 38068.80, 5084.55, 25211.07, 6294.77, 36614.26, 16017.66, 0.00, 0.00, 0.00, 0.00
172, 32892.22, 38115.07, 5233.28, 25325.98, 6426.10, 35568.22, 16170.95, 0.00, 0.00, 0.00, 0.00
173, 32865.42, 38090.25, 5213.34, 25346.61, 6421.79, 35686.84, 16139.52, 0.00, 0.00, 0.00, 0.00
174, 32834.67, 38057.51, 5065.08, 25258.45, 6308.85, 36861.64, 15975.77, 0.00, 0.00, 0.00, 0.00
175, 32850.92, 38086.16, 5065.98, 25214.58, 6276.24, 36826.96, 15979.46, 0.00, 0.00, 0.00, 0.00
176, 32897.36, 38120.30, 5224.63, 25318.33, 6408.74, 35682.57, 16137.00, 0.00, 0.06, 0.95, 0.30
177, 32881.67, 38097.18, 5228.27, 25349.87, 6429.46, 35561.63, 16142.32, 0.00, 0.00, 0.00, 0.00
178, 32835.34, 38049.95, 5083.73, 25266.75, 6323.40, 36643.52, 15987.11, 0.00, 0.00, 0.00, 0.00
179, 32848.01, 38057.66, 5044.01, 25202.40, 6265.66, 36983.38, 15950.34, 0.00, 0.00, 0.00, 0.00
180, 32893.14, 38105.59, 5194.79, 25307.45, 6387.17, 35836.08, 16115.25, 0.00, 0.00, 0.00, 0.00
181, 32881.79, 38094.81, 5235.09, 25345.13, 6436.59, 35491.66, 16161.34, 0.00, 0.00, 0.00, 0.00
182, 32831.54, 38052.41, 5118.48, 25278.08, 6357.24, 36416.89, 16038.87, 0.00, 0.00, 0.00, 0.00
183, 32824.50, 38047.25, 5025.63, 25177.36, 6259.92, 37093.19, 15941.08, 0.00, 0.00, 0.00, 0.00
184, 32870.05, 38091.42, 5164.06, 25254.21, 6361.55, 36026.38, 16092.00, 0.00, 0.00, 0.00, 0.00
185, 32886.34, 38098.75, 5240.01, 25339.01, 6449.01, 35463.30, 16180.07, 0.00, 0.00, 0.00, 0.00
186, 32849.22, 38065.38, 5143.25, 25300.90, 6387.86, 36192.70, 16082.01, 0.00, 0.07, 0.94, 0.31
187, 32815.85, 38047.38, 5010.05, 25183.24, 6263.43, 37141.36, 15938.94, 0.00, 0.00, 0.00, 0.00
188, 32866.79, 38102.41, 5152.97, 25251.08, 6357.82, 36244.09, 16085.01, 0.00, 0.00, 0.00, 0.00
189, 32892.69, 38115.87, 5233.71, 25341.29, 6453.53, 35475.59, 16184.85, 0.00, 0.00, 0.00, 0.00
190, 32858.52, 38076.39, 5152.08, 25316.35, 6407.51, 35981.03, 16105.46, 0.00, 0.00, 0.00, 0.00
191, 32827.76, 38046.16, 5013.70, 25203.67, 6285.06, 37102.75, 15947.75, 0.00, 0.00, 0.00, 0.00
192, 32857.89, 38089.81, 5110.37, 25222.58, 6332.16, 36468.97, 16050.14, 0.00, 0.00, 0.00, 0.00
193, 32894.37, 38118.08, 5231.65, 25315.88, 6446.11, 35525.32, 16183.29, 0.00, 0.00, 0.00, 0.00
194, 32875.68, 38096.89, 5197.76, 25309.10, 6431.83, 35805.79, 16138.88, 0.00, 0.00, 0.00, 0.00
195, 32844.88, 38066.20, 5043.09, 25220.68, 6312.69, 36995.36, 15970.21, 0.00, 0.00, 0.00, 0.00
196, 32880.96, 38084.98, 5079.93, 25207.65, 6310.99, 36685.25, 16014.13, 0.00, 0.06, 0.93, 0.31
197, 32908.45, 38123.07, 5223.45, 25287.60, 6432.94, 35601.84, 16161.27, 0.00, 0.00, 0.00, 0.00
198, 32885.23, 38100.54, 5214.73, 25315.25, 6439.96, 35656.64, 16145.58, 0.00, 0.00, 0.00, 0.00
199, 32842.09, 38060.41, 5056.55, 25236.88, 6322.57, 36822.22, 15983.49, 0.00, 0.00, 0.00, 0.00
200, 32861.60, 38087.06, 5052.61, 25208.61, 6289.18, 36892.96, 15987.24, 0.00, 0.00, 0.00, 0.00
201, 32900.36, 38134.60, 5213.16, 25295.38, 6425.12, 35748.95, 16163.24, 0.00, 0.00, 0.00, 0.00
202, 32885.88, 38115.07, 5223.74, 25333.89, 6453.15, 35576.58, 16182.64, 0.00, 0.00, 0.00, 0.00
203, 32842.49, 38064.98, 5083.08, 25264.47, 6353.24, 36626.89, 16029.82, 0.00, 0.00, 0.00, 0.00
204, 32853.53, 38082.99, 5043.36, 25188.11, 6292.98, 37058.21, 15981.70, 0.00, 0.00, 0.00, 0.00
205, 32910.57, 38146.58, 5203.13, 25287.11, 6418.17, 35924.80, 16148.22, 0.00, 0.00, 0.00, 0.00
206, 32913.90, 38143.79, 5240.12, 25352.69, 6473.29, 35523.18, 16196.90, 0.00, 0.06, 0.94, 0.30
207, 32860.64, 38089.34, 5113.32, 25286.77, 6386.76, 36402.54, 16069.85, 0.00, 0.00, 0.00, 0.00
208, 32855.03, 38076.62, 5024.29, 25185.01, 6285.80, 37161.96, 15969.05, 0.00, 0.00, 0.00, 0.00
209, 32919.67, 38137.19, 5189.31, 25270.35, 6394.63, 36130.36, 16123.90, 0.00, 0.00, 0.00, 0.00
210, 32936.25, 38154.79, 5258.56, 25357.18, 6475.32, 35514.30, 16203.67, 0.00, 0.00, 0.00, 0.00
211, 32878.03, 38105.72, 5143.16, 25320.90, 6409.14, 36187.23, 16103.29, 0.00, 0.00, 0.00, 0.00
232, 32889.77, 38118.35, 5130.35, 25317.69, 6444.50, 36390.63, 16061.09, 0.00, 0.00, 0.00, 0.00
233, 32874.81, 38109.84, 5026.88, 25228.79, 6338.42, 37219.59, 15951.34, 0.00, 0.00, 0.00, 0.00
234, 32928.59, 38179.75, 5183.84, 25315.38, 6449.28, 36229.92, 16111.83, 0.00, 0.00, 0.00, 0.00
235, 32944.66, 38190.14, 5250.85, 25362.12, 6532.70, 35557.18, 16196.36, 0.00, 0.06, 0.94, 0.31
236, 32909.10, 38143.54, 5158.83, 25333.11, 6471.08, 36170.02, 16103.96, 0.00, 0.00, 0.00, 0.00
237, 32884.73, 38107.00, 5035.02, 25227.29, 6350.04, 37221.82, 15959.26, 0.00, 0.00, 0.00, 0.00
238, 32921.59, 38156.62, 5149.24, 25271.28, 6419.60, 36441.93, 16081.72, 0.00, 0.00, 0.00, 0.00
239, 32945.42, 38180.80, 5260.48, 25363.44, 6520.94, 35576.49, 16191.22, 0.00, 0.00, 0.00, 0.00
240, 32904.09, 38140.52, 5192.18, 25350.43, 6481.85, 35965.36, 16128.04, 0.00, 0.00, 0.00, 0.00
241, 32868.29, 38110.50, 5033.64, 25254.41, 6352.52, 37129.84, 15962.07, 0.00, 0.00, 0.00, 0.00
242, 32917.14, 38151.36, 5113.97, 25245.49, 6384.13, 36655.36, 16039.12, 0.00, 0.00, 0.00, 0.00
243, 32956.66, 38180.51, 5251.30, 25348.31, 6504.11, 35642.02, 16177.19, 0.00, 0.00, 0.00, 0.00
244, 32915.45, 38146.87, 5206.26, 25349.96, 6484.08, 35805.62, 16142.27, 0.00, 0.00, 0.00, 0.00
245, 32873.96, 38115.82, 5056.50, 25252.40, 6366.92, 36986.84, 15978.30, 0.00, 0.06, 0.94, 0.31
246, 32908.20, 38148.88, 5087.28, 25224.88, 6358.91, 36864.51, 16006.11, 0.00, 0.00, 0.00, 0.00
247, 32955.03, 38188.00, 5244.90, 25338.18, 6492.27, 35750.59, 16170.79, 0.00, 0.00, 0.00, 0.00
248, 32942.83, 38173.38, 5251.39, 25375.44, 6516.11, 35692.20, 16178.30, 0.00, 0.00, 0.00, 0.00
249, 32889.72, 38127.76, 5085.94, 25281.03, 6397.81, 36803.71, 16013.97, 0.00, 0.00, 0.00, 0.00
250, 32898.66, 38138.76, 5056.93, 25213.35, 6341.70, 37053.63, 15980.22, 0.00, 0.00, 0.00, 0.00
251, 32954.43, 38195.75, 5215.96, 25323.21, 6470.32, 35905.46, 16148.40, 0.00, 0.00, 0.00, 0.00
252, 32955.81, 38194.19, 5241.51, 25378.33, 6509.86, 35614.04, 16183.27, 0.00, 0.00, 0.00, 0.00
253, 32905.19, 38143.79, 5119.06, 25311.25, 6421.77, 36580.37, 16049.16, 0.00, 0.00, 0.00, 0.00
254, 32897.30, 38127.18, 5047.38, 25216.37, 6336.25, 37184.27, 15962.41, 0.00, 0.06, 0.94, 0.30
255, 32947.21, 38180.04, 5193.58, 25302.42, 6447.38, 36089.04, 16121.80, 0.00, 0.00, 0.00, 0.00
0, 32957.11, 38192.60, 5260.15, 25377.57, 6519.53, 35573.83, 16190.42, 0.00, 0.00, 0.00, 0.00
1, 32896.71, 38138.31, 5148.03, 25319.90, 6437.97, 36347.15, 16074.90, 0.00, 0.00, 0.00, 0.00
2, 32883.01, 38121.88, 5035.85, 25213.91, 6330.08, 37240.31, 15956.11, 0.00, 0.00, 0.00, 0.00
3, 32937.37, 38169.94, 5174.85, 25272.20, 6417.97, 36297.29, 16093.66, 0.00, 0.00, 0.00, 0.00
4, 32965.87, 38192.18, 5259.32, 25371.75, 6511.49, 35574.66, 16191.98, 0.00, 0.00, 0.00, 0.00
5, 32937.20, 38173.56, 5182.83, 25360.65, 6466.61, 36134.14, 16111.16, 0.00, 0.00, 0.00, 0.00
6, 32907.94, 38149.13, 5052.28, 25228.66, 6344.03, 37224.32, 15952.01, 0.00, 0.00, 0.00, 0.00
7, 32952.75, 38189.65, 5160.64, 25266.21, 6407.08, 36519.11, 16067.17, 0.00, 0.00, 0.00, 0.00
8, 32979.02, 38210.62, 5270.50, 25369.14, 6513.48, 35617.86, 16193.30, 0.00, 0.06, 0.94, 0.30
9, 32955.23, 38176.49, 5224.12, 25372.72, 6492.27, 35951.62, 16150.48, 0.00, 0.00, 0.00, 0.00
10, 32913.03, 38135.00, 5074.92, 25266.46, 6369.93, 37138.56, 15989.12, 0.00, 0.00, 0.00, 0.00
11, 32956.21, 38181.54, 5131.71, 25260.22, 6382.83, 36754.11, 16053.27, 0.00, 0.00, 0.00, 0.00
12, 32994.37, 38212.18, 5254.92, 25356.35, 6494.08, 35712.61, 16188.88, 0.00, 0.00, 0.00, 0.00
13, 32965.49, 38189.88, 5236.41, 25371.22, 6494.70, 35820.93, 16172.58, 0.00, 0.00, 0.00, 0.00
14, 32919.67, 38159.79, 5089.89, 25284.81, 6379.72, 36996.50, 16011.90, 0.00, 0.00, 0.00, 0.00
15, 32949.78, 38191.95, 5093.34, 25240.88, 6349.75, 36965.38, 16019.34, 0.00, 0.00, 0.00, 0.00
16, 33009.37, 38247.28, 5253.87, 25347.30, 6477.27, 35827.97, 16178.95, 0.00, 0.00, 0.00, 0.00
17, 32981.76, 38209.61, 5256.15, 25369.10, 6496.62, 35704.50, 16181.72, 0.00, 0.00, 0.00, 0.00
18, 32925.95, 38149.71, 5118.24, 25291.20, 6398.75, 36781.98, 16029.20, 0.00, 0.07, 0.94, 0.30
19, 32936.12, 38154.65, 5087.66, 25237.64, 6338.64, 37123.07, 15991.93, 0.00, 0.00, 0.00, 0.00
20, 32989.81, 38209.73, 5249.06, 25330.31, 6461.20, 35981.25, 16157.09, 0.00, 0.00, 0.00, 0.00
21, 32978.01, 38192.04, 5277.76, 25354.41, 6501.88, 35633.26, 16186.31, 0.00, 0.00, 0.00, 0.00
22, 32926.71, 38138.33, 5140.54, 25293.55, 6408.38, 36545.57, 16046.74, 0.00, 0.00, 0.00, 0.00
23, 32919.04, 38131.72, 5060.97, 25207.56, 6313.61, 37227.97, 15962.81, 0.00, 0.00, 0.00, 0.00
24, 32986.95, 38200.54, 5232.74, 25311.38, 6438.73, 36171.54, 16141.18, 0.00, 0.00, 0.00, 0.00
25, 33003.38, 38219.05, 5292.83, 25368.49, 6513.28, 35604.45, 16211.00, 0.00, 0.00, 0.00, 0.00
26, 32957.40, 38168.57, 5175.39, 25320.81, 6440.25, 36319.37, 16098.87, 0.00, 0.00, 0.00, 0.00
27, 32933.11, 38141.93, 5053.71, 25212.03, 6321.03, 37268.25, 15963.19, 0.00, 0.00, 0.00, 0.00
28, 32975.50, 38194.64, 5190.52, 25270.88, 6403.89, 36374.18, 16093.90, 0.00, 0.06, 0.94, 0.30
29, 32996.38, 38214.15, 5283.08, 25360.31, 6501.92, 35611.82, 16199.67, 0.00, 0.00, 0.00, 0.00
30, 32976.31, 38191.64, 5214.46, 25346.43, 6467.14, 36116.37, 16134.11, 0.00, 0.00, 0.00, 0.00
31, 32942.80, 38163.68, 5061.35, 25234.13, 6332.72, 37246.23, 15969.56, 0.00, 0.00, 0.00, 0.00
32, 32988.65, 38209.48, 5166.52, 25257.85, 6381.45, 36620.65, 16070.77, 0.00, 0.00, 0.00, 0.00
33, 33028.19, 38245.04, 5289.45, 25358.68, 6501.09, 35674.50, 16203.96, 0.00, 0.00, 0.00, 0.00
34, 33005.30, 38207.80, 5230.38, 25356.47, 6476.71, 35951.33, 16160.13, 0.00, 0.00, 0.00, 0.00
35, 32945.53, 38157.89, 5069.04, 25244.93, 6342.49, 37145.11, 15988.29, 0.00, 0.00, 0.00, 0.00
36, 32974.41, 38193.36, 5123.22, 25234.47, 6350.00, 36844.88, 16038.67, 0.00, 0.00, 0.00, 0.00
37, 33023.20, 38241.71, 5264.69, 25348.42, 6484.73, 35767.24, 16194.24, 0.00, 0.00, 0.00, 0.00
38, 33004.94, 38219.16, 5246.87, 25370.44, 6490.52, 35818.80, 16177.10, 0.00, 0.06, 0.95, 0.30
39, 32957.45, 38174.23, 5099.08, 25276.45, 6379.21, 36977.07, 16016.16, 0.00, 0.00, 0.00, 0.00
40, 32978.10, 38197.54, 5108.11, 25230.02, 6351.45, 37045.64, 16019.41, 0.00, 0.00, 0.00, 0.00
41, 33027.90, 38246.16, 5262.58, 25336.01, 6475.86, 35902.67, 16174.15, 0.00, 0.00, 0.00, 0.00
42, 33019.14, 38228.10, 5274.72, 25378.24, 6501.76, 35725.21, 16184.12, 0.00, 0.00, 0.00, 0.00
43, 32972.69, 38182.32, 5136.74, 25312.41, 6407.33, 36770.77, 16041.42, 0.00, 0.00, 0.00, 0.00
44, 32979.24, 38198.32, 5093.14, 25233.11, 6347.09, 37205.10, 15993.48, 0.00, 0.00, 0.00, 0.00
45, 33033.35, 38260.44, 5247.30, 25318.47, 6467.48, 36072.90, 16161.00, 0.00, 0.00, 0.00, 0.00
46, 33036.37, 38250.41, 5286.37, 25383.20, 6519.87, 35670.81, 16207.09, 0.00, 0.00, 0.00, 0.00
47, 32990.93, 38206.37, 5163.32, 25327.01, 6436.16, 36545.19, 16079.64, 0.00, 0.06, 0.94, 0.31
48, 32990.70, 38205.97, 5072.28, 25218.00, 6337.03, 37298.09, 15972.47, 0.00, 0.00, 0.00, 0.00
49, 33034.45, 38249.49, 5229.93, 25297.41, 6441.59, 36264.56, 16118.92, 0.00, 0.00, 0.00, 0.00
70, 33060.49, 38287.71, 5243.56, 25318.07, 6466.23, 36157.90, 16161.74, 0.00, 0.00, 0.00, 0.00
71, 33074.61, 38288.05, 5293.21, 25388.45, 6529.66, 35702.75, 16219.01, 0.00, 0.00, 0.00, 0.00
72, 33030.69, 38248.53, 5178.36, 25335.86, 6456.17, 36531.69, 16100.77, 0.00, 0.00, 0.00, 0.00
73, 33016.45, 38239.77, 5077.09, 25229.29, 6354.78, 37357.39, 15983.22, 0.00, 0.00, 0.00, 0.00
74, 33074.34, 38301.14, 5226.28, 25304.28, 6454.49, 36367.38, 16131.61, 0.00, 0.00, 0.00, 0.00
75, 33088.70, 38307.00, 5299.93, 25384.76, 6535.00, 35694.68, 16219.81, 0.00, 0.00, 0.00, 0.00
76, 33059.30, 38273.70, 5205.03, 25356.20, 6478.63, 36306.96, 16133.76, 0.00, 0.00, 0.00, 0.00
77, 33026.54, 38246.65, 5075.99, 25242.09, 6360.48, 37358.39, 15988.96, 0.00, 0.06, 0.94, 0.30
78, 33061.05, 38286.05, 5200.67, 25286.10, 6434.26, 36593.92, 16113.71, 0.00, 0.00, 0.00, 0.00
79, 33077.18, 38308.90, 5301.07, 25379.11, 6533.73, 35736.28, 16221.73, 0.00, 0.00, 0.00, 0.00
80, 33048.30, 38269.94, 5237.89, 25363.51, 6505.74, 36126.63, 16165.88, 0.00, 0.00, 0.00, 0.00
81, 33027.18, 38239.79, 5100.00, 25265.36, 6388.51, 37296.10, 16012.01, 0.00, 0.00, 0.00, 0.00
82, 33062.92, 38279.39, 5166.72, 25267.66, 6403.06, 36820.81, 16075.91, 0.00, 0.00, 0.00, 0.00
83, 33093.81, 38316.05, 5300.38, 25367.62, 6522.31, 35803.27, 16218.16, 0.00, 0.00, 0.00, 0.00
84, 33084.65, 38292.63, 5280.80, 25371.53, 6524.88, 35965.97, 16193.19, 0.00, 0.00, 0.00, 0.00
85, 33047.88, 38259.34, 5120.78, 25286.55, 6407.82, 37154.68, 16026.96, 0.00, 0.00, 0.00, 0.00
86, 33076.36, 38289.27, 5151.29, 25263.88, 6396.85, 37038.29, 16051.97, 0.00, 0.06, 0.95, 0.30
87, 33118.71, 38331.52, 5305.90, 25354.12, 6523.71, 35920.32, 16204.41, 0.00, 0.00, 0.00, 0.00
88, 33096.63, 38318.36, 5294.64, 25386.73, 6539.63, 35855.82, 16211.05, 0.00, 0.00, 0.00, 0.00
89, 33048.71, 38271.21, 5141.21, 25300.45, 6433.14, 36962.65, 16062.63, 0.00, 0.00, 0.00, 0.00
90, 33058.36, 38278.93, 5125.68, 25241.11, 6381.51, 37210.67, 16035.45, 0.00, 0.00, 0.00, 0.00
91, 33107.47, 38328.30, 5285.65, 25351.39, 6510.75, 36064.58, 16202.29, 0.00, 0.00, 0.00, 0.00
92, 33104.59, 38313.46, 5306.53, 25412.26, 6551.43, 35777.86, 16230.34, 0.00, 0.00, 0.00, 0.00
113, 33116.75, 38342.72, 5301.41, 25405.64, 6556.73, 35880.20, 16242.32, 0.00, 0.00, 0.00, 0.00
114, 33061.02, 38293.07, 5155.92, 25325.17, 6452.03, 36956.73, 16088.29, 0.00, 0.00, 0.00, 0.00
115, 33069.20, 38299.15, 5119.31, 25259.95, 6387.82, 37301.62, 16041.06, 0.00, 0.00, 0.00, 0.00
116, 33125.26, 38353.80, 5281.76, 25344.37, 6512.14, 36161.21, 16206.65, 0.00, 0.06, 0.95, 0.30
117, 33122.25, 38347.10, 5306.01, 25392.23, 6559.21, 35811.81, 16245.40, 0.00, 0.00, 0.00, 0.00
118, 33083.44, 38313.88, 5184.84, 25341.47, 6475.77, 36729.64, 16116.61, 0.00, 0.00, 0.00, 0.00
119, 33081.25, 38309.57, 5108.96, 25246.36, 6378.45, 37408.86, 16025.53, 0.00, 0.00, 0.00, 0.00
120, 33133.06, 38367.13, 5252.75, 25331.34, 6485.65, 36345.12, 16187.02, 0.00, 0.00, 0.00, 0.00
121, 33143.32, 38377.86, 5308.29, 25402.71, 6554.27, 35778.19, 16256.45, 0.00, 0.00, 0.00, 0.00
122, 33094.77, 38327.61, 5201.54, 25357.45, 6483.19, 36501.65, 16142.74, 0.00, 0.00, 0.00, 0.00
123, 33080.98, 38316.25, 5088.53, 25253.96, 6376.01, 37453.90, 16017.44, 0.00, 0.00, 0.00, 0.00
124, 33133.80, 38373.09, 5217.10, 25318.13, 6460.91, 36566.31, 16159.84, 0.00, 0.00, 0.00, 0.00
125, 33153.63, 38377.96, 5315.00, 25412.61, 6557.06, 35801.26, 16257.70, 0.00, 0.00, 0.00, 0.00
126, 33116.57, 38335.66, 5253.78, 25379.11, 6527.36, 36305.33, 16189.28, 0.00, 0.07, 0.94, 0.31
127, 33089.88, 38314.13, 5100.18, 25274.70, 6406.57, 37429.25, 16036.06, 0.00, 0.00, 0.00, 0.00
128, 33129.64, 38362.07, 5194.37, 25315.23, 6447.92, 36797.14, 16133.89, 0.00, 0.00, 0.00, 0.00
129, 33155.17, 38396.99, 5309.72, 25398.69, 6555.65, 35853.85, 16255.04, 0.00, 0.00, 0.00, 0.00
130, 33136.10, 38361.58, 5262.70, 25386.42, 6537.01, 36126.77, 16214.69, 0.00, 0.00, 0.00, 0.00
131, 33098.55, 38317.68, 5118.86, 25291.00, 6413.97, 37315.63, 16047.32, 0.00, 0.00, 0.00, 0.00
132, 33139.95, 38353.89, 5176.91, 25295.47, 6425.72, 37014.13, 16101.59, 0.00, 0.00, 0.00, 0.00
133, 33178.19, 38396.47, 5308.20, 25410.45, 6548.23, 35941.89, 16244.76, 0.00, 0.00, 0.00, 0.00
134, 33157.83, 38378.14, 5289.45, 25419.81, 6548.14, 35991.07, 16221.17, 0.00, 0.00, 0.00, 0.00
135, 33124.77, 38357.80, 5149.66, 25335.46, 6444.41, 37147.12, 16067.04, 0.00, 0.06, 0.95, 0.31
136, 33130.05, 38364.73, 5143.23, 25271.75, 6401.65, 37204.14, 16053.87, 0.00, 0.00, 0.00, 0.00
137, 33170.75, 38396.96, 5303.87, 25367.06, 6527.56, 36050.88, 16208.90, 0.00, 0.00, 0.00, 0.00
138, 33167.37, 38373.61, 5312.52, 25397.35, 6549.04, 35863.55, 16213.96, 0.00, 0.00, 0.00, 0.00
139, 33119.56, 38327.59, 5162.54, 25321.26, 6447.05, 36911.04, 16066.23, 0.00, 0.00, 0.00, 0.00
140, 33116.70, 38342.88, 5119.04, 25264.36, 6391.46, 37364.58, 16033.44, 0.00, 0.00, 0.00, 0.00
141, 33159.41, 38399.80, 5270.27, 25346.97, 6512.25, 36242.28, 16192.03, 0.00, 0.00, 0.00, 0.00
142, 33170.37, 38401.79, 5312.99, 25392.50, 6567.86, 35833.87, 16240.46, 0.00, 0.00, 0.00, 0.00
143, 33153.98, 38367.30, 5200.74, 25350.90, 6499.42, 36702.46, 16127.72, 0.00, 0.00, 0.00, 0.00
144, 33141.67, 38365.45, 5106.50, 25259.91, 6405.56, 37465.05, 16032.79, 0.00, 0.00, 0.00, 0.00
145, 33184.76, 38419.05, 5250.18, 25338.56, 6509.54, 36441.30, 16187.27, 0.00, 0.06, 0.94, 0.31
146, 33204.05, 38433.40, 5327.20, 25420.88, 6593.05, 35820.52, 16273.77, 0.00, 0.00, 0.00, 0.00
147, 33172.51, 38395.24, 5251.61, 25389.35, 6545.06, 36487.01, 16188.65, 0.00, 0.00, 0.00, 0.00
148, 33159.01, 38374.97, 5117.16, 25273.90, 6426.55, 37492.79, 16046.12, 0.00, 0.00, 0.00, 0.00
149, 33197.35, 38429.64, 5226.55, 25327.12, 6494.75, 36660.46, 16166.97, 0.00, 0.00, 0.00, 0.00
150, 33209.21, 38446.14, 5329.95, 25421.40, 6592.85, 35846.30, 16273.37, 0.00, 0.00, 0.00, 0.00
151, 33176.52, 38412.99, 5250.60, 25396.95, 6550.54, 36288.41, 16203.23, 0.00, 0.00, 0.00, 0.00
152, 33136.48, 38382.86, 5108.74, 25278.46, 6426.37, 37441.36, 16043.81, 0.00, 0.00, 0.00, 0.00
153, 33175.87, 38424.95, 5196.74, 25297.57, 6468.97, 36890.08, 16138.70, 0.00, 0.00, 0.00, 0.00
154, 33220.93, 38447.21, 5319.92, 25401.06, 6586.68, 35910.51, 16275.44, 0.00, 0.00, 0.00, 0.00
175, 33274.73, 38489.50, 5369.31, 25434.59, 6616.14, 35901.10, 16271.33, 0.00, 0.07, 0.95, 0.30
176, 33243.10, 38469.00, 5300.09, 25421.46, 6590.57, 36287.90, 16218.63, 0.00, 0.00, 0.00, 0.00
177, 33195.71, 38433.44, 5130.71, 25312.52, 6462.09, 37457.52, 16053.87, 0.00, 0.00, 0.00, 0.00
178, 33230.88, 38468.18, 5204.87, 25317.93, 6490.28, 36984.58, 16128.82, 0.00, 0.00, 0.00, 0.00
179, 33267.31, 38491.47, 5339.07, 25421.67, 6613.61, 35973.43, 16265.27, 0.00, 0.00, 0.00, 0.00
180, 33245.22, 38463.24, 5311.47, 25437.69, 6615.18, 36136.58, 16238.70, 0.00, 0.00, 0.00, 0.00
181, 33202.38, 38427.07, 5157.08, 25351.46, 6498.08, 37319.39, 16063.30, 0.00, 0.00, 0.00, 0.00
182, 33226.20, 38454.45, 5176.93, 25288.45, 6479.84, 37195.00, 16079.91, 0.00, 0.00, 0.00, 0.00
183, 33275.18, 38492.99, 5326.85, 25399.27, 6610.95, 36080.52, 16239.75, 0.00, 0.00, 0.00, 0.00
184, 33265.18, 38478.37, 5332.61, 25432.28, 6637.40, 36020.59, 16253.61, 0.00, 0.07, 0.94, 0.30
185, 33223.14, 38447.26, 5183.73, 25351.71, 6536.25, 37128.73, 16106.00, 0.00, 0.00, 0.00, 0.00
186, 33234.65, 38467.39, 5159.70, 25289.61, 6481.71, 37379.40, 16072.71, 0.00, 0.00, 0.00, 0.00
187, 33293.66, 38518.38, 5322.82, 25397.97, 6612.34, 36237.05, 16237.42, 0.00, 0.00, 0.00, 0.00
188, 33277.41, 38493.75, 5337.55, 25446.61, 6641.82, 35952.54, 16255.95, 0.00, 0.00, 0.00, 0.00
189, 33236.02, 38455.57, 5231.65, 25377.07, 6566.29, 36918.89, 16130.02, 0.00, 0.00, 0.00, 0.00
190, 33238.94, 38458.50, 5165.80, 25292.29, 6491.44, 37521.22, 16060.04, 0.00, 0.00, 0.00, 0.00
191, 33284.07, 38511.09, 5298.41, 25378.26, 6599.44, 36429.70, 16227.21, 0.00, 0.00, 0.00, 0.00
192, 33299.94, 38522.78, 5359.52, 25452.67, 6667.88, 35916.86, 16289.33, 0.00, 0.00, 0.00, 0.00
193, 33262.39, 38482.66, 5267.64, 25412.79, 6606.73, 36692.04, 16175.80, 0.00, 0.00, 0.00, 0.00
194, 33234.23, 38458.70, 5146.67, 25301.97, 6489.47, 37580.28, 16046.50, 0.00, 0.06, 0.94, 0.31
195, 33289.12, 38511.72, 5283.39, 25372.07, 6578.65, 36634.60, 16188.88, 0.00, 0.00, 0.00, 0.00
196, 33317.71, 38521.44, 5373.56, 25457.56, 6665.94, 35911.50, 16284.07, 0.00, 0.00, 0.00, 0.00
197, 33274.53, 38491.76, 5292.62, 25433.36, 6613.55, 36473.15, 16198.76, 0.00, 0.00, 0.00, 0.00
198, 33236.57, 38456.24, 5160.77, 25327.74, 6492.27, 37561.97, 16050.29, 0.00, 0.00, 0.00, 0.00
199, 33287.22, 38509.33, 5253.46, 25351.66, 6551.25, 36856.04, 16161.72, 0.00, 0.00, 0.00, 0.00
200, 33314.13, 38529.22, 5365.96, 25445.18, 6657.91, 35950.48, 16278.75, 0.00, 0.00, 0.00, 0.00
201, 33285.95, 384